
# From lspdd.org
# 
# Name: DEL EnergySmart PAR38 Domestique
# Indice spectral Valeur 
# MSI 0.29 
# SLI 0.51 
# IPI 0.64 
# Pourcentage de bleu 19.4 
# Caractéristique Valeur 
# CCT calculée (K) 2947 
# CCT du fabricant (K) 3000 
# Tension (V) 120 
# Puissance (W) 20.0 
# Efficacité lumineuse (Lum/W) 55.0 
#
# Image: '/app/system/img_2s/2473/medium_image2.JPG?1413485812'
# Image: '/app/system/img_1s/2473/medium_image1.jpg?1413485816'
# 

  273.00  0.0000E+000  
  273.50  0.0000E+000  
  274.00  0.0000E+000  
  274.50  0.0000E+000  
  275.00  0.0000E+000  
  275.50  0.0000E+000  
  276.00  0.0000E+000  
  276.50  0.0000E+000  
  277.00  0.0000E+000  
  277.50  0.0000E+000  
  278.00  0.0000E+000  
  278.50  0.0000E+000  
  279.00  0.0000E+000  
  279.50  0.0000E+000  
  280.00  0.0000E+000  
  280.50  0.0000E+000  
  281.00  0.0000E+000  
  281.50  0.0000E+000  
  282.00  0.0000E+000  
  282.50  0.0000E+000  
  283.00  0.0000E+000  
  283.50  0.0000E+000  
  284.00  0.0000E+000  
  284.50  0.0000E+000  
  285.00  0.0000E+000  
  285.50  0.0000E+000  
  286.00  0.0000E+000  
  286.50  0.0000E+000  
  287.00  0.0000E+000  
  287.50  0.0000E+000  
  288.00  0.0000E+000  
  288.50  0.0000E+000  
  289.00  0.0000E+000  
  289.50  0.0000E+000  
  290.00  0.0000E+000  
  290.50  0.0000E+000  
  291.00  0.0000E+000  
  291.50  0.0000E+000  
  292.00  0.0000E+000  
  292.50  0.0000E+000  
  293.00  0.0000E+000  
  293.50  0.0000E+000  
  294.00  0.0000E+000  
  294.50  0.0000E+000  
  295.00  0.0000E+000  
  295.50  0.0000E+000  
  296.00  0.0000E+000  
  296.50  0.0000E+000  
  297.00  0.0000E+000  
  297.50  0.0000E+000  
  298.00  0.0000E+000  
  298.50  0.0000E+000  
  299.00  0.0000E+000  
  299.50  0.0000E+000  
  300.00  4.1929E-005  
  300.50  1.5620E-004  
  301.00  2.4992E-004  
  301.50  2.5127E-004  
  302.00  2.4296E-004  
  302.50  2.2641E-004  
  303.00  2.3366E-004  
  303.50  2.6505E-004  
  304.00  2.9012E-004  
  304.50  2.9700E-004  
  305.00  2.5107E-004  
  305.50  2.0299E-004  
  306.00  2.0273E-004  
  306.50  1.7575E-004  
  307.00  2.1984E-004  
  307.50  2.4294E-004  
  308.00  2.1167E-004  
  308.50  2.0302E-004  
  309.00  1.6376E-004  
  309.50  1.4672E-004  
  310.00  1.3766E-004  
  310.50  1.5194E-004  
  311.00  1.6631E-004  
  311.50  1.7470E-004  
  312.00  1.8712E-004  
  312.50  1.8083E-004  
  313.00  1.9604E-004  
  313.50  1.8658E-004  
  314.00  1.9062E-004  
  314.50  1.7648E-004  
  315.00  1.7201E-004  
  315.50  2.1766E-004  
  316.00  2.1971E-004  
  316.50  1.9538E-004  
  317.00  2.1383E-004  
  317.50  1.8832E-004  
  318.00  1.4410E-004  
  318.50  1.2518E-004  
  319.00  7.3732E-005  
  319.50  7.0024E-005  
  320.00  1.1645E-004  
  320.50  1.2872E-004  
  321.00  1.1113E-004  
  321.50  1.4261E-004  
  322.00  1.9559E-004  
  322.50  2.1398E-004  
  323.00  2.3926E-004  
  323.50  2.0825E-004  
  324.00  1.4702E-004  
  324.50  1.5446E-004  
  325.00  1.6712E-004  
  325.50  1.9937E-004  
  326.00  2.3469E-004  
  326.50  2.2101E-004  
  327.00  1.8035E-004  
  327.50  1.4395E-004  
  328.00  1.0664E-004  
  328.50  1.2716E-004  
  329.00  1.4587E-004  
  329.50  1.4900E-004  
  330.00  1.1862E-004  
  330.50  9.9316E-005  
  331.00  1.1293E-004  
  331.50  1.4110E-004  
  332.00  1.9529E-004  
  332.50  1.7729E-004  
  333.00  1.2533E-004  
  333.50  1.1760E-004  
  334.00  1.2762E-004  
  334.50  1.6051E-004  
  335.00  1.9232E-004  
  335.50  2.0773E-004  
  336.00  2.1498E-004  
  336.50  2.3069E-004  
  337.00  2.1279E-004  
  337.50  1.8274E-004  
  338.00  1.3817E-004  
  338.50  1.0838E-004  
  339.00  1.3380E-004  
  339.50  1.3617E-004  
  340.00  2.1116E-004  
  340.50  2.8639E-004  
  341.00  3.1670E-004  
  341.50  3.1651E-004  
  342.00  2.6902E-004  
  342.50  2.5208E-004  
  343.00  2.6868E-004  
  343.50  2.6250E-004  
  344.00  2.6897E-004  
  344.50  2.3027E-004  
  345.00  1.8087E-004  
  345.50  1.6328E-004  
  346.00  1.4685E-004  
  346.50  1.4817E-004  
  347.00  1.9825E-004  
  347.50  2.5692E-004  
  348.00  3.2309E-004  
  348.50  3.3151E-004  
  349.00  3.1577E-004  
  349.50  3.1551E-004  
  350.00  2.8497E-004  
  350.50  2.8516E-004  
  351.00  2.8362E-004  
  351.50  2.4987E-004  
  352.00  2.3925E-004  
  352.50  2.1321E-004  
  353.00  1.8035E-004  
  353.50  1.6753E-004  
  354.00  1.9503E-004  
  354.50  2.4408E-004  
  355.00  2.6757E-004  
  355.50  3.0040E-004  
  356.00  2.7697E-004  
  356.50  2.8310E-004  
  357.00  2.5770E-004  
  357.50  2.2875E-004  
  358.00  2.6177E-004  
  358.50  2.7092E-004  
  359.00  3.1540E-004  
  359.50  3.1264E-004  
  360.00  3.0175E-004  
  360.50  2.8597E-004  
  361.00  2.3447E-004  
  361.50  2.0949E-004  
  362.00  1.8565E-004  
  362.50  2.2457E-004  
  363.00  3.3628E-004  
  363.50  3.9346E-004  
  364.00  4.3207E-004  
  364.50  4.2129E-004  
  365.00  3.9616E-004  
  365.50  4.1134E-004  
  366.00  3.9630E-004  
  366.50  3.7167E-004  
  367.00  3.1485E-004  
  367.50  2.6882E-004  
  368.00  2.5584E-004  
  368.50  2.7039E-004  
  369.00  2.9896E-004  
  369.50  2.8380E-004  
  370.00  2.9487E-004  
  370.50  3.0418E-004  
  371.00  3.2324E-004  
  371.50  3.3627E-004  
  372.00  3.0649E-004  
  372.50  2.6284E-004  
  373.00  2.7505E-004  
  373.50  3.0144E-004  
  374.00  3.1599E-004  
  374.50  3.1700E-004  
  375.00  2.6040E-004  
  375.50  2.1102E-004  
  376.00  2.2487E-004  
  376.50  3.1247E-004  
  377.00  3.5330E-004  
  377.50  3.8388E-004  
  378.00  3.3147E-004  
  378.50  2.8194E-004  
  379.00  3.0444E-004  
  379.50  3.1374E-004  
  380.00  3.4043E-004  
  380.50  3.7076E-004  
  381.00  3.6772E-004  
  381.50  4.2828E-004  
  382.00  4.1256E-004  
  382.50  3.8181E-004  
  383.00  3.6342E-004  
  383.50  3.4572E-004  
  384.00  3.8706E-004  
  384.50  3.7541E-004  
  385.00  3.3695E-004  
  385.50  3.3337E-004  
  386.00  3.6759E-004  
  386.50  3.8359E-004  
  387.00  3.5247E-004  
  387.50  2.8776E-004  
  388.00  2.7832E-004  
  388.50  2.8888E-004  
  389.00  2.9098E-004  
  389.50  2.8789E-004  
  390.00  2.7625E-004  
  390.50  3.0197E-004  
  391.00  3.2026E-004  
  391.50  2.9763E-004  
  392.00  3.4530E-004  
  392.50  4.0148E-004  
  393.00  4.6663E-004  
  393.50  4.5520E-004  
  394.00  3.9785E-004  
  394.50  3.5317E-004  
  395.00  3.4732E-004  
  395.50  3.9665E-004  
  396.00  4.3819E-004  
  396.50  4.7004E-004  
  397.00  4.8224E-004  
  397.50  4.8312E-004  
  398.00  4.8352E-004  
  398.50  4.7911E-004  
  399.00  4.7291E-004  
  399.50  4.8080E-004  
  400.00  5.2519E-004  
  400.50  5.6794E-004  
  401.00  5.6948E-004  
  401.50  5.4831E-004  
  402.00  5.2940E-004  
  402.50  5.1644E-004  
  403.00  5.1544E-004  
  403.50  4.8822E-004  
  404.00  4.7741E-004  
  404.50  5.3802E-004  
  405.00  6.0430E-004  
  405.50  6.1892E-004  
  406.00  6.2206E-004  
  406.50  6.2516E-004  
  407.00  6.6481E-004  
  407.50  7.7210E-004  
  408.00  8.1467E-004  
  408.50  8.0635E-004  
  409.00  7.9631E-004  
  409.50  7.4706E-004  
  410.00  7.4893E-004  
  410.50  7.7740E-004  
  411.00  8.1088E-004  
  411.50  8.6207E-004  
  412.00  9.1311E-004  
  412.50  9.5798E-004  
  413.00  1.0003E-003  
  413.50  1.0729E-003  
  414.00  1.1584E-003  
  414.50  1.1819E-003  
  415.00  1.1973E-003  
  415.50  1.2387E-003  
  416.00  1.3339E-003  
  416.50  1.4717E-003  
  417.00  1.5970E-003  
  417.50  1.6965E-003  
  418.00  1.7854E-003  
  418.50  1.9183E-003  
  419.00  2.0423E-003  
  419.50  2.1554E-003  
  420.00  2.3028E-003  
  420.50  2.4486E-003  
  421.00  2.6591E-003  
  421.50  2.8999E-003  
  422.00  3.1292E-003  
  422.50  3.3691E-003  
  423.00  3.6353E-003  
  423.50  3.8644E-003  
  424.00  4.1106E-003  
  424.50  4.3207E-003  
  425.00  4.5934E-003  
  425.50  4.8481E-003  
  426.00  5.0881E-003  
  426.50  5.4176E-003  
  427.00  5.7719E-003  
  427.50  6.2199E-003  
  428.00  6.6808E-003  
  428.50  7.0595E-003  
  429.00  7.4407E-003  
  429.50  7.9225E-003  
  430.00  8.4568E-003  
  430.50  9.0208E-003  
  431.00  9.5259E-003  
  431.50  9.9520E-003  
  432.00  1.0411E-002  
  432.50  1.0899E-002  
  433.00  1.1484E-002  
  433.50  1.2079E-002  
  434.00  1.2686E-002  
  434.50  1.3348E-002  
  435.00  1.4049E-002  
  435.50  1.4768E-002  
  436.00  1.5422E-002  
  436.50  1.6029E-002  
  437.00  1.6709E-002  
  437.50  1.7446E-002  
  438.00  1.8261E-002  
  438.50  1.9053E-002  
  439.00  1.9757E-002  
  439.50  2.0596E-002  
  440.00  2.1447E-002  
  440.50  2.2376E-002  
  441.00  2.3340E-002  
  441.50  2.4257E-002  
  442.00  2.5299E-002  
  442.50  2.6307E-002  
  443.00  2.7386E-002  
  443.50  2.8391E-002  
  444.00  2.9467E-002  
  444.50  3.0628E-002  
  445.00  3.1897E-002  
  445.50  3.3203E-002  
  446.00  3.4550E-002  
  446.50  3.5898E-002  
  447.00  3.7290E-002  
  447.50  3.8775E-002  
  448.00  4.0200E-002  
  448.50  4.1686E-002  
  449.00  4.3233E-002  
  449.50  4.4832E-002  
  450.00  4.6515E-002  
  450.50  4.8123E-002  
  451.00  4.9678E-002  
  451.50  5.1146E-002  
  452.00  5.2639E-002  
  452.50  5.4044E-002  
  453.00  5.5222E-002  
  453.50  5.6251E-002  
  454.00  5.7168E-002  
  454.50  5.8153E-002  
  455.00  5.9268E-002  
  455.50  6.0106E-002  
  456.00  6.0834E-002  
  456.50  6.1551E-002  
  457.00  6.2019E-002  
  457.50  6.2409E-002  
  458.00  6.2441E-002  
  458.50  6.2056E-002  
  459.00  6.1768E-002  
  459.50  6.1262E-002  
  460.00  6.0838E-002  
  460.50  6.0487E-002  
  461.00  6.0106E-002  
  461.50  5.9504E-002  
  462.00  5.8704E-002  
  462.50  5.7798E-002  
  463.00  5.6971E-002  
  463.50  5.6172E-002  
  464.00  5.5229E-002  
  464.50  5.4064E-002  
  465.00  5.2941E-002  
  465.50  5.1970E-002  
  466.00  5.1000E-002  
  466.50  5.0127E-002  
  467.00  4.9044E-002  
  467.50  4.8117E-002  
  468.00  4.7246E-002  
  468.50  4.6441E-002  
  469.00  4.5739E-002  
  469.50  4.5035E-002  
  470.00  4.4458E-002  
  470.50  4.3884E-002  
  471.00  4.3285E-002  
  471.50  4.2582E-002  
  472.00  4.1925E-002  
  472.50  4.1312E-002  
  473.00  4.0787E-002  
  473.50  4.0343E-002  
  474.00  3.9837E-002  
  474.50  3.9266E-002  
  475.00  3.8612E-002  
  475.50  3.8049E-002  
  476.00  3.7524E-002  
  476.50  3.7133E-002  
  477.00  3.6702E-002  
  477.50  3.6271E-002  
  478.00  3.5705E-002  
  478.50  3.5222E-002  
  479.00  3.4842E-002  
  479.50  3.4499E-002  
  480.00  3.4122E-002  
  480.50  3.3629E-002  
  481.00  3.3106E-002  
  481.50  3.2576E-002  
  482.00  3.2060E-002  
  482.50  3.1603E-002  
  483.00  3.1198E-002  
  483.50  3.0918E-002  
  484.00  3.0682E-002  
  484.50  3.0385E-002  
  485.00  3.0067E-002  
  485.50  2.9733E-002  
  486.00  2.9393E-002  
  486.50  2.9183E-002  
  487.00  2.8956E-002  
  487.50  2.8770E-002  
  488.00  2.8646E-002  
  488.50  2.8557E-002  
  489.00  2.8582E-002  
  489.50  2.8528E-002  
  490.00  2.8447E-002  
  490.50  2.8344E-002  
  491.00  2.8353E-002  
  491.50  2.8353E-002  
  492.00  2.8413E-002  
  492.50  2.8473E-002  
  493.00  2.8565E-002  
  493.50  2.8674E-002  
  494.00  2.8750E-002  
  494.50  2.8912E-002  
  495.00  2.9080E-002  
  495.50  2.9299E-002  
  496.00  2.9456E-002  
  496.50  2.9653E-002  
  497.00  2.9903E-002  
  497.50  3.0216E-002  
  498.00  3.0570E-002  
  498.50  3.0880E-002  
  499.00  3.1178E-002  
  499.50  3.1460E-002  
  500.00  3.1869E-002  
  500.50  3.2346E-002  
  501.00  3.2837E-002  
  501.50  3.3313E-002  
  502.00  3.3806E-002  
  502.50  3.4327E-002  
  503.00  3.4839E-002  
  503.50  3.5304E-002  
  504.00  3.5882E-002  
  504.50  3.6524E-002  
  505.00  3.7224E-002  
  505.50  3.7860E-002  
  506.00  3.8447E-002  
  506.50  3.9019E-002  
  507.00  3.9621E-002  
  507.50  4.0260E-002  
  508.00  4.0820E-002  
  508.50  4.1486E-002  
  509.00  4.2187E-002  
  509.50  4.2988E-002  
  510.00  4.3842E-002  
  510.50  4.4643E-002  
  511.00  4.5419E-002  
  511.50  4.6148E-002  
  512.00  4.6903E-002  
  512.50  4.7667E-002  
  513.00  4.8491E-002  
  513.50  4.9307E-002  
  514.00  5.0112E-002  
  514.50  5.0908E-002  
  515.00  5.1643E-002  
  515.50  5.2373E-002  
  516.00  5.3132E-002  
  516.50  5.3966E-002  
  517.00  5.4847E-002  
  517.50  5.5693E-002  
  518.00  5.6459E-002  
  518.50  5.7235E-002  
  519.00  5.8031E-002  
  519.50  5.8849E-002  
  520.00  5.9654E-002  
  520.50  6.0405E-002  
  521.00  6.1081E-002  
  521.50  6.1791E-002  
  522.00  6.2534E-002  
  522.50  6.3422E-002  
  523.00  6.4267E-002  
  523.50  6.5078E-002  
  524.00  6.5816E-002  
  524.50  6.6564E-002  
  525.00  6.7301E-002  
  525.50  6.7927E-002  
  526.00  6.8559E-002  
  526.50  6.9250E-002  
  527.00  6.9904E-002  
  527.50  7.0574E-002  
  528.00  7.1178E-002  
  528.50  7.1963E-002  
  529.00  7.2818E-002  
  529.50  7.3649E-002  
  530.00  7.4307E-002  
  530.50  7.4921E-002  
  531.00  7.5587E-002  
  531.50  7.6212E-002  
  532.00  7.6873E-002  
  532.50  7.7510E-002  
  533.00  7.8154E-002  
  533.50  7.8800E-002  
  534.00  7.9311E-002  
  534.50  7.9810E-002  
  535.00  8.0360E-002  
  535.50  8.0959E-002  
  536.00  8.1627E-002  
  536.50  8.2201E-002  
  537.00  8.2787E-002  
  537.50  8.3448E-002  
  538.00  8.4124E-002  
  538.50  8.4701E-002  
  539.00  8.5272E-002  
  539.50  8.5799E-002  
  540.00  8.6455E-002  
  540.50  8.7053E-002  
  541.00  8.7553E-002  
  541.50  8.8133E-002  
  542.00  8.8791E-002  
  542.50  8.9577E-002  
  543.00  9.0339E-002  
  543.50  9.1023E-002  
  544.00  9.1528E-002  
  544.50  9.1999E-002  
  545.00  9.2394E-002  
  545.50  9.2819E-002  
  546.00  9.3272E-002  
  546.50  9.3830E-002  
  547.00  9.4456E-002  
  547.50  9.5157E-002  
  548.00  9.5810E-002  
  548.50  9.6470E-002  
  549.00  9.7149E-002  
  549.50  9.7701E-002  
  550.00  9.8237E-002  
  550.50  9.8753E-002  
  551.00  9.9302E-002  
  551.50  9.9970E-002  
  552.00  1.0055E-001  
  552.50  1.0123E-001  
  553.00  1.0189E-001  
  553.50  1.0249E-001  
  554.00  1.0306E-001  
  554.50  1.0366E-001  
  555.00  1.0425E-001  
  555.50  1.0491E-001  
  556.00  1.0551E-001  
  556.50  1.0613E-001  
  557.00  1.0682E-001  
  557.50  1.0768E-001  
  558.00  1.0848E-001  
  558.50  1.0918E-001  
  559.00  1.0973E-001  
  559.50  1.1026E-001  
  560.00  1.1089E-001  
  560.50  1.1148E-001  
  561.00  1.1201E-001  
  561.50  1.1262E-001  
  562.00  1.1320E-001  
  562.50  1.1383E-001  
  563.00  1.1437E-001  
  563.50  1.1502E-001  
  564.00  1.1568E-001  
  564.50  1.1627E-001  
  565.00  1.1683E-001  
  565.50  1.1745E-001  
  566.00  1.1803E-001  
  566.50  1.1859E-001  
  567.00  1.1905E-001  
  567.50  1.1960E-001  
  568.00  1.2027E-001  
  568.50  1.2085E-001  
  569.00  1.2134E-001  
  569.50  1.2185E-001  
  570.00  1.2240E-001  
  570.50  1.2296E-001  
  571.00  1.2351E-001  
  571.50  1.2399E-001  
  572.00  1.2464E-001  
  572.50  1.2523E-001  
  573.00  1.2587E-001  
  573.50  1.2641E-001  
  574.00  1.2705E-001  
  574.50  1.2756E-001  
  575.00  1.2813E-001  
  575.50  1.2860E-001  
  576.00  1.2922E-001  
  576.50  1.2976E-001  
  577.00  1.3036E-001  
  577.50  1.3089E-001  
  578.00  1.3138E-001  
  578.50  1.3193E-001  
  579.00  1.3245E-001  
  579.50  1.3296E-001  
  580.00  1.3332E-001  
  580.50  1.3380E-001  
  581.00  1.3434E-001  
  581.50  1.3490E-001  
  582.00  1.3531E-001  
  582.50  1.3577E-001  
  583.00  1.3629E-001  
  583.50  1.3684E-001  
  584.00  1.3718E-001  
  584.50  1.3752E-001  
  585.00  1.3781E-001  
  585.50  1.3822E-001  
  586.00  1.3873E-001  
  586.50  1.3935E-001  
  587.00  1.3996E-001  
  587.50  1.4040E-001  
  588.00  1.4060E-001  
  588.50  1.4075E-001  
  589.00  1.4094E-001  
  589.50  1.4117E-001  
  590.00  1.4148E-001  
  590.50  1.4187E-001  
  591.00  1.4228E-001  
  591.50  1.4269E-001  
  592.00  1.4287E-001  
  592.50  1.4305E-001  
  593.00  1.4321E-001  
  593.50  1.4346E-001  
  594.00  1.4375E-001  
  594.50  1.4391E-001  
  595.00  1.4403E-001  
  595.50  1.4401E-001  
  596.00  1.4410E-001  
  596.50  1.4423E-001  
  597.00  1.4451E-001  
  597.50  1.4470E-001  
  598.00  1.4483E-001  
  598.50  1.4481E-001  
  599.00  1.4482E-001  
  599.50  1.4487E-001  
  600.00  1.4487E-001  
  600.50  1.4498E-001  
  601.00  1.4514E-001  
  601.50  1.4525E-001  
  602.00  1.4528E-001  
  602.50  1.4520E-001  
  603.00  1.4514E-001  
  603.50  1.4510E-001  
  604.00  1.4511E-001  
  604.50  1.4507E-001  
  605.00  1.4482E-001  
  605.50  1.4446E-001  
  606.00  1.4408E-001  
  606.50  1.4402E-001  
  607.00  1.4396E-001  
  607.50  1.4386E-001  
  608.00  1.4362E-001  
  608.50  1.4346E-001  
  609.00  1.4335E-001  
  609.50  1.4322E-001  
  610.00  1.4303E-001  
  610.50  1.4278E-001  
  611.00  1.4254E-001  
  611.50  1.4212E-001  
  612.00  1.4166E-001  
  612.50  1.4111E-001  
  613.00  1.4081E-001  
  613.50  1.4064E-001  
  614.00  1.4050E-001  
  614.50  1.4008E-001  
  615.00  1.3966E-001  
  615.50  1.3912E-001  
  616.00  1.3854E-001  
  616.50  1.3793E-001  
  617.00  1.3743E-001  
  617.50  1.3708E-001  
  618.00  1.3665E-001  
  618.50  1.3612E-001  
  619.00  1.3557E-001  
  619.50  1.3504E-001  
  620.00  1.3460E-001  
  620.50  1.3410E-001  
  621.00  1.3366E-001  
  621.50  1.3309E-001  
  622.00  1.3264E-001  
  622.50  1.3196E-001  
  623.00  1.3128E-001  
  623.50  1.3056E-001  
  624.00  1.2983E-001  
  624.50  1.2905E-001  
  625.00  1.2831E-001  
  625.50  1.2790E-001  
  626.00  1.2745E-001  
  626.50  1.2683E-001  
  627.00  1.2609E-001  
  627.50  1.2545E-001  
  628.00  1.2482E-001  
  628.50  1.2414E-001  
  629.00  1.2337E-001  
  629.50  1.2261E-001  
  630.00  1.2183E-001  
  630.50  1.2114E-001  
  631.00  1.2052E-001  
  631.50  1.1983E-001  
  632.00  1.1886E-001  
  632.50  1.1798E-001  
  633.00  1.1721E-001  
  633.50  1.1663E-001  
  634.00  1.1592E-001  
  634.50  1.1516E-001  
  635.00  1.1432E-001  
  635.50  1.1337E-001  
  636.00  1.1234E-001  
  636.50  1.1137E-001  
  637.00  1.1069E-001  
  637.50  1.1012E-001  
  638.00  1.0948E-001  
  638.50  1.0869E-001  
  639.00  1.0767E-001  
  639.50  1.0667E-001  
  640.00  1.0568E-001  
  640.50  1.0475E-001  
  641.00  1.0398E-001  
  641.50  1.0325E-001  
  642.00  1.0262E-001  
  642.50  1.0184E-001  
  643.00  1.0097E-001  
  643.50  1.0005E-001  
  644.00  9.9192E-002  
  644.50  9.8342E-002  
  645.00  9.7399E-002  
  645.50  9.6449E-002  
  646.00  9.5544E-002  
  646.50  9.4733E-002  
  647.00  9.4020E-002  
  647.50  9.3180E-002  
  648.00  9.2373E-002  
  648.50  9.1479E-002  
  649.00  9.0593E-002  
  649.50  8.9515E-002  
  650.00  8.8569E-002  
  650.50  8.7723E-002  
  651.00  8.7150E-002  
  651.50  8.6385E-002  
  652.00  8.5475E-002  
  652.50  8.4431E-002  
  653.00  8.3488E-002  
  653.50  8.2533E-002  
  654.00  8.1671E-002  
  654.50  8.0887E-002  
  655.00  8.0322E-002  
  655.50  7.9544E-002  
  656.00  7.8648E-002  
  656.50  7.7625E-002  
  657.00  7.6690E-002  
  657.50  7.5837E-002  
  658.00  7.5095E-002  
  658.50  7.4367E-002  
  659.00  7.3658E-002  
  659.50  7.2868E-002  
  660.00  7.2046E-002  
  660.50  7.1212E-002  
  661.00  7.0279E-002  
  661.50  6.9381E-002  
  662.00  6.8405E-002  
  662.50  6.7575E-002  
  663.00  6.6855E-002  
  663.50  6.6255E-002  
  664.00  6.5549E-002  
  664.50  6.4671E-002  
  665.00  6.3734E-002  
  665.50  6.2833E-002  
  666.00  6.2091E-002  
  666.50  6.1401E-002  
  667.00  6.0656E-002  
  667.50  5.9932E-002  
  668.00  5.9208E-002  
  668.50  5.8613E-002  
  669.00  5.7859E-002  
  669.50  5.7022E-002  
  670.00  5.6200E-002  
  670.50  5.5532E-002  
  671.00  5.4889E-002  
  671.50  5.4269E-002  
  672.00  5.3675E-002  
  672.50  5.3125E-002  
  673.00  5.2515E-002  
  673.50  5.1816E-002  
  674.00  5.1103E-002  
  674.50  5.0386E-002  
  675.00  4.9667E-002  
  675.50  4.8937E-002  
  676.00  4.8317E-002  
  676.50  4.7767E-002  
  677.00  4.7228E-002  
  677.50  4.6585E-002  
  678.00  4.5904E-002  
  678.50  4.5152E-002  
  679.00  4.4505E-002  
  679.50  4.3983E-002  
  680.00  4.3487E-002  
  680.50  4.3057E-002  
  681.00  4.2368E-002  
  681.50  4.1709E-002  
  682.00  4.1088E-002  
  682.50  4.0679E-002  
  683.00  4.0333E-002  
  683.50  3.9763E-002  
  684.00  3.9167E-002  
  684.50  3.8519E-002  
  685.00  3.8027E-002  
  685.50  3.7586E-002  
  686.00  3.7166E-002  
  686.50  3.6663E-002  
  687.00  3.6118E-002  
  687.50  3.5664E-002  
  688.00  3.5222E-002  
  688.50  3.4796E-002  
  689.00  3.4219E-002  
  689.50  3.3665E-002  
  690.00  3.3079E-002  
  690.50  3.2602E-002  
  691.00  3.2105E-002  
  691.50  3.1678E-002  
  692.00  3.1344E-002  
  692.50  3.1009E-002  
  693.00  3.0678E-002  
  693.50  3.0216E-002  
  694.00  2.9761E-002  
  694.50  2.9246E-002  
  695.00  2.8785E-002  
  695.50  2.8364E-002  
  696.00  2.7943E-002  
  696.50  2.7518E-002  
  697.00  2.7100E-002  
  697.50  2.6786E-002  
  698.00  2.6459E-002  
  698.50  2.6083E-002  
  699.00  2.5622E-002  
  699.50  2.5230E-002  
  700.00  2.5029E-002  
  700.50  2.4742E-002  
  701.00  2.4381E-002  
  701.50  2.3899E-002  
  702.00  2.3600E-002  
  702.50  2.3319E-002  
  703.00  2.2972E-002  
  703.50  2.2596E-002  
  704.00  2.2332E-002  
  704.50  2.2096E-002  
  705.00  2.1794E-002  
  705.50  2.1349E-002  
  706.00  2.0886E-002  
  706.50  2.0457E-002  
  707.00  2.0119E-002  
  707.50  1.9963E-002  
  708.00  1.9800E-002  
  708.50  1.9530E-002  
  709.00  1.9175E-002  
  709.50  1.8836E-002  
  710.00  1.8550E-002  
  710.50  1.8285E-002  
  711.00  1.7998E-002  
  711.50  1.7725E-002  
  712.00  1.7500E-002  
  712.50  1.7326E-002  
  713.00  1.6997E-002  
  713.50  1.6700E-002  
  714.00  1.6505E-002  
  714.50  1.6349E-002  
  715.00  1.6111E-002  
  715.50  1.5790E-002  
  716.00  1.5626E-002  
  716.50  1.5457E-002  
  717.00  1.5210E-002  
  717.50  1.4864E-002  
  718.00  1.4617E-002  
  718.50  1.4456E-002  
  719.00  1.4353E-002  
  719.50  1.4135E-002  
  720.00  1.3963E-002  
  720.50  1.3776E-002  
  721.00  1.3633E-002  
  721.50  1.3325E-002  
  722.00  1.3118E-002  
  722.50  1.2889E-002  
  723.00  1.2745E-002  
  723.50  1.2564E-002  
  724.00  1.2414E-002  
  724.50  1.2276E-002  
  725.00  1.2104E-002  
  725.50  1.1953E-002  
  726.00  1.1723E-002  
  726.50  1.1531E-002  
  727.00  1.1341E-002  
  727.50  1.1161E-002  
  728.00  1.0982E-002  
  728.50  1.0879E-002  
  729.00  1.0835E-002  
  729.50  1.0702E-002  
  730.00  1.0558E-002  
  730.50  1.0314E-002  
  731.00  1.0179E-002  
  731.50  1.0036E-002  
  732.00  9.8592E-003  
  732.50  9.6411E-003  
  733.00  9.4783E-003  
  733.50  9.3319E-003  
  734.00  9.2130E-003  
  734.50  9.0917E-003  
  735.00  9.0305E-003  
  735.50  8.8756E-003  
  736.00  8.7416E-003  
  736.50  8.6238E-003  
  737.00  8.4225E-003  
  737.50  8.1858E-003  
  738.00  8.0095E-003  
  738.50  7.9969E-003  
  739.00  7.9663E-003  
  739.50  7.8891E-003  
  740.00  7.7272E-003  
  740.50  7.6674E-003  
  741.00  7.5815E-003  
  741.50  7.5358E-003  
  742.00  7.4643E-003  
  742.50  7.3752E-003  
  743.00  7.1636E-003  
  743.50  7.0579E-003  
  744.00  7.0109E-003  
  744.50  6.9889E-003  
  745.00  6.8744E-003  
  745.50  6.7345E-003  
  746.00  6.5980E-003  
  746.50  6.3946E-003  
  747.00  6.2698E-003  
  747.50  6.0922E-003  
  748.00  6.1187E-003  
  748.50  6.0611E-003  
  749.00  6.0388E-003  
  749.50  5.9051E-003  
  750.00  5.7256E-003  
  750.50  5.6318E-003  
  751.00  5.6119E-003  
  751.50  5.6003E-003  
  752.00  5.5520E-003  
  752.50  5.4557E-003  
  753.00  5.3008E-003  
  753.50  5.0717E-003  
  754.00  5.0375E-003  
  754.50  5.0137E-003  
  755.00  4.9437E-003  
  755.50  4.8478E-003  
  756.00  4.8503E-003  
  756.50  4.7504E-003  
  757.00  4.6198E-003  
  757.50  4.6217E-003  
  758.00  4.5930E-003  
  758.50  4.5569E-003  
  759.00  4.4929E-003  
  759.50  4.3961E-003  
  760.00  4.2566E-003  
  760.50  4.2048E-003  
  761.00  4.0807E-003  
  761.50  3.9587E-003  
  762.00  4.0172E-003  
  762.50  4.0428E-003  
  763.00  3.9796E-003  
  763.50  3.8763E-003  
  764.00  3.8443E-003  
  764.50  3.7926E-003  
  765.00  3.7512E-003  
  765.50  3.6868E-003  
  766.00  3.6147E-003  
  766.50  3.4922E-003  
  767.00  3.5609E-003  
  767.50  3.7075E-003  
  768.00  3.6910E-003  
  768.50  3.6268E-003  
  769.00  3.4684E-003  
  769.50  3.4069E-003  
  770.00  3.2769E-003  
  770.50  3.2421E-003  
  771.00  3.2384E-003  
  771.50  3.3178E-003  
  772.00  3.2605E-003  
  772.50  3.1685E-003  
  773.00  3.0352E-003  
  773.50  3.0093E-003  
  774.00  3.0039E-003  
  774.50  3.0206E-003  
  775.00  3.1281E-003  
  775.50  2.9842E-003  
  776.00  2.7072E-003  
  776.50  2.5408E-003  
  777.00  2.7094E-003  
  777.50  2.8008E-003  
  778.00  2.7039E-003  
  778.50  2.5603E-003  
  779.00  2.5258E-003  
  779.50  2.5916E-003  
  780.00  2.4414E-003  
  780.50  2.3020E-003  
  781.00  2.1447E-003  
  781.50  2.0251E-003  
  782.00  1.8337E-003  
  782.50  2.0389E-003  
  783.00  2.2261E-003  
  783.50  2.3370E-003  
  784.00  2.3859E-003  
  784.50  2.3349E-003  
  785.00  2.0285E-003  
  785.50  1.8433E-003  
  786.00  1.8018E-003  
  786.50  1.8661E-003  
  787.00  1.9055E-003  
  787.50  2.0493E-003  
  788.00  2.1744E-003  
  788.50  2.1031E-003  
  789.00  1.9160E-003  
  789.50  1.8042E-003  
  790.00  1.8611E-003  
  790.50  2.0348E-003  
  791.00  2.0958E-003  
  791.50  1.9426E-003  
  792.00  1.7309E-003  
  792.50  1.8548E-003  
  793.00  1.9332E-003  
  793.50  1.6230E-003  
  794.00  1.4924E-003  
  794.50  1.6384E-003  
  795.00  1.7844E-003  
  795.50  1.6113E-003  
  796.00  1.4786E-003  
  796.50  1.4695E-003  
  797.00  1.5708E-003  
  797.50  1.6106E-003  
  798.00  1.5703E-003  
  798.50  1.4138E-003  
  799.00  1.5134E-003  
  799.50  1.5789E-003  
  800.00  1.4922E-003  
  800.50  1.3769E-003  
  801.00  1.3415E-003  
  801.50  1.5444E-003  
  802.00  1.6028E-003  
  802.50  1.4051E-003  
  803.00  1.2498E-003  
  803.50  1.3603E-003  
  804.00  1.3027E-003  
  804.50  1.3694E-003  
  805.00  1.5466E-003  
  805.50  1.5568E-003  
  806.00  1.4664E-003  
  806.50  1.4268E-003  
  807.00  1.5934E-003  
  807.50  1.6174E-003  
  808.00  1.6185E-003  
  808.50  1.4773E-003  
  809.00  1.3172E-003  
  809.50  9.6830E-004  
  810.00  1.0458E-003  
  810.50  1.3153E-003  
  811.00  1.5294E-003  
  811.50  1.3197E-003  
  812.00  1.0675E-003  
  812.50  7.8385E-004  
  813.00  6.4545E-004  
  813.50  7.9691E-004  
  814.00  1.0363E-003  
  814.50  1.1769E-003  
  815.00  1.3994E-003  
  815.50  1.5473E-003  
  816.00  1.7024E-003  
  816.50  1.6679E-003  
  817.00  1.4887E-003  
  817.50  1.0389E-003  
  818.00  8.1769E-004  
  818.50  7.9623E-004  
  819.00  8.7808E-004  
  819.50  9.6821E-004  
  820.00  1.2092E-003  
  820.50  1.2529E-003  
  821.00  1.0023E-003  
  821.50  7.0912E-004  
  822.00  6.2630E-004  
  822.50  5.2736E-004  
  823.00  7.6978E-004  
  823.50  9.9721E-004  
  824.00  1.0354E-003  
  824.50  1.0381E-003  
  825.00  9.1257E-004  
  825.50  6.1504E-004  
  826.00  5.3230E-004  
  826.50  8.9093E-004  
  827.00  1.1296E-003  
  827.50  1.0490E-003  
  828.00  1.0403E-003  
  828.50  1.0528E-003  
  829.00  7.3206E-004  
  829.50  4.0351E-004  
  830.00  4.7622E-004  
  830.50  3.1910E-004  
  831.00  7.9063E-005  
  831.50  7.0855E-005  
  832.00  5.3316E-004  
  832.50  8.0223E-004  
  833.00  7.4136E-004  
  833.50  5.7861E-004  
  834.00  5.5199E-004  
  834.50  5.1696E-004  
  835.00  6.9382E-004  
  835.50  7.5689E-004  
  836.00  6.6211E-004  
  836.50  8.2895E-004  
  837.00  7.4350E-004  
  837.50  5.9719E-004  
  838.00  5.7770E-004  
  838.50  8.8587E-004  
  839.00  1.1096E-003  
  839.50  8.8930E-004  
  840.00  6.6877E-004  
  840.50  6.2805E-004  
  841.00  1.7820E-004  
  841.50  0.0000E+000  
  842.00  2.7431E-005  
  842.50  4.5058E-004  
  843.00  6.1328E-004  
  843.50  7.6960E-004  
  844.00  8.1509E-004  
  844.50  5.0528E-004  
  845.00  1.8598E-004  
  845.50  3.8276E-004  
  846.00  5.9994E-004  
  846.50  5.0183E-004  
  847.00  3.4642E-004  
  847.50  2.8319E-004  
  848.00  5.3874E-004  
  848.50  8.3342E-004  
  849.00  1.0103E-003  
  849.50  1.0658E-003  
  850.00  6.7536E-004  
  850.50  8.7190E-004  
  851.00  9.0254E-004  
  851.50  1.2876E-004  
  852.00  1.3693E-004  
  852.50  7.0350E-004  
  853.00  9.2507E-004  
  853.50  6.8138E-004  
  854.00  8.3241E-004  
  854.50  1.1997E-003  
  855.00  1.3873E-003  
  855.50  1.5971E-003  
  856.00  1.4627E-003  
  856.50  1.4272E-003  
  857.00  9.9777E-004  
  857.50  3.3558E-004  
  858.00  6.2701E-005  
  858.50  2.2986E-004  
  859.00  1.9969E-004  
  859.50  1.1367E-004  
  860.00  2.3296E-004  
  860.50  8.9281E-004  
  861.00  1.3352E-003  
  861.50  9.9321E-004  
  862.00  5.5427E-004  
  862.50  5.9502E-004  
  863.00  3.6249E-004  
  863.50  6.8882E-008  
  864.00  2.0067E-004  
  864.50  3.0868E-004  
  865.00  1.7185E-004  
  865.50  1.8994E-004  
  866.00  3.5959E-004  
  866.50  3.9696E-004  
  867.00  7.4831E-004  
  867.50  7.1830E-004  
  868.00  4.3516E-004  
  868.50  5.9487E-005  
  869.00  3.6858E-004  
  869.50  5.3795E-004  
  870.00  3.8362E-004  
  870.50  6.1541E-004  
  871.00  1.1301E-003  
  871.50  1.4658E-003  
  872.00  1.1755E-003  
  872.50  1.3349E-003  
  873.00  9.4763E-004  
  873.50  5.2341E-005  
  874.00  0.0000E+000  
  874.50  7.8156E-004  
  875.00  1.3280E-003  
  875.50  1.3328E-003  
  876.00  1.7778E-003  
  876.50  2.2421E-003  
  877.00  1.8595E-003  
  877.50  8.4870E-004  
  878.00  1.2151E-004  
  878.50  0.0000E+000  
  879.00  2.5872E-004  
  879.50  7.8381E-004  
  880.00  7.1830E-004  
  880.50  3.2739E-004  
  881.00  1.2463E-003  
  881.50  2.2484E-003  
  882.00  2.0003E-003  
  882.50  9.2820E-004  
  883.00  0.0000E+000  
  883.50  0.0000E+000  
  884.00  0.0000E+000  
  884.50  1.2441E-005  
  885.00  3.9592E-004  
  885.50  8.8684E-004  
  886.00  1.5596E-004  
  886.50  3.0580E-004  
  887.00  4.2321E-004  
  887.50  1.0265E-003  
  888.00  1.4253E-003  
  888.50  9.5076E-004  
  889.00  3.9132E-004  
  889.50  5.9922E-004  
  890.00  4.0342E-004  
  890.50  2.4051E-005  
  891.00  0.0000E+000  
  891.50  2.3361E-004  
  892.00  2.6445E-004  
  892.50  8.6688E-004  
  893.00  1.7108E-003  
  893.50  2.0364E-003  
  894.00  2.1172E-003  
  894.50  2.3213E-003  
  895.00  1.7748E-003  
  895.50  4.3202E-004  
  896.00  4.8612E-004  
  896.50  1.2518E-003  
  897.00  1.1642E-003  
  897.50  7.3338E-004  
  898.00  1.4885E-003  
  898.50  1.9473E-003  
  899.00  2.0003E-003  
  899.50  3.2331E-005  
