
# From lspdd.org
# 
# Name: DEL Ledtech PAR20 Domestique
# Indice spectral Valeur 
# MSI 0.41 
# SLI 0.60 
# IPI 0.63 
# Pourcentage de bleu 27.0 
# Caractéristique Valeur 
# CCT calculée (K) 3769 
# CCT du fabricant (K) 3816 
# Tension (V) 120 
# Puissance (W) 8.0 
# Efficacité lumineuse (Lum/W) ND 
#
# Image: '/app/system/img_2s/2474/medium_image2.jpg?1413485819'
# Image: '/app/system/img_1s/2474/medium_image1.jpg?1413485819'
# 

  273.00  0.0000E+000  
  273.50  0.0000E+000  
  274.00  0.0000E+000  
  274.50  0.0000E+000  
  275.00  0.0000E+000  
  275.50  0.0000E+000  
  276.00  0.0000E+000  
  276.50  0.0000E+000  
  277.00  0.0000E+000  
  277.50  0.0000E+000  
  278.00  0.0000E+000  
  278.50  0.0000E+000  
  279.00  0.0000E+000  
  279.50  0.0000E+000  
  280.00  0.0000E+000  
  280.50  0.0000E+000  
  281.00  0.0000E+000  
  281.50  0.0000E+000  
  282.00  0.0000E+000  
  282.50  0.0000E+000  
  283.00  0.0000E+000  
  283.50  0.0000E+000  
  284.00  0.0000E+000  
  284.50  0.0000E+000  
  285.00  0.0000E+000  
  285.50  0.0000E+000  
  286.00  0.0000E+000  
  286.50  0.0000E+000  
  287.00  0.0000E+000  
  287.50  0.0000E+000  
  288.00  0.0000E+000  
  288.50  0.0000E+000  
  289.00  0.0000E+000  
  289.50  0.0000E+000  
  290.00  0.0000E+000  
  290.50  0.0000E+000  
  291.00  0.0000E+000  
  291.50  0.0000E+000  
  292.00  0.0000E+000  
  292.50  0.0000E+000  
  293.00  0.0000E+000  
  293.50  0.0000E+000  
  294.00  0.0000E+000  
  294.50  0.0000E+000  
  295.00  0.0000E+000  
  295.50  0.0000E+000  
  296.00  0.0000E+000  
  296.50  0.0000E+000  
  297.00  0.0000E+000  
  297.50  0.0000E+000  
  298.00  0.0000E+000  
  298.50  0.0000E+000  
  299.00  0.0000E+000  
  299.50  0.0000E+000  
  300.00  5.9822E-005  
  300.50  1.3717E-004  
  301.00  9.5902E-005  
  301.50  7.7546E-005  
  302.00  7.6911E-005  
  302.50  1.0833E-004  
  303.00  1.3208E-004  
  303.50  1.5005E-004  
  304.00  1.7041E-004  
  304.50  1.2056E-004  
  305.00  5.6454E-005  
  305.50  6.1104E-005  
  306.00  7.1459E-005  
  306.50  6.7734E-005  
  307.00  1.2212E-004  
  307.50  1.6345E-004  
  308.00  1.8278E-004  
  308.50  2.0025E-004  
  309.00  1.5985E-004  
  309.50  1.1528E-004  
  310.00  7.6606E-005  
  310.50  1.2284E-004  
  311.00  1.7839E-004  
  311.50  1.9049E-004  
  312.00  1.5158E-004  
  312.50  4.8977E-005  
  313.00  0.0000E+000  
  313.50  0.0000E+000  
  314.00  2.0131E-005  
  314.50  7.1823E-005  
  315.00  6.8431E-005  
  315.50  2.8371E-005  
  316.00  2.2811E-005  
  316.50  2.9864E-005  
  317.00  7.4463E-005  
  317.50  1.2892E-004  
  318.00  1.3432E-004  
  318.50  1.4847E-004  
  319.00  1.7223E-004  
  319.50  2.0298E-004  
  320.00  2.4951E-004  
  320.50  2.4224E-004  
  321.00  1.9202E-004  
  321.50  1.6424E-004  
  322.00  1.1873E-004  
  322.50  9.7922E-005  
  323.00  1.1273E-004  
  323.50  1.0193E-004  
  324.00  1.3240E-004  
  324.50  1.7686E-004  
  325.00  1.9600E-004  
  325.50  1.7989E-004  
  326.00  1.1008E-004  
  326.50  4.7873E-005  
  327.00  1.3168E-006  
  327.50  3.5578E-005  
  328.00  7.3830E-005  
  328.50  1.0969E-004  
  329.00  1.4787E-004  
  329.50  1.6880E-004  
  330.00  1.9858E-004  
  330.50  2.5578E-004  
  331.00  2.7163E-004  
  331.50  2.6845E-004  
  332.00  2.8979E-004  
  332.50  2.6419E-004  
  333.00  2.2510E-004  
  333.50  2.0637E-004  
  334.00  1.5008E-004  
  334.50  1.4697E-004  
  335.00  1.9020E-004  
  335.50  2.2746E-004  
  336.00  2.5385E-004  
  336.50  1.8827E-004  
  337.00  1.3035E-004  
  337.50  1.4480E-004  
  338.00  1.9531E-004  
  338.50  2.4227E-004  
  339.00  2.7885E-004  
  339.50  3.0819E-004  
  340.00  3.7910E-004  
  340.50  3.9423E-004  
  341.00  3.3565E-004  
  341.50  2.1239E-004  
  342.00  9.6625E-005  
  342.50  7.9820E-005  
  343.00  1.1785E-004  
  343.50  1.4556E-004  
  344.00  1.2726E-004  
  344.50  1.3283E-004  
  345.00  1.1091E-004  
  345.50  1.5633E-004  
  346.00  2.1161E-004  
  346.50  2.4221E-004  
  347.00  2.9307E-004  
  347.50  2.8699E-004  
  348.00  2.8027E-004  
  348.50  2.7083E-004  
  349.00  2.5276E-004  
  349.50  2.5452E-004  
  350.00  2.6621E-004  
  350.50  1.9056E-004  
  351.00  1.2186E-004  
  351.50  1.1034E-004  
  352.00  9.9282E-005  
  352.50  1.3275E-004  
  353.00  1.8213E-004  
  353.50  2.0284E-004  
  354.00  2.4591E-004  
  354.50  2.5709E-004  
  355.00  2.1107E-004  
  355.50  1.7482E-004  
  356.00  1.5728E-004  
  356.50  1.1413E-004  
  357.00  1.4742E-004  
  357.50  1.8287E-004  
  358.00  2.3049E-004  
  358.50  3.0774E-004  
  359.00  2.9687E-004  
  359.50  2.8692E-004  
  360.00  2.7033E-004  
  360.50  2.5490E-004  
  361.00  2.5551E-004  
  361.50  1.9182E-004  
  362.00  1.4191E-004  
  362.50  1.5376E-004  
  363.00  2.3624E-004  
  363.50  3.2099E-004  
  364.00  3.7440E-004  
  364.50  3.2559E-004  
  365.00  2.6105E-004  
  365.50  2.3732E-004  
  366.00  2.0765E-004  
  366.50  1.8947E-004  
  367.00  1.7783E-004  
  367.50  1.5391E-004  
  368.00  1.9618E-004  
  368.50  2.5643E-004  
  369.00  3.0955E-004  
  369.50  3.6456E-004  
  370.00  3.8486E-004  
  370.50  4.3466E-004  
  371.00  4.7037E-004  
  371.50  4.4478E-004  
  372.00  4.1879E-004  
  372.50  3.5650E-004  
  373.00  3.1297E-004  
  373.50  2.9348E-004  
  374.00  2.7484E-004  
  374.50  2.5746E-004  
  375.00  2.5066E-004  
  375.50  2.6152E-004  
  376.00  2.6299E-004  
  376.50  2.5109E-004  
  377.00  2.6441E-004  
  377.50  2.9844E-004  
  378.00  3.0756E-004  
  378.50  2.8720E-004  
  379.00  2.4239E-004  
  379.50  1.5795E-004  
  380.00  1.8352E-004  
  380.50  1.9701E-004  
  381.00  2.2295E-004  
  381.50  2.2891E-004  
  382.00  1.9741E-004  
  382.50  1.8909E-004  
  383.00  1.5113E-004  
  383.50  1.6015E-004  
  384.00  2.1562E-004  
  384.50  2.7608E-004  
  385.00  3.0847E-004  
  385.50  3.0554E-004  
  386.00  2.9502E-004  
  386.50  2.9924E-004  
  387.00  2.9207E-004  
  387.50  2.9674E-004  
  388.00  2.5155E-004  
  388.50  2.4095E-004  
  389.00  2.6129E-004  
  389.50  2.4474E-004  
  390.00  2.9546E-004  
  390.50  3.4561E-004  
  391.00  3.7486E-004  
  391.50  3.8475E-004  
  392.00  3.9948E-004  
  392.50  3.9076E-004  
  393.00  4.3755E-004  
  393.50  4.4325E-004  
  394.00  3.8678E-004  
  394.50  3.4452E-004  
  395.00  3.1411E-004  
  395.50  3.5825E-004  
  396.00  4.3483E-004  
  396.50  4.5343E-004  
  397.00  4.5539E-004  
  397.50  4.3221E-004  
  398.00  4.1991E-004  
  398.50  4.2464E-004  
  399.00  4.6452E-004  
  399.50  5.1786E-004  
  400.00  5.3954E-004  
  400.50  5.4139E-004  
  401.00  5.4638E-004  
  401.50  5.5822E-004  
  402.00  5.7414E-004  
  402.50  5.6175E-004  
  403.00  4.9031E-004  
  403.50  4.8028E-004  
  404.00  4.9329E-004  
  404.50  5.5364E-004  
  405.00  6.0937E-004  
  405.50  6.5035E-004  
  406.00  6.9211E-004  
  406.50  7.0094E-004  
  407.00  7.1480E-004  
  407.50  7.7194E-004  
  408.00  8.0873E-004  
  408.50  8.6173E-004  
  409.00  8.5419E-004  
  409.50  8.3902E-004  
  410.00  8.8412E-004  
  410.50  1.0058E-003  
  411.00  1.1604E-003  
  411.50  1.2756E-003  
  412.00  1.3716E-003  
  412.50  1.4174E-003  
  413.00  1.5088E-003  
  413.50  1.5633E-003  
  414.00  1.6494E-003  
  414.50  1.7335E-003  
  415.00  1.8567E-003  
  415.50  1.9977E-003  
  416.00  2.1335E-003  
  416.50  2.2831E-003  
  417.00  2.4744E-003  
  417.50  2.6947E-003  
  418.00  2.8776E-003  
  418.50  3.1438E-003  
  419.00  3.3528E-003  
  419.50  3.5518E-003  
  420.00  3.8082E-003  
  420.50  3.9946E-003  
  421.00  4.2513E-003  
  421.50  4.5306E-003  
  422.00  4.8777E-003  
  422.50  5.3172E-003  
  423.00  5.7729E-003  
  423.50  6.2365E-003  
  424.00  6.6379E-003  
  424.50  7.0483E-003  
  425.00  7.4893E-003  
  425.50  7.9810E-003  
  426.00  8.5155E-003  
  426.50  9.0287E-003  
  427.00  9.5763E-003  
  427.50  1.0194E-002  
  428.00  1.0823E-002  
  428.50  1.1447E-002  
  429.00  1.2090E-002  
  429.50  1.2842E-002  
  430.00  1.3698E-002  
  430.50  1.4551E-002  
  431.00  1.5330E-002  
  431.50  1.6070E-002  
  432.00  1.6906E-002  
  432.50  1.7839E-002  
  433.00  1.8788E-002  
  433.50  1.9705E-002  
  434.00  2.0645E-002  
  434.50  2.1553E-002  
  435.00  2.2534E-002  
  435.50  2.3514E-002  
  436.00  2.4558E-002  
  436.50  2.5685E-002  
  437.00  2.6909E-002  
  437.50  2.8125E-002  
  438.00  2.9327E-002  
  438.50  3.0384E-002  
  439.00  3.1573E-002  
  439.50  3.2911E-002  
  440.00  3.4374E-002  
  440.50  3.6027E-002  
  441.00  3.7489E-002  
  441.50  3.8990E-002  
  442.00  4.0521E-002  
  442.50  4.2058E-002  
  443.00  4.3785E-002  
  443.50  4.5509E-002  
  444.00  4.7299E-002  
  444.50  4.9185E-002  
  445.00  5.0957E-002  
  445.50  5.2770E-002  
  446.00  5.4602E-002  
  446.50  5.6389E-002  
  447.00  5.8112E-002  
  447.50  5.9716E-002  
  448.00  6.1027E-002  
  448.50  6.2177E-002  
  449.00  6.3317E-002  
  449.50  6.4373E-002  
  450.00  6.5394E-002  
  450.50  6.6221E-002  
  451.00  6.6649E-002  
  451.50  6.6796E-002  
  452.00  6.6768E-002  
  452.50  6.6596E-002  
  453.00  6.6099E-002  
  453.50  6.5273E-002  
  454.00  6.4165E-002  
  454.50  6.3031E-002  
  455.00  6.2044E-002  
  455.50  6.0781E-002  
  456.00  5.9395E-002  
  456.50  5.7806E-002  
  457.00  5.6215E-002  
  457.50  5.4578E-002  
  458.00  5.2725E-002  
  458.50  5.0856E-002  
  459.00  4.8993E-002  
  459.50  4.7230E-002  
  460.00  4.5609E-002  
  460.50  4.4150E-002  
  461.00  4.2764E-002  
  461.50  4.1384E-002  
  462.00  4.0021E-002  
  462.50  3.8676E-002  
  463.00  3.7468E-002  
  463.50  3.6354E-002  
  464.00  3.5265E-002  
  464.50  3.4173E-002  
  465.00  3.3144E-002  
  465.50  3.2323E-002  
  466.00  3.1597E-002  
  466.50  3.0859E-002  
  467.00  3.0047E-002  
  467.50  2.9326E-002  
  468.00  2.8608E-002  
  468.50  2.7984E-002  
  469.00  2.7333E-002  
  469.50  2.6684E-002  
  470.00  2.6156E-002  
  470.50  2.5589E-002  
  471.00  2.5060E-002  
  471.50  2.4488E-002  
  472.00  2.3945E-002  
  472.50  2.3456E-002  
  473.00  2.2954E-002  
  473.50  2.2431E-002  
  474.00  2.1845E-002  
  474.50  2.1306E-002  
  475.00  2.0782E-002  
  475.50  2.0375E-002  
  476.00  1.9972E-002  
  476.50  1.9568E-002  
  477.00  1.9121E-002  
  477.50  1.8717E-002  
  478.00  1.8315E-002  
  478.50  1.8036E-002  
  479.00  1.7739E-002  
  479.50  1.7531E-002  
  480.00  1.7276E-002  
  480.50  1.6978E-002  
  481.00  1.6715E-002  
  481.50  1.6409E-002  
  482.00  1.6252E-002  
  482.50  1.6135E-002  
  483.00  1.6033E-002  
  483.50  1.5927E-002  
  484.00  1.5816E-002  
  484.50  1.5730E-002  
  485.00  1.5660E-002  
  485.50  1.5547E-002  
  486.00  1.5477E-002  
  486.50  1.5431E-002  
  487.00  1.5393E-002  
  487.50  1.5402E-002  
  488.00  1.5386E-002  
  488.50  1.5395E-002  
  489.00  1.5421E-002  
  489.50  1.5482E-002  
  490.00  1.5565E-002  
  490.50  1.5629E-002  
  491.00  1.5723E-002  
  491.50  1.5809E-002  
  492.00  1.5967E-002  
  492.50  1.6134E-002  
  493.00  1.6318E-002  
  493.50  1.6506E-002  
  494.00  1.6701E-002  
  494.50  1.6978E-002  
  495.00  1.7264E-002  
  495.50  1.7552E-002  
  496.00  1.7772E-002  
  496.50  1.7994E-002  
  497.00  1.8284E-002  
  497.50  1.8650E-002  
  498.00  1.9029E-002  
  498.50  1.9384E-002  
  499.00  1.9741E-002  
  499.50  2.0094E-002  
  500.00  2.0500E-002  
  500.50  2.0908E-002  
  501.00  2.1368E-002  
  501.50  2.1879E-002  
  502.00  2.2414E-002  
  502.50  2.2914E-002  
  503.00  2.3389E-002  
  503.50  2.3864E-002  
  504.00  2.4372E-002  
  504.50  2.4933E-002  
  505.00  2.5490E-002  
  505.50  2.6099E-002  
  506.00  2.6712E-002  
  506.50  2.7287E-002  
  507.00  2.7881E-002  
  507.50  2.8475E-002  
  508.00  2.9080E-002  
  508.50  2.9685E-002  
  509.00  3.0296E-002  
  509.50  3.0889E-002  
  510.00  3.1531E-002  
  510.50  3.2061E-002  
  511.00  3.2656E-002  
  511.50  3.3245E-002  
  512.00  3.3910E-002  
  512.50  3.4607E-002  
  513.00  3.5276E-002  
  513.50  3.5956E-002  
  514.00  3.6583E-002  
  514.50  3.7175E-002  
  515.00  3.7725E-002  
  515.50  3.8388E-002  
  516.00  3.9096E-002  
  516.50  3.9836E-002  
  517.00  4.0533E-002  
  517.50  4.1152E-002  
  518.00  4.1786E-002  
  518.50  4.2440E-002  
  519.00  4.3060E-002  
  519.50  4.3602E-002  
  520.00  4.4111E-002  
  520.50  4.4626E-002  
  521.00  4.5185E-002  
  521.50  4.5775E-002  
  522.00  4.6338E-002  
  522.50  4.6898E-002  
  523.00  4.7467E-002  
  523.50  4.8064E-002  
  524.00  4.8662E-002  
  524.50  4.9242E-002  
  525.00  4.9750E-002  
  525.50  5.0251E-002  
  526.00  5.0783E-002  
  526.50  5.1298E-002  
  527.00  5.1819E-002  
  527.50  5.2276E-002  
  528.00  5.2748E-002  
  528.50  5.3309E-002  
  529.00  5.3795E-002  
  529.50  5.4329E-002  
  530.00  5.4815E-002  
  530.50  5.5233E-002  
  531.00  5.5669E-002  
  531.50  5.6039E-002  
  532.00  5.6523E-002  
  532.50  5.7027E-002  
  533.00  5.7473E-002  
  533.50  5.7836E-002  
  534.00  5.8184E-002  
  534.50  5.8656E-002  
  535.00  5.9137E-002  
  535.50  5.9499E-002  
  536.00  5.9753E-002  
  536.50  6.0024E-002  
  537.00  6.0382E-002  
  537.50  6.0802E-002  
  538.00  6.1162E-002  
  538.50  6.1580E-002  
  539.00  6.1933E-002  
  539.50  6.2295E-002  
  540.00  6.2625E-002  
  540.50  6.2974E-002  
  541.00  6.3376E-002  
  541.50  6.3765E-002  
  542.00  6.4163E-002  
  542.50  6.4500E-002  
  543.00  6.4781E-002  
  543.50  6.5003E-002  
  544.00  6.5274E-002  
  544.50  6.5514E-002  
  545.00  6.5774E-002  
  545.50  6.6033E-002  
  546.00  6.6278E-002  
  546.50  6.6639E-002  
  547.00  6.6896E-002  
  547.50  6.7179E-002  
  548.00  6.7462E-002  
  548.50  6.7787E-002  
  549.00  6.8110E-002  
  549.50  6.8402E-002  
  550.00  6.8632E-002  
  550.50  6.8860E-002  
  551.00  6.9047E-002  
  551.50  6.9231E-002  
  552.00  6.9491E-002  
  552.50  6.9833E-002  
  553.00  7.0078E-002  
  553.50  7.0349E-002  
  554.00  7.0632E-002  
  554.50  7.1035E-002  
  555.00  7.1291E-002  
  555.50  7.1471E-002  
  556.00  7.1550E-002  
  556.50  7.1724E-002  
  557.00  7.1897E-002  
  557.50  7.2132E-002  
  558.00  7.2475E-002  
  558.50  7.2818E-002  
  559.00  7.3040E-002  
  559.50  7.3190E-002  
  560.00  7.3439E-002  
  560.50  7.3704E-002  
  561.00  7.3901E-002  
  561.50  7.3966E-002  
  562.00  7.4086E-002  
  562.50  7.4299E-002  
  563.00  7.4540E-002  
  563.50  7.4724E-002  
  564.00  7.4833E-002  
  564.50  7.4968E-002  
  565.00  7.5109E-002  
  565.50  7.5229E-002  
  566.00  7.5357E-002  
  566.50  7.5557E-002  
  567.00  7.5795E-002  
  567.50  7.6023E-002  
  568.00  7.6202E-002  
  568.50  7.6271E-002  
  569.00  7.6303E-002  
  569.50  7.6362E-002  
  570.00  7.6401E-002  
  570.50  7.6504E-002  
  571.00  7.6555E-002  
  571.50  7.6602E-002  
  572.00  7.6747E-002  
  572.50  7.6786E-002  
  573.00  7.6962E-002  
  573.50  7.7069E-002  
  574.00  7.7199E-002  
  574.50  7.7272E-002  
  575.00  7.7416E-002  
  575.50  7.7559E-002  
  576.00  7.7745E-002  
  576.50  7.7765E-002  
  577.00  7.7827E-002  
  577.50  7.7968E-002  
  578.00  7.8108E-002  
  578.50  7.8236E-002  
  579.00  7.8278E-002  
  579.50  7.8299E-002  
  580.00  7.8311E-002  
  580.50  7.8263E-002  
  581.00  7.8228E-002  
  581.50  7.8182E-002  
  582.00  7.8154E-002  
  582.50  7.8207E-002  
  583.00  7.8270E-002  
  583.50  7.8419E-002  
  584.00  7.8504E-002  
  584.50  7.8517E-002  
  585.00  7.8448E-002  
  585.50  7.8384E-002  
  586.00  7.8317E-002  
  586.50  7.8284E-002  
  587.00  7.8179E-002  
  587.50  7.8098E-002  
  588.00  7.8067E-002  
  588.50  7.8057E-002  
  589.00  7.8028E-002  
  589.50  7.7982E-002  
  590.00  7.7946E-002  
  590.50  7.7911E-002  
  591.00  7.7817E-002  
  591.50  7.7717E-002  
  592.00  7.7531E-002  
  592.50  7.7393E-002  
  593.00  7.7267E-002  
  593.50  7.7183E-002  
  594.00  7.7173E-002  
  594.50  7.7104E-002  
  595.00  7.7122E-002  
  595.50  7.6958E-002  
  596.00  7.6788E-002  
  596.50  7.6594E-002  
  597.00  7.6486E-002  
  597.50  7.6288E-002  
  598.00  7.6069E-002  
  598.50  7.5802E-002  
  599.00  7.5732E-002  
  599.50  7.5625E-002  
  600.00  7.5460E-002  
  600.50  7.5296E-002  
  601.00  7.5036E-002  
  601.50  7.4821E-002  
  602.00  7.4427E-002  
  602.50  7.4152E-002  
  603.00  7.3971E-002  
  603.50  7.3806E-002  
  604.00  7.3569E-002  
  604.50  7.3221E-002  
  605.00  7.3003E-002  
  605.50  7.2795E-002  
  606.00  7.2568E-002  
  606.50  7.2302E-002  
  607.00  7.1941E-002  
  607.50  7.1620E-002  
  608.00  7.1328E-002  
  608.50  7.1112E-002  
  609.00  7.0831E-002  
  609.50  7.0482E-002  
  610.00  7.0169E-002  
  610.50  6.9941E-002  
  611.00  6.9759E-002  
  611.50  6.9448E-002  
  612.00  6.9084E-002  
  612.50  6.8692E-002  
  613.00  6.8340E-002  
  613.50  6.8018E-002  
  614.00  6.7792E-002  
  614.50  6.7537E-002  
  615.00  6.7263E-002  
  615.50  6.6737E-002  
  616.00  6.6156E-002  
  616.50  6.5720E-002  
  617.00  6.5446E-002  
  617.50  6.5257E-002  
  618.00  6.5002E-002  
  618.50  6.4601E-002  
  619.00  6.4118E-002  
  619.50  6.3658E-002  
  620.00  6.3235E-002  
  620.50  6.2818E-002  
  621.00  6.2437E-002  
  621.50  6.2126E-002  
  622.00  6.1754E-002  
  622.50  6.1291E-002  
  623.00  6.0753E-002  
  623.50  6.0362E-002  
  624.00  6.0046E-002  
  624.50  5.9621E-002  
  625.00  5.9197E-002  
  625.50  5.8926E-002  
  626.00  5.8663E-002  
  626.50  5.8364E-002  
  627.00  5.7887E-002  
  627.50  5.7400E-002  
  628.00  5.6984E-002  
  628.50  5.6508E-002  
  629.00  5.6097E-002  
  629.50  5.5666E-002  
  630.00  5.5292E-002  
  630.50  5.4895E-002  
  631.00  5.4474E-002  
  631.50  5.4027E-002  
  632.00  5.3537E-002  
  632.50  5.2935E-002  
  633.00  5.2416E-002  
  633.50  5.1978E-002  
  634.00  5.1773E-002  
  634.50  5.1519E-002  
  635.00  5.1199E-002  
  635.50  5.0707E-002  
  636.00  5.0166E-002  
  636.50  4.9671E-002  
  637.00  4.9261E-002  
  637.50  4.8855E-002  
  638.00  4.8428E-002  
  638.50  4.8044E-002  
  639.00  4.7719E-002  
  639.50  4.7337E-002  
  640.00  4.6856E-002  
  640.50  4.6325E-002  
  641.00  4.5890E-002  
  641.50  4.5520E-002  
  642.00  4.5133E-002  
  642.50  4.4734E-002  
  643.00  4.4301E-002  
  643.50  4.3880E-002  
  644.00  4.3446E-002  
  644.50  4.3027E-002  
  645.00  4.2701E-002  
  645.50  4.2434E-002  
  646.00  4.2092E-002  
  646.50  4.1524E-002  
  647.00  4.0976E-002  
  647.50  4.0484E-002  
  648.00  4.0174E-002  
  648.50  3.9784E-002  
  649.00  3.9381E-002  
  649.50  3.8889E-002  
  650.00  3.8388E-002  
  650.50  3.8019E-002  
  651.00  3.7764E-002  
  651.50  3.7495E-002  
  652.00  3.7124E-002  
  652.50  3.6741E-002  
  653.00  3.6380E-002  
  653.50  3.5936E-002  
  654.00  3.5487E-002  
  654.50  3.5085E-002  
  655.00  3.4724E-002  
  655.50  3.4422E-002  
  656.00  3.4051E-002  
  656.50  3.3636E-002  
  657.00  3.3158E-002  
  657.50  3.2751E-002  
  658.00  3.2376E-002  
  658.50  3.2078E-002  
  659.00  3.1754E-002  
  659.50  3.1501E-002  
  660.00  3.1188E-002  
  660.50  3.0793E-002  
  661.00  3.0358E-002  
  661.50  2.9910E-002  
  662.00  2.9486E-002  
  662.50  2.9112E-002  
  663.00  2.8832E-002  
  663.50  2.8626E-002  
  664.00  2.8344E-002  
  664.50  2.7930E-002  
  665.00  2.7503E-002  
  665.50  2.7108E-002  
  666.00  2.6765E-002  
  666.50  2.6482E-002  
  667.00  2.6107E-002  
  667.50  2.5751E-002  
  668.00  2.5348E-002  
  668.50  2.5082E-002  
  669.00  2.4929E-002  
  669.50  2.4724E-002  
  670.00  2.4506E-002  
  670.50  2.4132E-002  
  671.00  2.3815E-002  
  671.50  2.3426E-002  
  672.00  2.2974E-002  
  672.50  2.2630E-002  
  673.00  2.2404E-002  
  673.50  2.2230E-002  
  674.00  2.1825E-002  
  674.50  2.1446E-002  
  675.00  2.1208E-002  
  675.50  2.1170E-002  
  676.00  2.1052E-002  
  676.50  2.0815E-002  
  677.00  2.0413E-002  
  677.50  2.0108E-002  
  678.00  1.9858E-002  
  678.50  1.9733E-002  
  679.00  1.9628E-002  
  679.50  1.9424E-002  
  680.00  1.9175E-002  
  680.50  1.8754E-002  
  681.00  1.8438E-002  
  681.50  1.8167E-002  
  682.00  1.7971E-002  
  682.50  1.7759E-002  
  683.00  1.7459E-002  
  683.50  1.7194E-002  
  684.00  1.6899E-002  
  684.50  1.6687E-002  
  685.00  1.6519E-002  
  685.50  1.6347E-002  
  686.00  1.6191E-002  
  686.50  1.5964E-002  
  687.00  1.5812E-002  
  687.50  1.5579E-002  
  688.00  1.5391E-002  
  688.50  1.5107E-002  
  689.00  1.4845E-002  
  689.50  1.4609E-002  
  690.00  1.4479E-002  
  690.50  1.4313E-002  
  691.00  1.4062E-002  
  691.50  1.3799E-002  
  692.00  1.3629E-002  
  692.50  1.3528E-002  
  693.00  1.3432E-002  
  693.50  1.3337E-002  
  694.00  1.3230E-002  
  694.50  1.3063E-002  
  695.00  1.2835E-002  
  695.50  1.2589E-002  
  696.00  1.2391E-002  
  696.50  1.2218E-002  
  697.00  1.2015E-002  
  697.50  1.1842E-002  
  698.00  1.1662E-002  
  698.50  1.1540E-002  
  699.00  1.1429E-002  
  699.50  1.1308E-002  
  700.00  1.1112E-002  
  700.50  1.0877E-002  
  701.00  1.0738E-002  
  701.50  1.0665E-002  
  702.00  1.0537E-002  
  702.50  1.0371E-002  
  703.00  1.0239E-002  
  703.50  1.0135E-002  
  704.00  1.0016E-002  
  704.50  9.8760E-003  
  705.00  9.7850E-003  
  705.50  9.6177E-003  
  706.00  9.4343E-003  
  706.50  9.2777E-003  
  707.00  9.1781E-003  
  707.50  9.0727E-003  
  708.00  8.9521E-003  
  708.50  8.9381E-003  
  709.00  8.8593E-003  
  709.50  8.7111E-003  
  710.00  8.4745E-003  
  710.50  8.3014E-003  
  711.00  8.1545E-003  
  711.50  8.0283E-003  
  712.00  7.9609E-003  
  712.50  7.8823E-003  
  713.00  7.7777E-003  
  713.50  7.5678E-003  
  714.00  7.3944E-003  
  714.50  7.2707E-003  
  715.00  7.2141E-003  
  715.50  7.1744E-003  
  716.00  7.0790E-003  
  716.50  7.0743E-003  
  717.00  7.0441E-003  
  717.50  7.0580E-003  
  718.00  6.9023E-003  
  718.50  6.7810E-003  
  719.00  6.7005E-003  
  719.50  6.5992E-003  
  720.00  6.4351E-003  
  720.50  6.3034E-003  
  721.00  6.1785E-003  
  721.50  6.1023E-003  
  722.00  6.0127E-003  
  722.50  5.9229E-003  
  723.00  5.8330E-003  
  723.50  5.7147E-003  
  724.00  5.7196E-003  
  724.50  5.5771E-003  
  725.00  5.4795E-003  
  725.50  5.4269E-003  
  726.00  5.4010E-003  
  726.50  5.3806E-003  
  727.00  5.2735E-003  
  727.50  5.1880E-003  
  728.00  4.9993E-003  
  728.50  4.9643E-003  
  729.00  5.0138E-003  
  729.50  5.0096E-003  
  730.00  4.9311E-003  
  730.50  4.7887E-003  
  731.00  4.6805E-003  
  731.50  4.6065E-003  
  732.00  4.5601E-003  
  732.50  4.5255E-003  
  733.00  4.3639E-003  
  733.50  4.2356E-003  
  734.00  4.1561E-003  
  734.50  4.2444E-003  
  735.00  4.2901E-003  
  735.50  4.2531E-003  
  736.00  4.0889E-003  
  736.50  3.9611E-003  
  737.00  3.9012E-003  
  737.50  3.8860E-003  
  738.00  3.8658E-003  
  738.50  3.7903E-003  
  739.00  3.6694E-003  
  739.50  3.5828E-003  
  740.00  3.5736E-003  
  740.50  3.5513E-003  
  741.00  3.5455E-003  
  741.50  3.5375E-003  
  742.00  3.5571E-003  
  742.50  3.5047E-003  
  743.00  3.4507E-003  
  743.50  3.3734E-003  
  744.00  3.2612E-003  
  744.50  3.1854E-003  
  745.00  3.1358E-003  
  745.50  3.1948E-003  
  746.00  3.2310E-003  
  746.50  3.1756E-003  
  747.00  3.0115E-003  
  747.50  2.9725E-003  
  748.00  2.9921E-003  
  748.50  2.9907E-003  
  749.00  2.8846E-003  
  749.50  2.8593E-003  
  750.00  2.8642E-003  
  750.50  2.8333E-003  
  751.00  2.7826E-003  
  751.50  2.6813E-003  
  752.00  2.6614E-003  
  752.50  2.6088E-003  
  753.00  2.5678E-003  
  753.50  2.5964E-003  
  754.00  2.6279E-003  
  754.50  2.5944E-003  
  755.00  2.3536E-003  
  755.50  2.2991E-003  
  756.00  2.3005E-003  
  756.50  2.3478E-003  
  757.00  2.1952E-003  
  757.50  2.1511E-003  
  758.00  2.2410E-003  
  758.50  2.3767E-003  
  759.00  2.5214E-003  
  759.50  2.5608E-003  
  760.00  2.5566E-003  
  760.50  2.4067E-003  
  761.00  2.2520E-003  
  761.50  2.1009E-003  
  762.00  2.0268E-003  
  762.50  2.0505E-003  
  763.00  2.0701E-003  
  763.50  2.0842E-003  
  764.00  1.9574E-003  
  764.50  1.8584E-003  
  765.00  1.8251E-003  
  765.50  1.8000E-003  
  766.00  1.7431E-003  
  766.50  1.7260E-003  
  767.00  1.7480E-003  
  767.50  1.7569E-003  
  768.00  1.7067E-003  
  768.50  1.6982E-003  
  769.00  1.7154E-003  
  769.50  1.6500E-003  
  770.00  1.5331E-003  
  770.50  1.4314E-003  
  771.00  1.3572E-003  
  771.50  1.3492E-003  
  772.00  1.6007E-003  
  772.50  1.7426E-003  
  773.00  1.7499E-003  
  773.50  1.5970E-003  
  774.00  1.4595E-003  
  774.50  1.2405E-003  
  775.00  1.1594E-003  
  775.50  1.2033E-003  
  776.00  1.4317E-003  
  776.50  1.5696E-003  
  777.00  1.5848E-003  
  777.50  1.4917E-003  
  778.00  1.2800E-003  
  778.50  1.2379E-003  
  779.00  1.1638E-003  
  779.50  1.3059E-003  
  780.00  1.4465E-003  
  780.50  1.3683E-003  
  781.00  1.1767E-003  
  781.50  1.1114E-003  
  782.00  1.4305E-003  
  782.50  1.3705E-003  
  783.00  1.1902E-003  
  783.50  9.9813E-004  
  784.00  1.0736E-003  
  784.50  1.1400E-003  
  785.00  1.1398E-003  
  785.50  1.2240E-003  
  786.00  1.2715E-003  
  786.50  1.3088E-003  
  787.00  1.3193E-003  
  787.50  1.2216E-003  
  788.00  1.1425E-003  
  788.50  1.0816E-003  
  789.00  9.0164E-004  
  789.50  8.0411E-004  
  790.00  8.3616E-004  
  790.50  9.6318E-004  
  791.00  9.6573E-004  
  791.50  9.0634E-004  
  792.00  9.3932E-004  
  792.50  1.1243E-003  
  793.00  1.1563E-003  
  793.50  1.2877E-003  
  794.00  1.2796E-003  
  794.50  1.2119E-003  
  795.00  9.7243E-004  
  795.50  8.9937E-004  
  796.00  8.2792E-004  
  796.50  1.0512E-003  
  797.00  1.0874E-003  
  797.50  1.1403E-003  
  798.00  1.0838E-003  
  798.50  8.0503E-004  
  799.00  5.3978E-004  
  799.50  5.8728E-004  
  800.00  9.0201E-004  
  800.50  9.9471E-004  
  801.00  1.0140E-003  
  801.50  1.0313E-003  
  802.00  8.8504E-004  
  802.50  8.2508E-004  
  803.00  7.2176E-004  
  803.50  4.9842E-004  
  804.00  3.0365E-004  
  804.50  2.1600E-004  
  805.00  3.9512E-004  
  805.50  5.7696E-004  
  806.00  9.1423E-004  
  806.50  9.8714E-004  
  807.00  7.0171E-004  
  807.50  6.5048E-004  
  808.00  8.4107E-004  
  808.50  8.8364E-004  
  809.00  6.2206E-004  
  809.50  5.1034E-004  
  810.00  4.4605E-004  
  810.50  5.4229E-004  
  811.00  6.1100E-004  
  811.50  5.3290E-004  
  812.00  2.4786E-004  
  812.50  1.2808E-004  
  813.00  3.9005E-004  
  813.50  6.4904E-004  
  814.00  7.2786E-004  
  814.50  5.3840E-004  
  815.00  5.8038E-004  
  815.50  4.7558E-004  
  816.00  3.3637E-004  
  816.50  2.1161E-004  
  817.00  4.2737E-004  
  817.50  6.8227E-004  
  818.00  5.9533E-004  
  818.50  5.4225E-004  
  819.00  6.2987E-004  
  819.50  8.3714E-004  
  820.00  8.7344E-004  
  820.50  8.9847E-004  
  821.00  1.1753E-003  
  821.50  9.2180E-004  
  822.00  4.7399E-004  
  822.50  1.2802E-004  
  823.00  1.1097E-004  
  823.50  9.1201E-005  
  824.00  1.7621E-004  
  824.50  1.3188E-004  
  825.00  4.8438E-004  
  825.50  6.6714E-004  
  826.00  6.0479E-004  
  826.50  6.1587E-004  
  827.00  9.1814E-004  
  827.50  1.0433E-003  
  828.00  9.6058E-004  
  828.50  6.5799E-004  
  829.00  4.2696E-004  
  829.50  2.4877E-004  
  830.00  3.0648E-004  
  830.50  5.1664E-004  
  831.00  6.8518E-004  
  831.50  4.3384E-004  
  832.00  2.6307E-004  
  832.50  1.3461E-004  
  833.00  4.6219E-004  
  833.50  3.0587E-004  
  834.00  1.6759E-005  
  834.50  8.2975E-005  
  835.00  5.1399E-004  
  835.50  5.6179E-004  
  836.00  4.7932E-004  
  836.50  4.9620E-004  
  837.00  8.4382E-004  
  837.50  9.5884E-004  
  838.00  5.8419E-004  
  838.50  3.4671E-004  
  839.00  7.2575E-005  
  839.50  1.3871E-004  
  840.00  2.4634E-004  
  840.50  1.7899E-004  
  841.00  2.5744E-004  
  841.50  4.0949E-004  
  842.00  6.5803E-004  
  842.50  7.9500E-004  
  843.00  1.0432E-003  
  843.50  9.5038E-004  
  844.00  7.5667E-004  
  844.50  5.8358E-004  
  845.00  4.6667E-004  
  845.50  3.8071E-005  
  846.00  0.0000E+000  
  846.50  0.0000E+000  
  847.00  1.6675E-004  
  847.50  6.4901E-004  
  848.00  9.2098E-004  
  848.50  8.7324E-004  
  849.00  7.1649E-004  
  849.50  2.9733E-004  
  850.00  2.6045E-004  
  850.50  4.0137E-004  
  851.00  5.3893E-004  
  851.50  5.4113E-004  
  852.00  3.5399E-004  
  852.50  0.0000E+000  
  853.00  0.0000E+000  
  853.50  2.8769E-004  
  854.00  4.4949E-004  
  854.50  2.8940E-004  
  855.00  8.5747E-005  
  855.50  0.0000E+000  
  856.00  1.8958E-005  
  856.50  5.3794E-004  
  857.00  3.1225E-004  
  857.50  1.9052E-004  
  858.00  2.9022E-004  
  858.50  6.2762E-004  
  859.00  6.7445E-004  
  859.50  7.9633E-004  
  860.00  7.5853E-004  
  860.50  1.1070E-003  
  861.00  1.2339E-003  
  861.50  9.1901E-004  
  862.00  6.2282E-004  
  862.50  6.0142E-004  
  863.00  6.9658E-004  
  863.50  1.5560E-004  
  864.00  1.9265E-004  
  864.50  3.4395E-004  
  865.00  3.2838E-004  
  865.50  0.0000E+000  
  866.00  0.0000E+000  
  866.50  0.0000E+000  
  867.00  0.0000E+000  
  867.50  0.0000E+000  
  868.00  1.7824E-005  
  868.50  5.8654E-004  
  869.00  7.7335E-004  
  869.50  4.8217E-004  
  870.00  8.7619E-005  
  870.50  3.4751E-004  
  871.00  9.2377E-004  
  871.50  1.2575E-003  
  872.00  8.2536E-004  
  872.50  4.9396E-004  
  873.00  8.3450E-004  
  873.50  4.6397E-004  
  874.00  1.9970E-004  
  874.50  2.8472E-004  
  875.00  7.9801E-004  
  875.50  1.1313E-003  
  876.00  1.6999E-003  
  876.50  1.4965E-003  
  877.00  7.1541E-004  
  877.50  2.2065E-004  
  878.00  4.0952E-004  
  878.50  1.2369E-003  
  879.00  1.9634E-003  
  879.50  1.6153E-003  
  880.00  1.7111E-004  
  880.50  0.0000E+000  
  881.00  0.0000E+000  
  881.50  2.7039E-004  
  882.00  7.6515E-004  
  882.50  8.7246E-004  
  883.00  1.0104E-003  
  883.50  1.1345E-003  
  884.00  7.7873E-004  
  884.50  8.9638E-004  
  885.00  1.3175E-003  
  885.50  1.3307E-003  
  886.00  1.1748E-003  
  886.50  2.5235E-004  
  887.00  0.0000E+000  
  887.50  0.0000E+000  
  888.00  0.0000E+000  
  888.50  0.0000E+000  
  889.00  9.3485E-004  
  889.50  1.5323E-003  
  890.00  6.7336E-004  
  890.50  1.1983E-003  
  891.00  1.3345E-003  
  891.50  9.3019E-004  
  892.00  1.7340E-003  
  892.50  2.1041E-003  
  893.00  2.3909E-003  
  893.50  1.6874E-003  
  894.00  1.0868E-003  
  894.50  3.0434E-004  
  895.00  1.3185E-003  
  895.50  2.1582E-003  
  896.00  2.3257E-003  
  896.50  2.0141E-003  
  897.00  1.6015E-003  
  897.50  1.0779E-003  
  898.00  1.8168E-003  
  898.50  1.6577E-003  
  899.00  1.9483E-003  
  899.50  3.3606E-005  
