
# From lspdd.org
# 
# Name: DEL Philips BR40 Flood Domestique
# Indice spectral Valeur 
# MSI 0.25 
# SLI 0.44 
# IPI 0.66 
# Pourcentage de bleu 15.8 
# Caractéristique Valeur 
# CCT calculée (K) 2599 
# CCT du fabricant (K) 2700 
# Tension (V) 120 
# Puissance (W) 14.5 
# Efficacité lumineuse (Lum/W) 55.2 
#
# Image: '/app/system/img_2s/2476/medium_image2.JPG?1413485827'
# Image: '/app/system/img_1s/2476/medium_image1.JPG?1413485830'
# 

  273.00  0.0000E+000  
  273.50  0.0000E+000  
  274.00  0.0000E+000  
  274.50  0.0000E+000  
  275.00  0.0000E+000  
  275.50  0.0000E+000  
  276.00  0.0000E+000  
  276.50  0.0000E+000  
  277.00  0.0000E+000  
  277.50  0.0000E+000  
  278.00  0.0000E+000  
  278.50  0.0000E+000  
  279.00  0.0000E+000  
  279.50  0.0000E+000  
  280.00  0.0000E+000  
  280.50  0.0000E+000  
  281.00  0.0000E+000  
  281.50  0.0000E+000  
  282.00  0.0000E+000  
  282.50  0.0000E+000  
  283.00  0.0000E+000  
  283.50  0.0000E+000  
  284.00  0.0000E+000  
  284.50  0.0000E+000  
  285.00  0.0000E+000  
  285.50  0.0000E+000  
  286.00  0.0000E+000  
  286.50  0.0000E+000  
  287.00  0.0000E+000  
  287.50  0.0000E+000  
  288.00  0.0000E+000  
  288.50  0.0000E+000  
  289.00  0.0000E+000  
  289.50  0.0000E+000  
  290.00  0.0000E+000  
  290.50  0.0000E+000  
  291.00  0.0000E+000  
  291.50  0.0000E+000  
  292.00  0.0000E+000  
  292.50  0.0000E+000  
  293.00  0.0000E+000  
  293.50  0.0000E+000  
  294.00  0.0000E+000  
  294.50  0.0000E+000  
  295.00  0.0000E+000  
  295.50  0.0000E+000  
  296.00  0.0000E+000  
  296.50  0.0000E+000  
  297.00  0.0000E+000  
  297.50  0.0000E+000  
  298.00  0.0000E+000  
  298.50  0.0000E+000  
  299.00  0.0000E+000  
  299.50  0.0000E+000  
  300.00  0.0000E+000  
  300.50  0.0000E+000  
  301.00  0.0000E+000  
  301.50  0.0000E+000  
  302.00  0.0000E+000  
  302.50  0.0000E+000  
  303.00  0.0000E+000  
  303.50  0.0000E+000  
  304.00  0.0000E+000  
  304.50  0.0000E+000  
  305.00  0.0000E+000  
  305.50  0.0000E+000  
  306.00  0.0000E+000  
  306.50  0.0000E+000  
  307.00  0.0000E+000  
  307.50  0.0000E+000  
  308.00  0.0000E+000  
  308.50  0.0000E+000  
  309.00  0.0000E+000  
  309.50  0.0000E+000  
  310.00  0.0000E+000  
  310.50  0.0000E+000  
  311.00  0.0000E+000  
  311.50  0.0000E+000  
  312.00  0.0000E+000  
  312.50  0.0000E+000  
  313.00  0.0000E+000  
  313.50  0.0000E+000  
  314.00  0.0000E+000  
  314.50  0.0000E+000  
  315.00  0.0000E+000  
  315.50  0.0000E+000  
  316.00  0.0000E+000  
  316.50  0.0000E+000  
  317.00  0.0000E+000  
  317.50  0.0000E+000  
  318.00  0.0000E+000  
  318.50  0.0000E+000  
  319.00  0.0000E+000  
  319.50  0.0000E+000  
  320.00  0.0000E+000  
  320.50  0.0000E+000  
  321.00  0.0000E+000  
  321.50  0.0000E+000  
  322.00  0.0000E+000  
  322.50  0.0000E+000  
  323.00  0.0000E+000  
  323.50  0.0000E+000  
  324.00  0.0000E+000  
  324.50  0.0000E+000  
  325.00  0.0000E+000  
  325.50  0.0000E+000  
  326.00  0.0000E+000  
  326.50  0.0000E+000  
  327.00  0.0000E+000  
  327.50  0.0000E+000  
  328.00  0.0000E+000  
  328.50  0.0000E+000  
  329.00  0.0000E+000  
  329.50  0.0000E+000  
  330.00  0.0000E+000  
  330.50  0.0000E+000  
  331.00  0.0000E+000  
  331.50  0.0000E+000  
  332.00  0.0000E+000  
  332.50  0.0000E+000  
  333.00  0.0000E+000  
  333.50  0.0000E+000  
  334.00  0.0000E+000  
  334.50  0.0000E+000  
  335.00  0.0000E+000  
  335.50  0.0000E+000  
  336.00  0.0000E+000  
  336.50  0.0000E+000  
  337.00  0.0000E+000  
  337.50  0.0000E+000  
  338.00  0.0000E+000  
  338.50  0.0000E+000  
  339.00  0.0000E+000  
  339.50  0.0000E+000  
  340.00  0.0000E+000  
  340.50  0.0000E+000  
  341.00  0.0000E+000  
  341.50  0.0000E+000  
  342.00  0.0000E+000  
  342.50  0.0000E+000  
  343.00  0.0000E+000  
  343.50  0.0000E+000  
  344.00  0.0000E+000  
  344.50  0.0000E+000  
  345.00  0.0000E+000  
  345.50  0.0000E+000  
  346.00  0.0000E+000  
  346.50  0.0000E+000  
  347.00  0.0000E+000  
  347.50  0.0000E+000  
  348.00  0.0000E+000  
  348.50  0.0000E+000  
  349.00  0.0000E+000  
  349.50  0.0000E+000  
  350.00  0.0000E+000  
  350.50  0.0000E+000  
  351.00  0.0000E+000  
  351.50  0.0000E+000  
  352.00  0.0000E+000  
  352.50  0.0000E+000  
  353.00  0.0000E+000  
  353.50  0.0000E+000  
  354.00  0.0000E+000  
  354.50  0.0000E+000  
  355.00  0.0000E+000  
  355.50  0.0000E+000  
  356.00  0.0000E+000  
  356.50  0.0000E+000  
  357.00  0.0000E+000  
  357.50  0.0000E+000  
  358.00  0.0000E+000  
  358.50  0.0000E+000  
  359.00  0.0000E+000  
  359.50  0.0000E+000  
  360.00  0.0000E+000  
  360.50  0.0000E+000  
  361.00  0.0000E+000  
  361.50  0.0000E+000  
  362.00  0.0000E+000  
  362.50  0.0000E+000  
  363.00  0.0000E+000  
  363.50  0.0000E+000  
  364.00  0.0000E+000  
  364.50  0.0000E+000  
  365.00  0.0000E+000  
  365.50  0.0000E+000  
  366.00  0.0000E+000  
  366.50  0.0000E+000  
  367.00  0.0000E+000  
  367.50  0.0000E+000  
  368.00  0.0000E+000  
  368.50  0.0000E+000  
  369.00  0.0000E+000  
  369.50  0.0000E+000  
  370.00  0.0000E+000  
  370.50  0.0000E+000  
  371.00  0.0000E+000  
  371.50  0.0000E+000  
  372.00  0.0000E+000  
  372.50  0.0000E+000  
  373.00  0.0000E+000  
  373.50  0.0000E+000  
  374.00  0.0000E+000  
  374.50  0.0000E+000  
  375.00  0.0000E+000  
  375.50  0.0000E+000  
  376.00  0.0000E+000  
  376.50  0.0000E+000  
  377.00  0.0000E+000  
  377.50  0.0000E+000  
  378.00  0.0000E+000  
  378.50  0.0000E+000  
  379.00  0.0000E+000  
  379.50  0.0000E+000  
  380.00  0.0000E+000  
  380.50  0.0000E+000  
  381.00  0.0000E+000  
  381.50  0.0000E+000  
  382.00  0.0000E+000  
  382.50  0.0000E+000  
  383.00  0.0000E+000  
  383.50  0.0000E+000  
  384.00  0.0000E+000  
  384.50  0.0000E+000  
  385.00  0.0000E+000  
  385.50  0.0000E+000  
  386.00  0.0000E+000  
  386.50  0.0000E+000  
  387.00  0.0000E+000  
  387.50  0.0000E+000  
  388.00  0.0000E+000  
  388.50  0.0000E+000  
  389.00  0.0000E+000  
  389.50  2.6663E-005  
  390.00  4.5575E-005  
  390.50  0.0000E+000  
  391.00  0.0000E+000  
  391.50  1.1922E-005  
  392.00  4.8528E-005  
  392.50  3.4626E-005  
  393.00  1.8068E-006  
  393.50  0.0000E+000  
  394.00  0.0000E+000  
  394.50  0.0000E+000  
  395.00  0.0000E+000  
  395.50  0.0000E+000  
  396.00  0.0000E+000  
  396.50  0.0000E+000  
  397.00  0.0000E+000  
  397.50  0.0000E+000  
  398.00  0.0000E+000  
  398.50  0.0000E+000  
  399.00  0.0000E+000  
  399.50  0.0000E+000  
  400.00  0.0000E+000  
  400.50  0.0000E+000  
  401.00  0.0000E+000  
  401.50  0.0000E+000  
  402.00  0.0000E+000  
  402.50  0.0000E+000  
  403.00  0.0000E+000  
  403.50  0.0000E+000  
  404.00  0.0000E+000  
  404.50  9.4916E-006  
  405.00  1.0912E-005  
  405.50  0.0000E+000  
  406.00  0.0000E+000  
  406.50  0.0000E+000  
  407.00  0.0000E+000  
  407.50  0.0000E+000  
  408.00  0.0000E+000  
  408.50  0.0000E+000  
  409.00  0.0000E+000  
  409.50  0.0000E+000  
  410.00  0.0000E+000  
  410.50  4.5357E-007  
  411.00  1.4332E-005  
  411.50  6.4170E-005  
  412.00  1.1857E-004  
  412.50  1.2026E-004  
  413.00  1.5102E-004  
  413.50  1.7077E-004  
  414.00  1.3264E-004  
  414.50  8.5972E-005  
  415.00  1.1562E-005  
  415.50  0.0000E+000  
  416.00  0.0000E+000  
  416.50  9.8702E-006  
  417.00  1.1762E-004  
  417.50  1.8251E-004  
  418.00  1.8823E-004  
  418.50  1.5851E-004  
  419.00  1.3538E-004  
  419.50  1.9600E-004  
  420.00  3.2128E-004  
  420.50  4.3300E-004  
  421.00  4.3658E-004  
  421.50  4.0852E-004  
  422.00  3.7273E-004  
  422.50  3.8266E-004  
  423.00  4.9226E-004  
  423.50  5.5613E-004  
  424.00  6.0052E-004  
  424.50  5.9896E-004  
  425.00  6.4252E-004  
  425.50  7.4090E-004  
  426.00  8.5235E-004  
  426.50  8.9881E-004  
  427.00  8.9830E-004  
  427.50  9.1511E-004  
  428.00  9.6734E-004  
  428.50  1.0689E-003  
  429.00  1.1493E-003  
  429.50  1.2419E-003  
  430.00  1.3107E-003  
  430.50  1.3868E-003  
  431.00  1.4714E-003  
  431.50  1.5141E-003  
  432.00  1.6040E-003  
  432.50  1.7260E-003  
  433.00  1.8702E-003  
  433.50  1.9705E-003  
  434.00  2.0489E-003  
  434.50  2.1229E-003  
  435.00  2.1960E-003  
  435.50  2.3094E-003  
  436.00  2.4241E-003  
  436.50  2.5110E-003  
  437.00  2.6545E-003  
  437.50  2.7495E-003  
  438.00  2.8177E-003  
  438.50  2.9079E-003  
  439.00  2.9703E-003  
  439.50  3.0705E-003  
  440.00  3.1722E-003  
  440.50  3.3027E-003  
  441.00  3.4624E-003  
  441.50  3.6195E-003  
  442.00  3.7158E-003  
  442.50  3.7682E-003  
  443.00  3.8614E-003  
  443.50  3.9799E-003  
  444.00  4.1783E-003  
  444.50  4.3525E-003  
  445.00  4.4888E-003  
  445.50  4.6324E-003  
  446.00  4.7845E-003  
  446.50  4.9307E-003  
  447.00  5.1462E-003  
  447.50  5.3450E-003  
  448.00  5.5269E-003  
  448.50  5.6921E-003  
  449.00  5.7798E-003  
  449.50  5.9054E-003  
  450.00  6.0296E-003  
  450.50  6.1934E-003  
  451.00  6.3280E-003  
  451.50  6.4203E-003  
  452.00  6.4467E-003  
  452.50  6.4213E-003  
  453.00  6.3614E-003  
  453.50  6.2676E-003  
  454.00  6.1983E-003  
  454.50  6.1047E-003  
  455.00  5.9505E-003  
  455.50  5.7446E-003  
  456.00  5.4910E-003  
  456.50  5.3236E-003  
  457.00  5.1903E-003  
  457.50  5.0573E-003  
  458.00  4.9059E-003  
  458.50  4.7084E-003  
  459.00  4.5079E-003  
  459.50  4.3500E-003  
  460.00  4.1965E-003  
  460.50  4.0677E-003  
  461.00  3.9559E-003  
  461.50  3.8021E-003  
  462.00  3.6677E-003  
  462.50  3.5221E-003  
  463.00  3.4232E-003  
  463.50  3.3335E-003  
  464.00  3.2126E-003  
  464.50  3.0786E-003  
  465.00  2.9479E-003  
  465.50  2.9051E-003  
  466.00  2.9284E-003  
  466.50  2.9407E-003  
  467.00  2.9405E-003  
  467.50  2.8706E-003  
  468.00  2.7908E-003  
  468.50  2.7404E-003  
  469.00  2.7076E-003  
  469.50  2.7026E-003  
  470.00  2.6536E-003  
  470.50  2.5981E-003  
  471.00  2.5218E-003  
  471.50  2.4627E-003  
  472.00  2.4130E-003  
  472.50  2.3675E-003  
  473.00  2.3790E-003  
  473.50  2.3773E-003  
  474.00  2.3620E-003  
  474.50  2.2628E-003  
  475.00  2.1346E-003  
  475.50  2.0442E-003  
  476.00  2.0026E-003  
  476.50  2.0239E-003  
  477.00  2.0318E-003  
  477.50  2.0245E-003  
  478.00  2.0037E-003  
  478.50  2.0147E-003  
  479.00  2.0209E-003  
  479.50  2.0789E-003  
  480.00  2.1040E-003  
  480.50  2.0809E-003  
  481.00  2.0672E-003  
  481.50  2.0644E-003  
  482.00  2.1111E-003  
  482.50  2.1492E-003  
  483.00  2.1401E-003  
  483.50  2.1823E-003  
  484.00  2.2254E-003  
  484.50  2.2818E-003  
  485.00  2.3238E-003  
  485.50  2.3581E-003  
  486.00  2.4056E-003  
  486.50  2.4278E-003  
  487.00  2.4316E-003  
  487.50  2.4327E-003  
  488.00  2.4555E-003  
  488.50  2.4892E-003  
  489.00  2.5190E-003  
  489.50  2.5552E-003  
  490.00  2.6144E-003  
  490.50  2.6642E-003  
  491.00  2.7192E-003  
  491.50  2.7797E-003  
  492.00  2.8239E-003  
  492.50  2.8612E-003  
  493.00  2.8854E-003  
  493.50  2.9285E-003  
  494.00  2.9876E-003  
  494.50  3.0361E-003  
  495.00  3.0892E-003  
  495.50  3.1513E-003  
  496.00  3.2168E-003  
  496.50  3.2731E-003  
  497.00  3.3165E-003  
  497.50  3.3703E-003  
  498.00  3.4370E-003  
  498.50  3.5159E-003  
  499.00  3.5691E-003  
  499.50  3.6241E-003  
  500.00  3.6829E-003  
  500.50  3.7299E-003  
  501.00  3.7872E-003  
  501.50  3.8375E-003  
  502.00  3.9070E-003  
  502.50  3.9663E-003  
  503.00  4.0107E-003  
  503.50  4.0416E-003  
  504.00  4.0838E-003  
  504.50  4.1205E-003  
  505.00  4.1927E-003  
  505.50  4.2563E-003  
  506.00  4.3355E-003  
  506.50  4.3725E-003  
  507.00  4.4337E-003  
  507.50  4.5135E-003  
  508.00  4.5726E-003  
  508.50  4.6345E-003  
  509.00  4.6797E-003  
  509.50  4.7327E-003  
  510.00  4.7879E-003  
  510.50  4.8351E-003  
  511.00  4.8909E-003  
  511.50  4.9604E-003  
  512.00  5.0325E-003  
  512.50  5.1259E-003  
  513.00  5.2142E-003  
  513.50  5.2797E-003  
  514.00  5.3349E-003  
  514.50  5.4118E-003  
  515.00  5.4869E-003  
  515.50  5.5704E-003  
  516.00  5.6296E-003  
  516.50  5.6691E-003  
  517.00  5.6992E-003  
  517.50  5.7229E-003  
  518.00  5.7719E-003  
  518.50  5.8092E-003  
  519.00  5.8883E-003  
  519.50  5.9770E-003  
  520.00  6.0814E-003  
  520.50  6.1680E-003  
  521.00  6.2052E-003  
  521.50  6.2604E-003  
  522.00  6.2936E-003  
  522.50  6.3536E-003  
  523.00  6.3806E-003  
  523.50  6.4211E-003  
  524.00  6.4834E-003  
  524.50  6.5664E-003  
  525.00  6.6337E-003  
  525.50  6.7232E-003  
  526.00  6.7960E-003  
  526.50  6.8773E-003  
  527.00  6.9601E-003  
  527.50  7.0333E-003  
  528.00  7.1167E-003  
  528.50  7.1746E-003  
  529.00  7.2300E-003  
  529.50  7.3138E-003  
  530.00  7.4070E-003  
  530.50  7.5237E-003  
  531.00  7.5920E-003  
  531.50  7.6577E-003  
  532.00  7.7247E-003  
  532.50  7.7893E-003  
  533.00  7.8409E-003  
  533.50  7.9121E-003  
  534.00  7.9532E-003  
  534.50  7.9911E-003  
  535.00  8.0136E-003  
  535.50  8.0351E-003  
  536.00  8.0978E-003  
  536.50  8.1730E-003  
  537.00  8.2953E-003  
  537.50  8.4327E-003  
  538.00  8.5658E-003  
  538.50  8.6704E-003  
  539.00  8.7425E-003  
  539.50  8.8188E-003  
  540.00  8.8924E-003  
  540.50  8.9852E-003  
  541.00  9.0678E-003  
  541.50  9.1461E-003  
  542.00  9.2452E-003  
  542.50  9.2718E-003  
  543.00  9.3199E-003  
  543.50  9.3642E-003  
  544.00  9.4638E-003  
  544.50  9.5790E-003  
  545.00  9.6534E-003  
  545.50  9.7453E-003  
  546.00  9.8684E-003  
  546.50  9.9915E-003  
  547.00  1.0100E-002  
  547.50  1.0144E-002  
  548.00  1.0184E-002  
  548.50  1.0240E-002  
  549.00  1.0317E-002  
  549.50  1.0429E-002  
  550.00  1.0537E-002  
  550.50  1.0621E-002  
  551.00  1.0711E-002  
  551.50  1.0773E-002  
  552.00  1.0864E-002  
  552.50  1.0952E-002  
  553.00  1.1067E-002  
  553.50  1.1158E-002  
  554.00  1.1244E-002  
  554.50  1.1306E-002  
  555.00  1.1403E-002  
  555.50  1.1490E-002  
  556.00  1.1590E-002  
  556.50  1.1726E-002  
  557.00  1.1817E-002  
  557.50  1.1895E-002  
  558.00  1.1906E-002  
  558.50  1.1977E-002  
  559.00  1.2111E-002  
  559.50  1.2281E-002  
  560.00  1.2418E-002  
  560.50  1.2488E-002  
  561.00  1.2576E-002  
  561.50  1.2635E-002  
  562.00  1.2712E-002  
  562.50  1.2800E-002  
  563.00  1.2882E-002  
  563.50  1.2959E-002  
  564.00  1.3004E-002  
  564.50  1.3086E-002  
  565.00  1.3199E-002  
  565.50  1.3333E-002  
  566.00  1.3388E-002  
  566.50  1.3435E-002  
  567.00  1.3449E-002  
  567.50  1.3526E-002  
  568.00  1.3612E-002  
  568.50  1.3752E-002  
  569.00  1.3913E-002  
  569.50  1.4036E-002  
  570.00  1.4153E-002  
  570.50  1.4207E-002  
  571.00  1.4296E-002  
  571.50  1.4400E-002  
  572.00  1.4499E-002  
  572.50  1.4574E-002  
  573.00  1.4648E-002  
  573.50  1.4715E-002  
  574.00  1.4832E-002  
  574.50  1.4907E-002  
  575.00  1.5017E-002  
  575.50  1.5100E-002  
  576.00  1.5179E-002  
  576.50  1.5223E-002  
  577.00  1.5303E-002  
  577.50  1.5457E-002  
  578.00  1.5643E-002  
  578.50  1.5856E-002  
  579.00  1.5993E-002  
  579.50  1.6056E-002  
  580.00  1.6041E-002  
  580.50  1.6017E-002  
  581.00  1.6066E-002  
  581.50  1.6134E-002  
  582.00  1.6193E-002  
  582.50  1.6301E-002  
  583.00  1.6428E-002  
  583.50  1.6527E-002  
  584.00  1.6583E-002  
  584.50  1.6604E-002  
  585.00  1.6631E-002  
  585.50  1.6689E-002  
  586.00  1.6757E-002  
  586.50  1.6880E-002  
  587.00  1.6961E-002  
  587.50  1.7039E-002  
  588.00  1.7108E-002  
  588.50  1.7254E-002  
  589.00  1.7368E-002  
  589.50  1.7431E-002  
  590.00  1.7454E-002  
  590.50  1.7468E-002  
  591.00  1.7523E-002  
  591.50  1.7593E-002  
  592.00  1.7625E-002  
  592.50  1.7619E-002  
  593.00  1.7632E-002  
  593.50  1.7660E-002  
  594.00  1.7736E-002  
  594.50  1.7755E-002  
  595.00  1.7834E-002  
  595.50  1.7874E-002  
  596.00  1.7944E-002  
  596.50  1.7945E-002  
  597.00  1.8010E-002  
  597.50  1.8048E-002  
  598.00  1.8142E-002  
  598.50  1.8200E-002  
  599.00  1.8249E-002  
  599.50  1.8308E-002  
  600.00  1.8371E-002  
  600.50  1.8420E-002  
  601.00  1.8450E-002  
  601.50  1.8392E-002  
  602.00  1.8336E-002  
  602.50  1.8279E-002  
  603.00  1.8282E-002  
  603.50  1.8313E-002  
  604.00  1.8349E-002  
  604.50  1.8345E-002  
  605.00  1.8376E-002  
  605.50  1.8396E-002  
  606.00  1.8380E-002  
  606.50  1.8370E-002  
  607.00  1.8366E-002  
  607.50  1.8380E-002  
  608.00  1.8385E-002  
  608.50  1.8365E-002  
  609.00  1.8350E-002  
  609.50  1.8299E-002  
  610.00  1.8204E-002  
  610.50  1.8173E-002  
  611.00  1.8137E-002  
  611.50  1.8105E-002  
  612.00  1.8093E-002  
  612.50  1.8098E-002  
  613.00  1.8136E-002  
  613.50  1.8087E-002  
  614.00  1.8008E-002  
  614.50  1.7918E-002  
  615.00  1.7833E-002  
  615.50  1.7828E-002  
  616.00  1.7804E-002  
  616.50  1.7755E-002  
  617.00  1.7723E-002  
  617.50  1.7737E-002  
  618.00  1.7778E-002  
  618.50  1.7767E-002  
  619.00  1.7718E-002  
  619.50  1.7727E-002  
  620.00  1.7648E-002  
  620.50  1.7532E-002  
  621.00  1.7346E-002  
  621.50  1.7203E-002  
  622.00  1.7160E-002  
  622.50  1.7173E-002  
  623.00  1.7211E-002  
  623.50  1.7166E-002  
  624.00  1.7085E-002  
  624.50  1.6983E-002  
  625.00  1.6857E-002  
  625.50  1.6751E-002  
  626.00  1.6688E-002  
  626.50  1.6642E-002  
  627.00  1.6587E-002  
  627.50  1.6462E-002  
  628.00  1.6341E-002  
  628.50  1.6277E-002  
  629.00  1.6189E-002  
  629.50  1.6136E-002  
  630.00  1.5987E-002  
  630.50  1.5886E-002  
  631.00  1.5815E-002  
  631.50  1.5772E-002  
  632.00  1.5674E-002  
  632.50  1.5546E-002  
  633.00  1.5426E-002  
  633.50  1.5401E-002  
  634.00  1.5322E-002  
  634.50  1.5253E-002  
  635.00  1.5128E-002  
  635.50  1.5047E-002  
  636.00  1.4928E-002  
  636.50  1.4852E-002  
  637.00  1.4780E-002  
  637.50  1.4651E-002  
  638.00  1.4504E-002  
  638.50  1.4352E-002  
  639.00  1.4300E-002  
  639.50  1.4236E-002  
  640.00  1.4164E-002  
  640.50  1.4058E-002  
  641.00  1.3955E-002  
  641.50  1.3852E-002  
  642.00  1.3765E-002  
  642.50  1.3758E-002  
  643.00  1.3674E-002  
  643.50  1.3546E-002  
  644.00  1.3304E-002  
  644.50  1.3126E-002  
  645.00  1.3021E-002  
  645.50  1.2930E-002  
  646.00  1.2817E-002  
  646.50  1.2671E-002  
  647.00  1.2567E-002  
  647.50  1.2504E-002  
  648.00  1.2421E-002  
  648.50  1.2331E-002  
  649.00  1.2217E-002  
  649.50  1.2114E-002  
  650.00  1.2017E-002  
  650.50  1.1918E-002  
  651.00  1.1798E-002  
  651.50  1.1681E-002  
  652.00  1.1512E-002  
  652.50  1.1365E-002  
  653.00  1.1215E-002  
  653.50  1.1128E-002  
  654.00  1.1065E-002  
  654.50  1.1019E-002  
  655.00  1.1000E-002  
  655.50  1.0874E-002  
  656.00  1.0740E-002  
  656.50  1.0593E-002  
  657.00  1.0433E-002  
  657.50  1.0276E-002  
  658.00  1.0183E-002  
  658.50  1.0151E-002  
  659.00  1.0136E-002  
  659.50  1.0040E-002  
  660.00  9.8749E-003  
  660.50  9.7006E-003  
  661.00  9.5765E-003  
  661.50  9.5793E-003  
  662.00  9.5207E-003  
  662.50  9.3486E-003  
  663.00  9.1736E-003  
  663.50  9.0621E-003  
  664.00  8.9559E-003  
  664.50  8.8174E-003  
  665.00  8.6300E-003  
  665.50  8.5187E-003  
  666.00  8.4806E-003  
  666.50  8.4817E-003  
  667.00  8.4300E-003  
  667.50  8.3142E-003  
  668.00  8.1470E-003  
  668.50  8.0042E-003  
  669.00  7.8924E-003  
  669.50  7.8588E-003  
  670.00  7.8122E-003  
  670.50  7.6799E-003  
  671.00  7.5445E-003  
  671.50  7.4148E-003  
  672.00  7.3849E-003  
  672.50  7.3100E-003  
  673.00  7.2588E-003  
  673.50  7.1408E-003  
  674.00  7.0422E-003  
  674.50  6.9673E-003  
  675.00  6.9261E-003  
  675.50  6.8991E-003  
  676.00  6.8367E-003  
  676.50  6.6922E-003  
  677.00  6.5278E-003  
  677.50  6.4070E-003  
  678.00  6.3461E-003  
  678.50  6.3420E-003  
  679.00  6.3217E-003  
  679.50  6.2927E-003  
  680.00  6.2028E-003  
  680.50  6.0867E-003  
  681.00  5.9860E-003  
  681.50  5.8705E-003  
  682.00  5.7809E-003  
  682.50  5.6831E-003  
  683.00  5.6019E-003  
  683.50  5.5474E-003  
  684.00  5.5110E-003  
  684.50  5.4589E-003  
  685.00  5.3987E-003  
  685.50  5.2909E-003  
  686.00  5.2427E-003  
  686.50  5.1891E-003  
  687.00  5.1045E-003  
  687.50  4.9469E-003  
  688.00  4.8662E-003  
  688.50  4.8613E-003  
  689.00  4.8707E-003  
  689.50  4.8376E-003  
  690.00  4.7587E-003  
  690.50  4.6607E-003  
  691.00  4.5234E-003  
  691.50  4.4733E-003  
  692.00  4.4602E-003  
  692.50  4.4326E-003  
  693.00  4.3177E-003  
  693.50  4.2580E-003  
  694.00  4.2109E-003  
  694.50  4.1541E-003  
  695.00  4.0376E-003  
  695.50  3.9219E-003  
  696.00  3.8793E-003  
  696.50  3.8157E-003  
  697.00  3.7704E-003  
  697.50  3.7995E-003  
  698.00  3.8338E-003  
  698.50  3.8217E-003  
  699.00  3.6970E-003  
  699.50  3.6232E-003  
  700.00  3.5447E-003  
  700.50  3.4912E-003  
  701.00  3.4204E-003  
  701.50  3.3721E-003  
  702.00  3.2987E-003  
  702.50  3.2700E-003  
  703.00  3.1929E-003  
  703.50  3.2100E-003  
  704.00  3.1538E-003  
  704.50  3.1554E-003  
  705.00  3.0978E-003  
  705.50  3.0840E-003  
  706.00  2.9990E-003  
  706.50  2.9188E-003  
  707.00  2.7986E-003  
  707.50  2.8400E-003  
  708.00  2.8767E-003  
  708.50  2.8742E-003  
  709.00  2.7679E-003  
  709.50  2.6515E-003  
  710.00  2.6106E-003  
  710.50  2.5895E-003  
  711.00  2.5630E-003  
  711.50  2.5523E-003  
  712.00  2.5382E-003  
  712.50  2.6049E-003  
  713.00  2.5907E-003  
  713.50  2.5524E-003  
  714.00  2.4076E-003  
  714.50  2.2847E-003  
  715.00  2.1929E-003  
  715.50  2.1923E-003  
  716.00  2.1655E-003  
  716.50  2.1128E-003  
  717.00  2.0068E-003  
  717.50  2.0019E-003  
  718.00  2.0131E-003  
  718.50  1.9628E-003  
  719.00  1.7977E-003  
  719.50  1.7511E-003  
  720.00  1.8234E-003  
  720.50  1.9548E-003  
  721.00  1.9727E-003  
  721.50  1.9306E-003  
  722.00  1.8351E-003  
  722.50  1.8006E-003  
  723.00  1.7661E-003  
  723.50  1.7918E-003  
  724.00  1.7702E-003  
  724.50  1.7467E-003  
  725.00  1.7032E-003  
  725.50  1.6662E-003  
  726.00  1.5949E-003  
  726.50  1.5333E-003  
  727.00  1.4993E-003  
  727.50  1.5160E-003  
  728.00  1.5484E-003  
  728.50  1.5854E-003  
  729.00  1.4723E-003  
  729.50  1.3199E-003  
  730.00  1.2484E-003  
  730.50  1.3340E-003  
  731.00  1.3370E-003  
  731.50  1.3150E-003  
  732.00  1.3473E-003  
  732.50  1.3216E-003  
  733.00  1.2826E-003  
  733.50  1.2723E-003  
  734.00  1.2483E-003  
  734.50  1.2030E-003  
  735.00  1.1524E-003  
  735.50  1.1433E-003  
  736.00  1.1244E-003  
  736.50  1.0207E-003  
  737.00  9.4012E-004  
  737.50  8.6692E-004  
  738.00  9.3618E-004  
  738.50  1.0218E-003  
  739.00  1.0339E-003  
  739.50  1.0664E-003  
  740.00  1.0876E-003  
  740.50  1.1258E-003  
  741.00  1.0562E-003  
  741.50  9.5829E-004  
  742.00  9.1593E-004  
  742.50  9.2052E-004  
  743.00  8.1396E-004  
  743.50  6.2453E-004  
  744.00  6.0039E-004  
  744.50  7.2672E-004  
  745.00  8.5051E-004  
  745.50  9.1337E-004  
  746.00  8.2256E-004  
  746.50  6.6530E-004  
  747.00  5.4404E-004  
  747.50  6.4919E-004  
  748.00  7.4919E-004  
  748.50  7.4020E-004  
  749.00  6.7356E-004  
  749.50  7.3004E-004  
  750.00  7.7573E-004  
  750.50  1.0406E-003  
  751.00  1.1828E-003  
  751.50  1.2072E-003  
  752.00  6.6614E-004  
  752.50  4.6636E-004  
  753.00  4.6207E-004  
  753.50  5.8281E-004  
  754.00  5.1042E-004  
  754.50  5.2979E-004  
  755.00  5.2624E-004  
  755.50  5.7952E-004  
  756.00  5.1847E-004  
  756.50  4.5291E-004  
  757.00  5.5620E-004  
  757.50  5.0897E-004  
  758.00  4.6965E-004  
  758.50  4.9920E-004  
  759.00  6.2539E-004  
  759.50  6.1286E-004  
  760.00  4.4791E-004  
  760.50  3.5412E-004  
  761.00  3.7198E-004  
  761.50  4.5176E-004  
  762.00  4.4809E-004  
  762.50  3.5203E-004  
  763.00  2.8579E-004  
  763.50  1.9533E-004  
  764.00  1.2108E-004  
  764.50  1.7132E-004  
  765.00  2.2474E-004  
  765.50  2.9149E-004  
  766.00  3.3779E-004  
  766.50  2.2854E-004  
  767.00  9.6951E-005  
  767.50  1.9779E-004  
  768.00  2.9734E-004  
  768.50  3.1384E-004  
  769.00  2.6709E-004  
  769.50  2.2961E-004  
  770.00  1.5074E-004  
  770.50  1.3663E-004  
  771.00  2.0996E-004  
  771.50  2.5142E-004  
  772.00  7.9543E-005  
  772.50  0.0000E+000  
  773.00  0.0000E+000  
  773.50  0.0000E+000  
  774.00  0.0000E+000  
  774.50  7.5828E-005  
  775.00  2.5357E-005  
  775.50  0.0000E+000  
  776.00  3.4995E-005  
  776.50  7.6893E-005  
  777.00  1.2426E-004  
  777.50  2.0438E-004  
  778.00  4.6846E-004  
  778.50  3.8025E-004  
  779.00  1.9386E-004  
  779.50  1.4517E-005  
  780.00  0.0000E+000  
  780.50  0.0000E+000  
  781.00  0.0000E+000  
  781.50  0.0000E+000  
  782.00  1.2764E-004  
  782.50  5.6880E-005  
  783.00  0.0000E+000  
  783.50  0.0000E+000  
  784.00  0.0000E+000  
  784.50  0.0000E+000  
  785.00  0.0000E+000  
  785.50  0.0000E+000  
  786.00  0.0000E+000  
  786.50  0.0000E+000  
  787.00  0.0000E+000  
  787.50  0.0000E+000  
  788.00  2.0382E-004  
  788.50  3.2072E-004  
  789.00  2.8685E-004  
  789.50  2.2343E-004  
  790.00  7.2240E-005  
  790.50  2.9806E-005  
  791.00  0.0000E+000  
  791.50  0.0000E+000  
  792.00  0.0000E+000  
  792.50  0.0000E+000  
  793.00  0.0000E+000  
  793.50  0.0000E+000  
  794.00  0.0000E+000  
  794.50  0.0000E+000  
  795.00  0.0000E+000  
  795.50  0.0000E+000  
  796.00  0.0000E+000  
  796.50  0.0000E+000  
  797.00  3.4332E-005  
  797.50  0.0000E+000  
  798.00  0.0000E+000  
  798.50  2.3710E-005  
  799.00  5.2418E-005  
  799.50  0.0000E+000  
  800.00  0.0000E+000  
  800.50  0.0000E+000  
  801.00  0.0000E+000  
  801.50  1.2608E-004  
  802.00  4.6689E-005  
  802.50  0.0000E+000  
  803.00  0.0000E+000  
  803.50  0.0000E+000  
  804.00  0.0000E+000  
  804.50  0.0000E+000  
  805.00  0.0000E+000  
  805.50  7.1940E-005  
  806.00  4.3275E-005  
  806.50  2.0486E-004  
  807.00  0.0000E+000  
  807.50  0.0000E+000  
  808.00  0.0000E+000  
  808.50  0.0000E+000  
  809.00  0.0000E+000  
  809.50  0.0000E+000  
  810.00  0.0000E+000  
  810.50  0.0000E+000  
  811.00  0.0000E+000  
  811.50  0.0000E+000  
  812.00  0.0000E+000  
  812.50  0.0000E+000  
  813.00  0.0000E+000  
  813.50  0.0000E+000  
  814.00  8.6174E-006  
  814.50  0.0000E+000  
  815.00  0.0000E+000  
  815.50  0.0000E+000  
  816.00  0.0000E+000  
  816.50  0.0000E+000  
  817.00  0.0000E+000  
  817.50  0.0000E+000  
  818.00  0.0000E+000  
  818.50  0.0000E+000  
  819.00  0.0000E+000  
  819.50  0.0000E+000  
  820.00  0.0000E+000  
  820.50  0.0000E+000  
  821.00  0.0000E+000  
  821.50  0.0000E+000  
  822.00  0.0000E+000  
  822.50  0.0000E+000  
  823.00  0.0000E+000  
  823.50  0.0000E+000  
  824.00  0.0000E+000  
  824.50  0.0000E+000  
  825.00  0.0000E+000  
  825.50  0.0000E+000  
  826.00  0.0000E+000  
  826.50  0.0000E+000  
  827.00  0.0000E+000  
  827.50  0.0000E+000  
  828.00  0.0000E+000  
  828.50  0.0000E+000  
  829.00  0.0000E+000  
  829.50  0.0000E+000  
  830.00  0.0000E+000  
  830.50  0.0000E+000  
  831.00  0.0000E+000  
  831.50  0.0000E+000  
  832.00  0.0000E+000  
  832.50  0.0000E+000  
  833.00  0.0000E+000  
  833.50  0.0000E+000  
  834.00  0.0000E+000  
  834.50  0.0000E+000  
  835.00  2.0645E-007  
  835.50  0.0000E+000  
  836.00  0.0000E+000  
  836.50  0.0000E+000  
  837.00  0.0000E+000  
  837.50  0.0000E+000  
  838.00  0.0000E+000  
  838.50  0.0000E+000  
  839.00  0.0000E+000  
  839.50  0.0000E+000  
  840.00  0.0000E+000  
  840.50  0.0000E+000  
  841.00  0.0000E+000  
  841.50  0.0000E+000  
  842.00  0.0000E+000  
  842.50  0.0000E+000  
  843.00  0.0000E+000  
  843.50  0.0000E+000  
  844.00  0.0000E+000  
  844.50  0.0000E+000  
  845.00  0.0000E+000  
  845.50  0.0000E+000  
  846.00  0.0000E+000  
  846.50  0.0000E+000  
  847.00  0.0000E+000  
  847.50  0.0000E+000  
  848.00  0.0000E+000  
  848.50  0.0000E+000  
  849.00  0.0000E+000  
  849.50  0.0000E+000  
  850.00  0.0000E+000  
  850.50  0.0000E+000  
  851.00  0.0000E+000  
  851.50  0.0000E+000  
  852.00  0.0000E+000  
  852.50  0.0000E+000  
  853.00  0.0000E+000  
  853.50  0.0000E+000  
  854.00  0.0000E+000  
  854.50  0.0000E+000  
  855.00  0.0000E+000  
  855.50  0.0000E+000  
  856.00  0.0000E+000  
  856.50  0.0000E+000  
  857.00  0.0000E+000  
  857.50  0.0000E+000  
  858.00  0.0000E+000  
  858.50  0.0000E+000  
  859.00  0.0000E+000  
  859.50  0.0000E+000  
  860.00  0.0000E+000  
  860.50  0.0000E+000  
  861.00  0.0000E+000  
  861.50  0.0000E+000  
  862.00  0.0000E+000  
  862.50  0.0000E+000  
  863.00  0.0000E+000  
  863.50  0.0000E+000  
  864.00  0.0000E+000  
  864.50  0.0000E+000  
  865.00  0.0000E+000  
  865.50  0.0000E+000  
  866.00  0.0000E+000  
  866.50  0.0000E+000  
  867.00  0.0000E+000  
  867.50  0.0000E+000  
  868.00  0.0000E+000  
  868.50  0.0000E+000  
  869.00  0.0000E+000  
  869.50  0.0000E+000  
  870.00  1.7205E-004  
  870.50  3.7700E-004  
  871.00  3.0244E-005  
  871.50  0.0000E+000  
  872.00  0.0000E+000  
  872.50  0.0000E+000  
  873.00  0.0000E+000  
  873.50  0.0000E+000  
  874.00  0.0000E+000  
  874.50  0.0000E+000  
  875.00  0.0000E+000  
  875.50  0.0000E+000  
  876.00  0.0000E+000  
  876.50  0.0000E+000  
  877.00  0.0000E+000  
  877.50  0.0000E+000  
  878.00  0.0000E+000  
  878.50  0.0000E+000  
  879.00  0.0000E+000  
  879.50  0.0000E+000  
  880.00  0.0000E+000  
  880.50  0.0000E+000  
  881.00  0.0000E+000  
  881.50  0.0000E+000  
  882.00  0.0000E+000  
  882.50  0.0000E+000  
  883.00  0.0000E+000  
  883.50  0.0000E+000  
  884.00  0.0000E+000  
  884.50  0.0000E+000  
  885.00  0.0000E+000  
  885.50  0.0000E+000  
  886.00  0.0000E+000  
  886.50  0.0000E+000  
  887.00  0.0000E+000  
  887.50  0.0000E+000  
  888.00  0.0000E+000  
  888.50  0.0000E+000  
  889.00  0.0000E+000  
  889.50  0.0000E+000  
  890.00  0.0000E+000  
  890.50  0.0000E+000  
  891.00  0.0000E+000  
  891.50  0.0000E+000  
  892.00  7.0926E-008  
  892.50  0.0000E+000  
  893.00  0.0000E+000  
  893.50  0.0000E+000  
  894.00  0.0000E+000  
  894.50  0.0000E+000  
  895.00  0.0000E+000  
  895.50  0.0000E+000  
  896.00  0.0000E+000  
  896.50  0.0000E+000  
  897.00  0.0000E+000  
  897.50  0.0000E+000  
  898.00  0.0000E+000  
  898.50  0.0000E+000  
  899.00  0.0000E+000  
  899.50  0.0000E+000  
