
# From lspdd.org
# 
# Name: DEL EnergySmart PAR30 Domestique
# Indice spectral Valeur 
# MSI 0.28 
# SLI 0.48 
# IPI 0.64 
# Pourcentage de bleu 17.9 
# Caractéristique Valeur 
# CCT calculée (K) 2865 
# CCT du fabricant (K) ND 
# Tension (V) 120 
# Puissance (W) 10.0 
# Efficacité lumineuse (Lum/W) 50.0 
#
# Image: '/app/system/img_2s/2477/medium_image2.JPG?1413485834'
# Image: '/app/system/img_1s/2477/medium_image1.jpg?1413485838'
# 

  273.00  0.0000E+000  
  273.50  0.0000E+000  
  274.00  0.0000E+000  
  274.50  0.0000E+000  
  275.00  0.0000E+000  
  275.50  0.0000E+000  
  276.00  0.0000E+000  
  276.50  0.0000E+000  
  277.00  0.0000E+000  
  277.50  0.0000E+000  
  278.00  0.0000E+000  
  278.50  0.0000E+000  
  279.00  0.0000E+000  
  279.50  0.0000E+000  
  280.00  0.0000E+000  
  280.50  0.0000E+000  
  281.00  0.0000E+000  
  281.50  0.0000E+000  
  282.00  0.0000E+000  
  282.50  0.0000E+000  
  283.00  0.0000E+000  
  283.50  0.0000E+000  
  284.00  0.0000E+000  
  284.50  0.0000E+000  
  285.00  0.0000E+000  
  285.50  0.0000E+000  
  286.00  0.0000E+000  
  286.50  0.0000E+000  
  287.00  0.0000E+000  
  287.50  0.0000E+000  
  288.00  0.0000E+000  
  288.50  0.0000E+000  
  289.00  0.0000E+000  
  289.50  0.0000E+000  
  290.00  0.0000E+000  
  290.50  0.0000E+000  
  291.00  0.0000E+000  
  291.50  0.0000E+000  
  292.00  0.0000E+000  
  292.50  0.0000E+000  
  293.00  0.0000E+000  
  293.50  0.0000E+000  
  294.00  0.0000E+000  
  294.50  0.0000E+000  
  295.00  0.0000E+000  
  295.50  0.0000E+000  
  296.00  0.0000E+000  
  296.50  0.0000E+000  
  297.00  0.0000E+000  
  297.50  0.0000E+000  
  298.00  0.0000E+000  
  298.50  0.0000E+000  
  299.00  0.0000E+000  
  299.50  0.0000E+000  
  300.00  3.7656E-005  
  300.50  1.2119E-004  
  301.00  1.9677E-004  
  301.50  2.3236E-004  
  302.00  2.3939E-004  
  302.50  2.1634E-004  
  303.00  1.9355E-004  
  303.50  1.7498E-004  
  304.00  1.8147E-004  
  304.50  1.8636E-004  
  305.00  1.8062E-004  
  305.50  2.0681E-004  
  306.00  2.1172E-004  
  306.50  1.7379E-004  
  307.00  1.2563E-004  
  307.50  1.0301E-004  
  308.00  1.0895E-004  
  308.50  1.5428E-004  
  309.00  2.0401E-004  
  309.50  1.9376E-004  
  310.00  2.3181E-004  
  310.50  2.8010E-004  
  311.00  3.5439E-004  
  311.50  4.2741E-004  
  312.00  4.2735E-004  
  312.50  3.4651E-004  
  313.00  2.7650E-004  
  313.50  2.0019E-004  
  314.00  1.1483E-004  
  314.50  1.1874E-004  
  315.00  1.6432E-004  
  315.50  2.0585E-004  
  316.00  2.5955E-004  
  316.50  2.8667E-004  
  317.00  2.8027E-004  
  317.50  2.5927E-004  
  318.00  2.2066E-004  
  318.50  1.6625E-004  
  319.00  1.2961E-004  
  319.50  1.4961E-004  
  320.00  1.7100E-004  
  320.50  1.6512E-004  
  321.00  1.8112E-004  
  321.50  1.8166E-004  
  322.00  1.9768E-004  
  322.50  1.9902E-004  
  323.00  1.9009E-004  
  323.50  1.8433E-004  
  324.00  1.7170E-004  
  324.50  1.4038E-004  
  325.00  7.9268E-005  
  325.50  5.0862E-005  
  326.00  2.3917E-005  
  326.50  5.4948E-005  
  327.00  9.4006E-005  
  327.50  1.5134E-004  
  328.00  1.6378E-004  
  328.50  1.4738E-004  
  329.00  1.4242E-004  
  329.50  1.1774E-004  
  330.00  1.1835E-004  
  330.50  1.2615E-004  
  331.00  1.1250E-004  
  331.50  1.5527E-004  
  332.00  1.9145E-004  
  332.50  2.0349E-004  
  333.00  2.2055E-004  
  333.50  2.1274E-004  
  334.00  2.3239E-004  
  334.50  2.1395E-004  
  335.00  1.7593E-004  
  335.50  1.6035E-004  
  336.00  1.5152E-004  
  336.50  1.9716E-004  
  337.00  2.2894E-004  
  337.50  2.6265E-004  
  338.00  2.4269E-004  
  338.50  2.0999E-004  
  339.00  1.7553E-004  
  339.50  1.7482E-004  
  340.00  1.7754E-004  
  340.50  2.3589E-004  
  341.00  2.5602E-004  
  341.50  2.9787E-004  
  342.00  3.5055E-004  
  342.50  3.3898E-004  
  343.00  3.0155E-004  
  343.50  2.4944E-004  
  344.00  1.9026E-004  
  344.50  1.7204E-004  
  345.00  1.9566E-004  
  345.50  2.1698E-004  
  346.00  2.7942E-004  
  346.50  3.4442E-004  
  347.00  3.7240E-004  
  347.50  3.3367E-004  
  348.00  2.7413E-004  
  348.50  2.5270E-004  
  349.00  2.3948E-004  
  349.50  2.7095E-004  
  350.00  2.5439E-004  
  350.50  1.8040E-004  
  351.00  1.6180E-004  
  351.50  1.6084E-004  
  352.00  1.7424E-004  
  352.50  2.2591E-004  
  353.00  2.2146E-004  
  353.50  1.8745E-004  
  354.00  2.1498E-004  
  354.50  2.1499E-004  
  355.00  2.4653E-004  
  355.50  2.7448E-004  
  356.00  2.4924E-004  
  356.50  1.9840E-004  
  357.00  1.7451E-004  
  357.50  1.6232E-004  
  358.00  1.9523E-004  
  358.50  2.6068E-004  
  359.00  3.0227E-004  
  359.50  3.4907E-004  
  360.00  3.6786E-004  
  360.50  3.4382E-004  
  361.00  3.2498E-004  
  361.50  2.7904E-004  
  362.00  2.8861E-004  
  362.50  3.1303E-004  
  363.00  3.0286E-004  
  363.50  2.8871E-004  
  364.00  2.6603E-004  
  364.50  2.4878E-004  
  365.00  2.5731E-004  
  365.50  2.3494E-004  
  366.00  2.0105E-004  
  366.50  1.8817E-004  
  367.00  1.6506E-004  
  367.50  1.7397E-004  
  368.00  1.7520E-004  
  368.50  2.1293E-004  
  369.00  2.8537E-004  
  369.50  3.5264E-004  
  370.00  3.7597E-004  
  370.50  3.8261E-004  
  371.00  3.3880E-004  
  371.50  2.9354E-004  
  372.00  2.9601E-004  
  372.50  2.8164E-004  
  373.00  3.1067E-004  
  373.50  3.1346E-004  
  374.00  2.8813E-004  
  374.50  2.8613E-004  
  375.00  3.1337E-004  
  375.50  3.2816E-004  
  376.00  3.3695E-004  
  376.50  3.1861E-004  
  377.00  2.9277E-004  
  377.50  2.8181E-004  
  378.00  3.0046E-004  
  378.50  2.9732E-004  
  379.00  2.7815E-004  
  379.50  3.0964E-004  
  380.00  3.7285E-004  
  380.50  4.5024E-004  
  381.00  5.1448E-004  
  381.50  4.7530E-004  
  382.00  3.9909E-004  
  382.50  3.6450E-004  
  383.00  3.2007E-004  
  383.50  2.9654E-004  
  384.00  2.9353E-004  
  384.50  2.9322E-004  
  385.00  3.2612E-004  
  385.50  3.9139E-004  
  386.00  4.0263E-004  
  386.50  4.3063E-004  
  387.00  4.6181E-004  
  387.50  4.9172E-004  
  388.00  4.6519E-004  
  388.50  4.2911E-004  
  389.00  3.6705E-004  
  389.50  3.3240E-004  
  390.00  3.5750E-004  
  390.50  3.7116E-004  
  391.00  4.2216E-004  
  391.50  4.8155E-004  
  392.00  4.8520E-004  
  392.50  4.6492E-004  
  393.00  4.1382E-004  
  393.50  3.5557E-004  
  394.00  3.6831E-004  
  394.50  3.9381E-004  
  395.00  3.9508E-004  
  395.50  3.9809E-004  
  396.00  3.4530E-004  
  396.50  3.4081E-004  
  397.00  3.4675E-004  
  397.50  3.6728E-004  
  398.00  3.7608E-004  
  398.50  3.9265E-004  
  399.00  3.8614E-004  
  399.50  4.3106E-004  
  400.00  5.1499E-004  
  400.50  5.5018E-004  
  401.00  6.0819E-004  
  401.50  6.1158E-004  
  402.00  6.1817E-004  
  402.50  6.4369E-004  
  403.00  6.1619E-004  
  403.50  6.1756E-004  
  404.00  6.4030E-004  
  404.50  6.7911E-004  
  405.00  7.0704E-004  
  405.50  6.7059E-004  
  406.00  6.3628E-004  
  406.50  6.2993E-004  
  407.00  6.6897E-004  
  407.50  7.2426E-004  
  408.00  7.5219E-004  
  408.50  6.9097E-004  
  409.00  6.3062E-004  
  409.50  6.2712E-004  
  410.00  7.1274E-004  
  410.50  8.3017E-004  
  411.00  9.1504E-004  
  411.50  9.5496E-004  
  412.00  9.7542E-004  
  412.50  9.9112E-004  
  413.00  1.0050E-003  
  413.50  1.0620E-003  
  414.00  1.1467E-003  
  414.50  1.2728E-003  
  415.00  1.3693E-003  
  415.50  1.4427E-003  
  416.00  1.5464E-003  
  416.50  1.6247E-003  
  417.00  1.7030E-003  
  417.50  1.7776E-003  
  418.00  1.8900E-003  
  418.50  2.0029E-003  
  419.00  2.1506E-003  
  419.50  2.2723E-003  
  420.00  2.4226E-003  
  420.50  2.6656E-003  
  421.00  2.9038E-003  
  421.50  3.1215E-003  
  422.00  3.3412E-003  
  422.50  3.5586E-003  
  423.00  3.7960E-003  
  423.50  4.0602E-003  
  424.00  4.3449E-003  
  424.50  4.6626E-003  
  425.00  5.0121E-003  
  425.50  5.3643E-003  
  426.00  5.6839E-003  
  426.50  5.9662E-003  
  427.00  6.2887E-003  
  427.50  6.7382E-003  
  428.00  7.2160E-003  
  428.50  7.7268E-003  
  429.00  8.2779E-003  
  429.50  8.7561E-003  
  430.00  9.2497E-003  
  430.50  9.7384E-003  
  431.00  1.0167E-002  
  431.50  1.0687E-002  
  432.00  1.1323E-002  
  432.50  1.2020E-002  
  433.00  1.2717E-002  
  433.50  1.3397E-002  
  434.00  1.4106E-002  
  434.50  1.4886E-002  
  435.00  1.5705E-002  
  435.50  1.6569E-002  
  436.00  1.7438E-002  
  436.50  1.8341E-002  
  437.00  1.9349E-002  
  437.50  2.0394E-002  
  438.00  2.1453E-002  
  438.50  2.2439E-002  
  439.00  2.3449E-002  
  439.50  2.4575E-002  
  440.00  2.5818E-002  
  440.50  2.7182E-002  
  441.00  2.8609E-002  
  441.50  3.0077E-002  
  442.00  3.1669E-002  
  442.50  3.3231E-002  
  443.00  3.4917E-002  
  443.50  3.6602E-002  
  444.00  3.8449E-002  
  444.50  4.0419E-002  
  445.00  4.2489E-002  
  445.50  4.4482E-002  
  446.00  4.6486E-002  
  446.50  4.8439E-002  
  447.00  5.0539E-002  
  447.50  5.2701E-002  
  448.00  5.4758E-002  
  448.50  5.6776E-002  
  449.00  5.8708E-002  
  449.50  6.0669E-002  
  450.00  6.2594E-002  
  450.50  6.4294E-002  
  451.00  6.5828E-002  
  451.50  6.7008E-002  
  452.00  6.8137E-002  
  452.50  6.8983E-002  
  453.00  6.9579E-002  
  453.50  6.9989E-002  
  454.00  7.0077E-002  
  454.50  7.0093E-002  
  455.00  6.9883E-002  
  455.50  6.9237E-002  
  456.00  6.8339E-002  
  456.50  6.7367E-002  
  457.00  6.6305E-002  
  457.50  6.5283E-002  
  458.00  6.4005E-002  
  458.50  6.2453E-002  
  459.00  6.0840E-002  
  459.50  5.9140E-002  
  460.00  5.7516E-002  
  460.50  5.6011E-002  
  461.00  5.4545E-002  
  461.50  5.2998E-002  
  462.00  5.1503E-002  
  462.50  5.0044E-002  
  463.00  4.8631E-002  
  463.50  4.7247E-002  
  464.00  4.5942E-002  
  464.50  4.4732E-002  
  465.00  4.3687E-002  
  465.50  4.2758E-002  
  466.00  4.1686E-002  
  466.50  4.0660E-002  
  467.00  3.9642E-002  
  467.50  3.8813E-002  
  468.00  3.8078E-002  
  468.50  3.7408E-002  
  469.00  3.6739E-002  
  469.50  3.6104E-002  
  470.00  3.5457E-002  
  470.50  3.4910E-002  
  471.00  3.4334E-002  
  471.50  3.3744E-002  
  472.00  3.3094E-002  
  472.50  3.2493E-002  
  473.00  3.1984E-002  
  473.50  3.1539E-002  
  474.00  3.0978E-002  
  474.50  3.0369E-002  
  475.00  2.9699E-002  
  475.50  2.9148E-002  
  476.00  2.8578E-002  
  476.50  2.8087E-002  
  477.00  2.7630E-002  
  477.50  2.7197E-002  
  478.00  2.6691E-002  
  478.50  2.6153E-002  
  479.00  2.5669E-002  
  479.50  2.5341E-002  
  480.00  2.5163E-002  
  480.50  2.4962E-002  
  481.00  2.4730E-002  
  481.50  2.4426E-002  
  482.00  2.4173E-002  
  482.50  2.3891E-002  
  483.00  2.3565E-002  
  483.50  2.3292E-002  
  484.00  2.3095E-002  
  484.50  2.2996E-002  
  485.00  2.2914E-002  
  485.50  2.2833E-002  
  486.00  2.2735E-002  
  486.50  2.2687E-002  
  487.00  2.2580E-002  
  487.50  2.2487E-002  
  488.00  2.2462E-002  
  488.50  2.2532E-002  
  489.00  2.2720E-002  
  489.50  2.2894E-002  
  490.00  2.2992E-002  
  490.50  2.3018E-002  
  491.00  2.3066E-002  
  491.50  2.3123E-002  
  492.00  2.3302E-002  
  492.50  2.3490E-002  
  493.00  2.3753E-002  
  493.50  2.4049E-002  
  494.00  2.4312E-002  
  494.50  2.4565E-002  
  495.00  2.4793E-002  
  495.50  2.5075E-002  
  496.00  2.5450E-002  
  496.50  2.5892E-002  
  497.00  2.6407E-002  
  497.50  2.6923E-002  
  498.00  2.7410E-002  
  498.50  2.7860E-002  
  499.00  2.8370E-002  
  499.50  2.8938E-002  
  500.00  2.9586E-002  
  500.50  3.0159E-002  
  501.00  3.0739E-002  
  501.50  3.1354E-002  
  502.00  3.2086E-002  
  502.50  3.2816E-002  
  503.00  3.3521E-002  
  503.50  3.4224E-002  
  504.00  3.5004E-002  
  504.50  3.5844E-002  
  505.00  3.6738E-002  
  505.50  3.7541E-002  
  506.00  3.8328E-002  
  506.50  3.9012E-002  
  507.00  3.9779E-002  
  507.50  4.0619E-002  
  508.00  4.1506E-002  
  508.50  4.2382E-002  
  509.00  4.3267E-002  
  509.50  4.4149E-002  
  510.00  4.5103E-002  
  510.50  4.6063E-002  
  511.00  4.7008E-002  
  511.50  4.7928E-002  
  512.00  4.8886E-002  
  512.50  4.9847E-002  
  513.00  5.0869E-002  
  513.50  5.1805E-002  
  514.00  5.2650E-002  
  514.50  5.3462E-002  
  515.00  5.4324E-002  
  515.50  5.5314E-002  
  516.00  5.6344E-002  
  516.50  5.7338E-002  
  517.00  5.8313E-002  
  517.50  5.9260E-002  
  518.00  6.0182E-002  
  518.50  6.1142E-002  
  519.00  6.2116E-002  
  519.50  6.3062E-002  
  520.00  6.3964E-002  
  520.50  6.4790E-002  
  521.00  6.5659E-002  
  521.50  6.6580E-002  
  522.00  6.7485E-002  
  522.50  6.8428E-002  
  523.00  6.9346E-002  
  523.50  7.0323E-002  
  524.00  7.1303E-002  
  524.50  7.2215E-002  
  525.00  7.2996E-002  
  525.50  7.3710E-002  
  526.00  7.4450E-002  
  526.50  7.5325E-002  
  527.00  7.6174E-002  
  527.50  7.7009E-002  
  528.00  7.7825E-002  
  528.50  7.8683E-002  
  529.00  7.9485E-002  
  529.50  8.0138E-002  
  530.00  8.0777E-002  
  530.50  8.1499E-002  
  531.00  8.2391E-002  
  531.50  8.3207E-002  
  532.00  8.3925E-002  
  532.50  8.4624E-002  
  533.00  8.5277E-002  
  533.50  8.6101E-002  
  534.00  8.6799E-002  
  534.50  8.7545E-002  
  535.00  8.8167E-002  
  535.50  8.8806E-002  
  536.00  8.9400E-002  
  536.50  8.9947E-002  
  537.00  9.0639E-002  
  537.50  9.1432E-002  
  538.00  9.2264E-002  
  538.50  9.3018E-002  
  539.00  9.3707E-002  
  539.50  9.4382E-002  
  540.00  9.5091E-002  
  540.50  9.5774E-002  
  541.00  9.6401E-002  
  541.50  9.7084E-002  
  542.00  9.7680E-002  
  542.50  9.8276E-002  
  543.00  9.8890E-002  
  543.50  9.9555E-002  
  544.00  1.0023E-001  
  544.50  1.0079E-001  
  545.00  1.0134E-001  
  545.50  1.0197E-001  
  546.00  1.0264E-001  
  546.50  1.0327E-001  
  547.00  1.0377E-001  
  547.50  1.0431E-001  
  548.00  1.0502E-001  
  548.50  1.0581E-001  
  549.00  1.0659E-001  
  549.50  1.0725E-001  
  550.00  1.0778E-001  
  550.50  1.0836E-001  
  551.00  1.0905E-001  
  551.50  1.0975E-001  
  552.00  1.1036E-001  
  552.50  1.1097E-001  
  553.00  1.1165E-001  
  553.50  1.1230E-001  
  554.00  1.1287E-001  
  554.50  1.1336E-001  
  555.00  1.1397E-001  
  555.50  1.1477E-001  
  556.00  1.1567E-001  
  556.50  1.1641E-001  
  557.00  1.1708E-001  
  557.50  1.1769E-001  
  558.00  1.1827E-001  
  558.50  1.1896E-001  
  559.00  1.1968E-001  
  559.50  1.2046E-001  
  560.00  1.2122E-001  
  560.50  1.2181E-001  
  561.00  1.2234E-001  
  561.50  1.2285E-001  
  562.00  1.2348E-001  
  562.50  1.2413E-001  
  563.00  1.2481E-001  
  563.50  1.2547E-001  
  564.00  1.2611E-001  
  564.50  1.2669E-001  
  565.00  1.2727E-001  
  565.50  1.2788E-001  
  566.00  1.2859E-001  
  566.50  1.2932E-001  
  567.00  1.2991E-001  
  567.50  1.3037E-001  
  568.00  1.3082E-001  
  568.50  1.3139E-001  
  569.00  1.3208E-001  
  569.50  1.3266E-001  
  570.00  1.3323E-001  
  570.50  1.3381E-001  
  571.00  1.3444E-001  
  571.50  1.3512E-001  
  572.00  1.3568E-001  
  572.50  1.3619E-001  
  573.00  1.3673E-001  
  573.50  1.3730E-001  
  574.00  1.3800E-001  
  574.50  1.3863E-001  
  575.00  1.3925E-001  
  575.50  1.3979E-001  
  576.00  1.4038E-001  
  576.50  1.4100E-001  
  577.00  1.4161E-001  
  577.50  1.4214E-001  
  578.00  1.4265E-001  
  578.50  1.4314E-001  
  579.00  1.4373E-001  
  579.50  1.4429E-001  
  580.00  1.4480E-001  
  580.50  1.4516E-001  
  581.00  1.4554E-001  
  581.50  1.4595E-001  
  582.00  1.4643E-001  
  582.50  1.4695E-001  
  583.00  1.4742E-001  
  583.50  1.4805E-001  
  584.00  1.4860E-001  
  584.50  1.4916E-001  
  585.00  1.4948E-001  
  585.50  1.4987E-001  
  586.00  1.5029E-001  
  586.50  1.5086E-001  
  587.00  1.5139E-001  
  587.50  1.5181E-001  
  588.00  1.5216E-001  
  588.50  1.5242E-001  
  589.00  1.5276E-001  
  589.50  1.5315E-001  
  590.00  1.5369E-001  
  590.50  1.5415E-001  
  591.00  1.5451E-001  
  591.50  1.5477E-001  
  592.00  1.5494E-001  
  592.50  1.5515E-001  
  593.00  1.5540E-001  
  593.50  1.5566E-001  
  594.00  1.5611E-001  
  594.50  1.5652E-001  
  595.00  1.5694E-001  
  595.50  1.5706E-001  
  596.00  1.5713E-001  
  596.50  1.5727E-001  
  597.00  1.5761E-001  
  597.50  1.5790E-001  
  598.00  1.5801E-001  
  598.50  1.5805E-001  
  599.00  1.5816E-001  
  599.50  1.5828E-001  
  600.00  1.5845E-001  
  600.50  1.5853E-001  
  601.00  1.5868E-001  
  601.50  1.5869E-001  
  602.00  1.5866E-001  
  602.50  1.5867E-001  
  603.00  1.5881E-001  
  603.50  1.5896E-001  
  604.00  1.5905E-001  
  604.50  1.5908E-001  
  605.00  1.5897E-001  
  605.50  1.5878E-001  
  606.00  1.5859E-001  
  606.50  1.5873E-001  
  607.00  1.5896E-001  
  607.50  1.5910E-001  
  608.00  1.5898E-001  
  608.50  1.5882E-001  
  609.00  1.5871E-001  
  609.50  1.5875E-001  
  610.00  1.5880E-001  
  610.50  1.5867E-001  
  611.00  1.5838E-001  
  611.50  1.5801E-001  
  612.00  1.5777E-001  
  612.50  1.5750E-001  
  613.00  1.5715E-001  
  613.50  1.5686E-001  
  614.00  1.5656E-001  
  614.50  1.5628E-001  
  615.00  1.5595E-001  
  615.50  1.5560E-001  
  616.00  1.5517E-001  
  616.50  1.5455E-001  
  617.00  1.5399E-001  
  617.50  1.5357E-001  
  618.00  1.5330E-001  
  618.50  1.5281E-001  
  619.00  1.5205E-001  
  619.50  1.5128E-001  
  620.00  1.5077E-001  
  620.50  1.5030E-001  
  621.00  1.4983E-001  
  621.50  1.4935E-001  
  622.00  1.4896E-001  
  622.50  1.4841E-001  
  623.00  1.4752E-001  
  623.50  1.4670E-001  
  624.00  1.4605E-001  
  624.50  1.4556E-001  
  625.00  1.4501E-001  
  625.50  1.4435E-001  
  626.00  1.4344E-001  
  626.50  1.4255E-001  
  627.00  1.4183E-001  
  627.50  1.4121E-001  
  628.00  1.4041E-001  
  628.50  1.3943E-001  
  629.00  1.3864E-001  
  629.50  1.3807E-001  
  630.00  1.3745E-001  
  630.50  1.3674E-001  
  631.00  1.3583E-001  
  631.50  1.3505E-001  
  632.00  1.3417E-001  
  632.50  1.3338E-001  
  633.00  1.3252E-001  
  633.50  1.3162E-001  
  634.00  1.3067E-001  
  634.50  1.2969E-001  
  635.00  1.2877E-001  
  635.50  1.2781E-001  
  636.00  1.2697E-001  
  636.50  1.2603E-001  
  637.00  1.2523E-001  
  637.50  1.2425E-001  
  638.00  1.2323E-001  
  638.50  1.2231E-001  
  639.00  1.2135E-001  
  639.50  1.2055E-001  
  640.00  1.1973E-001  
  640.50  1.1890E-001  
  641.00  1.1785E-001  
  641.50  1.1670E-001  
  642.00  1.1571E-001  
  642.50  1.1481E-001  
  643.00  1.1386E-001  
  643.50  1.1278E-001  
  644.00  1.1188E-001  
  644.50  1.1090E-001  
  645.00  1.1001E-001  
  645.50  1.0910E-001  
  646.00  1.0830E-001  
  646.50  1.0737E-001  
  647.00  1.0650E-001  
  647.50  1.0549E-001  
  648.00  1.0445E-001  
  648.50  1.0336E-001  
  649.00  1.0225E-001  
  649.50  1.0124E-001  
  650.00  1.0026E-001  
  650.50  9.9315E-002  
  651.00  9.8313E-002  
  651.50  9.7158E-002  
  652.00  9.6160E-002  
  652.50  9.5260E-002  
  653.00  9.4388E-002  
  653.50  9.3424E-002  
  654.00  9.2445E-002  
  654.50  9.1418E-002  
  655.00  9.0373E-002  
  655.50  8.9252E-002  
  656.00  8.8362E-002  
  656.50  8.7546E-002  
  657.00  8.6714E-002  
  657.50  8.5830E-002  
  658.00  8.5031E-002  
  658.50  8.4189E-002  
  659.00  8.3211E-002  
  659.50  8.2095E-002  
  660.00  8.1178E-002  
  660.50  8.0298E-002  
  661.00  7.9398E-002  
  661.50  7.8476E-002  
  662.00  7.7457E-002  
  662.50  7.6508E-002  
  663.00  7.5794E-002  
  663.50  7.5170E-002  
  664.00  7.4425E-002  
  664.50  7.3404E-002  
  665.00  7.2433E-002  
  665.50  7.1546E-002  
  666.00  7.0555E-002  
  666.50  6.9537E-002  
  667.00  6.8378E-002  
  667.50  6.7532E-002  
  668.00  6.6706E-002  
  668.50  6.6183E-002  
  669.00  6.5553E-002  
  669.50  6.4668E-002  
  670.00  6.3699E-002  
  670.50  6.2778E-002  
  671.00  6.2024E-002  
  671.50  6.1195E-002  
  672.00  6.0316E-002  
  672.50  5.9599E-002  
  673.00  5.8915E-002  
  673.50  5.8147E-002  
  674.00  5.7338E-002  
  674.50  5.6583E-002  
  675.00  5.5932E-002  
  675.50  5.5319E-002  
  676.00  5.4626E-002  
  676.50  5.3876E-002  
  677.00  5.3026E-002  
  677.50  5.2257E-002  
  678.00  5.1527E-002  
  678.50  5.0869E-002  
  679.00  5.0217E-002  
  679.50  4.9560E-002  
  680.00  4.9010E-002  
  680.50  4.8498E-002  
  681.00  4.7899E-002  
  681.50  4.7175E-002  
  682.00  4.6472E-002  
  682.50  4.5907E-002  
  683.00  4.5467E-002  
  683.50  4.4876E-002  
  684.00  4.4180E-002  
  684.50  4.3405E-002  
  685.00  4.2795E-002  
  685.50  4.2200E-002  
  686.00  4.1692E-002  
  686.50  4.1197E-002  
  687.00  4.0693E-002  
  687.50  4.0129E-002  
  688.00  3.9479E-002  
  688.50  3.8840E-002  
  689.00  3.8145E-002  
  689.50  3.7543E-002  
  690.00  3.7079E-002  
  690.50  3.6671E-002  
  691.00  3.6217E-002  
  691.50  3.5664E-002  
  692.00  3.5121E-002  
  692.50  3.4644E-002  
  693.00  3.4168E-002  
  693.50  3.3658E-002  
  694.00  3.3083E-002  
  694.50  3.2445E-002  
  695.00  3.1986E-002  
  695.50  3.1673E-002  
  696.00  3.1414E-002  
  696.50  3.1018E-002  
  697.00  3.0580E-002  
  697.50  3.0199E-002  
  698.00  2.9728E-002  
  698.50  2.9185E-002  
  699.00  2.8669E-002  
  699.50  2.8322E-002  
  700.00  2.7969E-002  
  700.50  2.7600E-002  
  701.00  2.7213E-002  
  701.50  2.6833E-002  
  702.00  2.6366E-002  
  702.50  2.5869E-002  
  703.00  2.5404E-002  
  703.50  2.5069E-002  
  704.00  2.4694E-002  
  704.50  2.4318E-002  
  705.00  2.3914E-002  
  705.50  2.3523E-002  
  706.00  2.3145E-002  
  706.50  2.2801E-002  
  707.00  2.2577E-002  
  707.50  2.2296E-002  
  708.00  2.1901E-002  
  708.50  2.1537E-002  
  709.00  2.1185E-002  
  709.50  2.0975E-002  
  710.00  2.0639E-002  
  710.50  2.0347E-002  
  711.00  2.0032E-002  
  711.50  1.9753E-002  
  712.00  1.9504E-002  
  712.50  1.9240E-002  
  713.00  1.8996E-002  
  713.50  1.8660E-002  
  714.00  1.8365E-002  
  714.50  1.8059E-002  
  715.00  1.7752E-002  
  715.50  1.7391E-002  
  716.00  1.7118E-002  
  716.50  1.6916E-002  
  717.00  1.6768E-002  
  717.50  1.6579E-002  
  718.00  1.6323E-002  
  718.50  1.6127E-002  
  719.00  1.6005E-002  
  719.50  1.5848E-002  
  720.00  1.5599E-002  
  720.50  1.5313E-002  
  721.00  1.4989E-002  
  721.50  1.4721E-002  
  722.00  1.4414E-002  
  722.50  1.4180E-002  
  723.00  1.4004E-002  
  723.50  1.3878E-002  
  724.00  1.3763E-002  
  724.50  1.3536E-002  
  725.00  1.3352E-002  
  725.50  1.3150E-002  
  726.00  1.2983E-002  
  726.50  1.2720E-002  
  727.00  1.2520E-002  
  727.50  1.2389E-002  
  728.00  1.2342E-002  
  728.50  1.2138E-002  
  729.00  1.1805E-002  
  729.50  1.1646E-002  
  730.00  1.1599E-002  
  730.50  1.1507E-002  
  731.00  1.1209E-002  
  731.50  1.0925E-002  
  732.00  1.0822E-002  
  732.50  1.0706E-002  
  733.00  1.0561E-002  
  733.50  1.0416E-002  
  734.00  1.0385E-002  
  734.50  1.0251E-002  
  735.00  9.9714E-003  
  735.50  9.6782E-003  
  736.00  9.5217E-003  
  736.50  9.3519E-003  
  737.00  9.1714E-003  
  737.50  9.0190E-003  
  738.00  8.8990E-003  
  738.50  8.7939E-003  
  739.00  8.7850E-003  
  739.50  8.8010E-003  
  740.00  8.7817E-003  
  740.50  8.7722E-003  
  741.00  8.6393E-003  
  741.50  8.3338E-003  
  742.00  8.0798E-003  
  742.50  7.9092E-003  
  743.00  7.7556E-003  
  743.50  7.5052E-003  
  744.00  7.3476E-003  
  744.50  7.1930E-003  
  745.00  7.1606E-003  
  745.50  7.0916E-003  
  746.00  7.0660E-003  
  746.50  7.0470E-003  
  747.00  7.0726E-003  
  747.50  6.9635E-003  
  748.00  6.7112E-003  
  748.50  6.5184E-003  
  749.00  6.4999E-003  
  749.50  6.5628E-003  
  750.00  6.5679E-003  
  750.50  6.4307E-003  
  751.00  6.3928E-003  
  751.50  6.3162E-003  
  752.00  6.1279E-003  
  752.50  5.9131E-003  
  753.00  5.7819E-003  
  753.50  5.6973E-003  
  754.00  5.7115E-003  
  754.50  5.7438E-003  
  755.00  5.7300E-003  
  755.50  5.5310E-003  
  756.00  5.4103E-003  
  756.50  5.4188E-003  
  757.00  5.4535E-003  
  757.50  5.4300E-003  
  758.00  5.3330E-003  
  758.50  5.1592E-003  
  759.00  4.9451E-003  
  759.50  4.7996E-003  
  760.00  4.6832E-003  
  760.50  4.5900E-003  
  761.00  4.6228E-003  
  761.50  4.7894E-003  
  762.00  4.7549E-003  
  762.50  4.4938E-003  
  763.00  4.3020E-003  
  763.50  4.2965E-003  
  764.00  4.2821E-003  
  764.50  4.1347E-003  
  765.00  4.1843E-003  
  765.50  4.2419E-003  
  766.00  4.2581E-003  
  766.50  4.0816E-003  
  767.00  3.8553E-003  
  767.50  3.5529E-003  
  768.00  3.4441E-003  
  768.50  3.4145E-003  
  769.00  3.4397E-003  
  769.50  3.3657E-003  
  770.00  3.2908E-003  
  770.50  3.2461E-003  
  771.00  3.2943E-003  
  771.50  3.4493E-003  
  772.00  3.3937E-003  
  772.50  3.2332E-003  
  773.00  3.2336E-003  
  773.50  3.3386E-003  
  774.00  3.3879E-003  
  774.50  3.2389E-003  
  775.00  3.0030E-003  
  775.50  2.9211E-003  
  776.00  2.9539E-003  
  776.50  3.0073E-003  
  777.00  2.9697E-003  
  777.50  2.8538E-003  
  778.00  2.6961E-003  
  778.50  2.7197E-003  
  779.00  2.8271E-003  
  779.50  2.7931E-003  
  780.00  2.7287E-003  
  780.50  2.6299E-003  
  781.00  2.5858E-003  
  781.50  2.5899E-003  
  782.00  2.7100E-003  
  782.50  2.7460E-003  
  783.00  2.5025E-003  
  783.50  2.2631E-003  
  784.00  2.1535E-003  
  784.50  2.2221E-003  
  785.00  2.3369E-003  
  785.50  2.2829E-003  
  786.00  2.0943E-003  
  786.50  2.0592E-003  
  787.00  2.2388E-003  
  787.50  2.4105E-003  
  788.00  2.2046E-003  
  788.50  1.9729E-003  
  789.00  1.8878E-003  
  789.50  1.9338E-003  
  790.00  1.9323E-003  
  790.50  1.8868E-003  
  791.00  1.9523E-003  
  791.50  2.0877E-003  
  792.00  2.1122E-003  
  792.50  1.9072E-003  
  793.00  1.8675E-003  
  793.50  1.6849E-003  
  794.00  1.9383E-003  
  794.50  1.9935E-003  
  795.00  2.0469E-003  
  795.50  1.7893E-003  
  796.00  1.7885E-003  
  796.50  1.6903E-003  
  797.00  1.5641E-003  
  797.50  1.4978E-003  
  798.00  1.6064E-003  
  798.50  1.6741E-003  
  799.00  1.6764E-003  
  799.50  1.5947E-003  
  800.00  1.6555E-003  
  800.50  1.7816E-003  
  801.00  1.9246E-003  
  801.50  1.8307E-003  
  802.00  1.6259E-003  
  802.50  1.4659E-003  
  803.00  1.5155E-003  
  803.50  1.5816E-003  
  804.00  1.6622E-003  
  804.50  1.7632E-003  
  805.00  1.7805E-003  
  805.50  1.7122E-003  
  806.00  1.4872E-003  
  806.50  1.2671E-003  
  807.00  1.3045E-003  
  807.50  1.2628E-003  
  808.00  1.0168E-003  
  808.50  9.8538E-004  
  809.00  1.4023E-003  
  809.50  1.4606E-003  
  810.00  1.1590E-003  
  810.50  8.7488E-004  
  811.00  9.1987E-004  
  811.50  1.1259E-003  
  812.00  1.3451E-003  
  812.50  1.3658E-003  
  813.00  1.2786E-003  
  813.50  1.1893E-003  
  814.00  1.0090E-003  
  814.50  9.1810E-004  
  815.00  1.1313E-003  
  815.50  1.1032E-003  
  816.00  1.0926E-003  
  816.50  1.1751E-003  
  817.00  1.3243E-003  
  817.50  1.2530E-003  
  818.00  1.2016E-003  
  818.50  1.1280E-003  
  819.00  1.0058E-003  
  819.50  1.1257E-003  
  820.00  1.0589E-003  
  820.50  8.7294E-004  
  821.00  8.8572E-004  
  821.50  7.4468E-004  
  822.00  8.4185E-004  
  822.50  1.1790E-003  
  823.00  1.4320E-003  
  823.50  1.3909E-003  
  824.00  1.0830E-003  
  824.50  6.3903E-004  
  825.00  7.5210E-004  
  825.50  9.5393E-004  
  826.00  8.9354E-004  
  826.50  5.3572E-004  
  827.00  4.9666E-004  
  827.50  7.1262E-004  
  828.00  8.5245E-004  
  828.50  1.0659E-003  
  829.00  1.2479E-003  
  829.50  9.3226E-004  
  830.00  6.0788E-004  
  830.50  4.7222E-004  
  831.00  5.9878E-004  
  831.50  5.6448E-004  
  832.00  5.5784E-004  
  832.50  6.2259E-004  
  833.00  5.7603E-004  
  833.50  5.1145E-004  
  834.00  8.5028E-004  
  834.50  1.1171E-003  
  835.00  1.1848E-003  
  835.50  9.7722E-004  
  836.00  6.9599E-004  
  836.50  2.8473E-004  
  837.00  2.9684E-004  
  837.50  3.1710E-004  
  838.00  3.4844E-006  
  838.50  8.2138E-007  
  839.00  3.9919E-004  
  839.50  9.3792E-004  
  840.00  6.5149E-004  
  840.50  7.1872E-004  
  841.00  7.8967E-004  
  841.50  8.2970E-004  
  842.00  5.5773E-004  
  842.50  2.2262E-004  
  843.00  5.1207E-004  
  843.50  9.5340E-004  
  844.00  1.1022E-003  
  844.50  1.0253E-003  
  845.00  1.0136E-003  
  845.50  8.6923E-004  
  846.00  1.0913E-003  
  846.50  1.2618E-003  
  847.00  1.0704E-003  
  847.50  8.4812E-004  
  848.00  9.7638E-004  
  848.50  1.0457E-003  
  849.00  8.3919E-004  
  849.50  4.0528E-004  
  850.00  9.0218E-006  
  850.50  3.5597E-004  
  851.00  7.7084E-004  
  851.50  1.1978E-003  
  852.00  1.0552E-003  
  852.50  6.8002E-004  
  853.00  7.3278E-004  
  853.50  5.8909E-004  
  854.00  8.2276E-004  
  854.50  8.3034E-004  
  855.00  6.6731E-004  
  855.50  9.5245E-004  
  856.00  1.5142E-003  
  856.50  1.3240E-003  
  857.00  8.7464E-004  
  857.50  6.3512E-004  
  858.00  7.1302E-004  
  858.50  3.3336E-004  
  859.00  6.8997E-004  
  859.50  1.0399E-003  
  860.00  8.5445E-004  
  860.50  2.0097E-004  
  861.00  2.8386E-006  
  861.50  0.0000E+000  
  862.00  0.0000E+000  
  862.50  5.4038E-004  
  863.00  1.2535E-003  
  863.50  1.5764E-003  
  864.00  9.5646E-004  
  864.50  6.4142E-004  
  865.00  1.1353E-003  
  865.50  1.2152E-003  
  866.00  8.9862E-004  
  866.50  4.2658E-004  
  867.00  2.7685E-004  
  867.50  4.5857E-004  
  868.00  9.3063E-004  
  868.50  8.6016E-004  
  869.00  1.0845E-003  
  869.50  1.1360E-003  
  870.00  9.3667E-004  
  870.50  6.7744E-004  
  871.00  8.6962E-004  
  871.50  1.2584E-003  
  872.00  1.0037E-003  
  872.50  3.3857E-004  
  873.00  0.0000E+000  
  873.50  0.0000E+000  
  874.00  0.0000E+000  
  874.50  0.0000E+000  
  875.00  0.0000E+000  
  875.50  0.0000E+000  
  876.00  0.0000E+000  
  876.50  5.3910E-004  
  877.00  1.6685E-003  
  877.50  1.6079E-003  
  878.00  6.7357E-004  
  878.50  7.9284E-004  
  879.00  1.4370E-003  
  879.50  1.4925E-003  
  880.00  1.2721E-003  
  880.50  9.3976E-004  
  881.00  4.2111E-004  
  881.50  3.6640E-004  
  882.00  1.1202E-003  
  882.50  1.4817E-003  
  883.00  1.6994E-003  
  883.50  1.4557E-003  
  884.00  1.3379E-003  
  884.50  9.0933E-004  
  885.00  1.0701E-003  
  885.50  1.2054E-003  
  886.00  1.2909E-003  
  886.50  1.8292E-003  
  887.00  2.9383E-003  
  887.50  2.4107E-003  
  888.00  2.0868E-003  
  888.50  1.9754E-003  
  889.00  2.1020E-003  
  889.50  2.2108E-003  
  890.00  2.3095E-003  
  890.50  1.4199E-003  
  891.00  6.1525E-004  
  891.50  5.4953E-004  
  892.00  5.1934E-005  
  892.50  6.4263E-007  
  893.00  3.5973E-004  
  893.50  2.5871E-004  
  894.00  7.8457E-005  
  894.50  1.1843E-003  
  895.00  2.2694E-003  
  895.50  2.3357E-003  
  896.00  1.6255E-003  
  896.50  8.3145E-004  
  897.00  9.6281E-004  
  897.50  2.0238E-003  
  898.00  2.5264E-003  
  898.50  2.3218E-003  
  899.00  1.8787E-003  
  899.50  3.6532E-005  
