
# From lspdd.org
# 
# Name: HM - Venture Extérieur
# Indice spectral Valeur 
# MSI 0.59 
# SLI 0.58 
# IPI 0.62 
# Pourcentage de bleu 31.7 
# Caractéristique Valeur 
# CCT calculée (K) 4499 
# CCT du fabricant (K) 4700 
# Tension (V) 0 
# Puissance (W) 400.0 
# Efficacité lumineuse (Lum/W) ND 
#
# Image: '/app/system/img_1s/2481/medium_image1.jpg?1413485862'
# 

  273.00  0.0000E+000  
  273.50  0.0000E+000  
  274.00  0.0000E+000  
  274.50  0.0000E+000  
  275.00  0.0000E+000  
  275.50  0.0000E+000  
  276.00  0.0000E+000  
  276.50  0.0000E+000  
  277.00  0.0000E+000  
  277.50  0.0000E+000  
  278.00  0.0000E+000  
  278.50  0.0000E+000  
  279.00  0.0000E+000  
  279.50  0.0000E+000  
  280.00  0.0000E+000  
  280.50  0.0000E+000  
  281.00  0.0000E+000  
  281.50  0.0000E+000  
  282.00  0.0000E+000  
  282.50  0.0000E+000  
  283.00  0.0000E+000  
  283.50  0.0000E+000  
  284.00  0.0000E+000  
  284.50  0.0000E+000  
  285.00  0.0000E+000  
  285.50  0.0000E+000  
  286.00  0.0000E+000  
  286.50  0.0000E+000  
  287.00  0.0000E+000  
  287.50  0.0000E+000  
  288.00  0.0000E+000  
  288.50  0.0000E+000  
  289.00  0.0000E+000  
  289.50  0.0000E+000  
  290.00  0.0000E+000  
  290.50  0.0000E+000  
  291.00  0.0000E+000  
  291.50  0.0000E+000  
  292.00  0.0000E+000  
  292.50  0.0000E+000  
  293.00  0.0000E+000  
  293.50  0.0000E+000  
  294.00  0.0000E+000  
  294.50  0.0000E+000  
  295.00  0.0000E+000  
  295.50  0.0000E+000  
  296.00  0.0000E+000  
  296.50  0.0000E+000  
  297.00  0.0000E+000  
  297.50  0.0000E+000  
  298.00  0.0000E+000  
  298.50  0.0000E+000  
  299.00  0.0000E+000  
  299.50  0.0000E+000  
  300.00  4.9807E-005  
  300.50  1.7987E-004  
  301.00  2.1488E-004  
  301.50  2.2710E-004  
  302.00  1.7107E-004  
  302.50  1.1737E-004  
  303.00  8.5130E-005  
  303.50  4.7644E-005  
  304.00  5.8411E-005  
  304.50  0.0000E+000  
  305.00  2.1769E-006  
  305.50  6.4674E-006  
  306.00  5.1638E-005  
  306.50  1.6958E-004  
  307.00  1.9179E-004  
  307.50  1.3850E-004  
  308.00  6.3845E-005  
  308.50  0.0000E+000  
  309.00  0.0000E+000  
  309.50  0.0000E+000  
  310.00  0.0000E+000  
  310.50  0.0000E+000  
  311.00  6.0419E-006  
  311.50  6.0033E-005  
  312.00  8.4927E-005  
  312.50  6.4350E-005  
  313.00  2.1065E-005  
  313.50  2.3987E-005  
  314.00  6.8951E-005  
  314.50  7.4888E-005  
  315.00  8.3312E-005  
  315.50  4.8259E-005  
  316.00  1.3308E-005  
  316.50  2.1261E-006  
  317.00  0.0000E+000  
  317.50  0.0000E+000  
  318.00  0.0000E+000  
  318.50  0.0000E+000  
  319.00  1.8896E-005  
  319.50  4.6215E-005  
  320.00  5.6515E-005  
  320.50  8.2901E-005  
  321.00  9.1610E-005  
  321.50  4.1151E-005  
  322.00  1.6121E-005  
  322.50  0.0000E+000  
  323.00  0.0000E+000  
  323.50  0.0000E+000  
  324.00  1.8706E-006  
  324.50  3.2156E-005  
  325.00  9.4034E-005  
  325.50  8.8515E-005  
  326.00  9.9406E-005  
  326.50  8.9183E-005  
  327.00  8.2177E-005  
  327.50  1.0832E-004  
  328.00  5.3650E-005  
  328.50  5.7499E-005  
  329.00  7.1794E-005  
  329.50  5.3966E-005  
  330.00  5.5638E-005  
  330.50  2.7906E-005  
  331.00  2.1065E-006  
  331.50  0.0000E+000  
  332.00  0.0000E+000  
  332.50  9.6902E-006  
  333.00  5.4079E-005  
  333.50  6.7991E-005  
  334.00  4.3610E-005  
  334.50  6.0297E-005  
  335.00  9.1699E-005  
  335.50  1.3780E-004  
  336.00  1.6324E-004  
  336.50  1.3369E-004  
  337.00  1.0252E-004  
  337.50  3.5065E-005  
  338.00  0.0000E+000  
  338.50  0.0000E+000  
  339.00  0.0000E+000  
  339.50  2.4446E-005  
  340.00  6.5658E-005  
  340.50  5.2227E-005  
  341.00  1.1940E-005  
  341.50  2.7705E-006  
  342.00  0.0000E+000  
  342.50  4.0396E-006  
  343.00  5.1803E-006  
  343.50  0.0000E+000  
  344.00  2.0973E-005  
  344.50  4.1445E-005  
  345.00  6.5817E-005  
  345.50  8.1126E-005  
  346.00  2.9982E-005  
  346.50  4.7572E-007  
  347.00  4.2727E-005  
  347.50  9.3788E-005  
  348.00  1.6702E-004  
  348.50  1.7265E-004  
  349.00  1.4367E-004  
  349.50  1.4754E-004  
  350.00  1.6353E-004  
  350.50  1.5066E-004  
  351.00  1.1297E-004  
  351.50  9.2356E-005  
  352.00  8.3730E-005  
  352.50  1.1222E-004  
  353.00  1.6585E-004  
  353.50  2.2973E-004  
  354.00  3.1193E-004  
  354.50  3.7660E-004  
  355.00  4.3161E-004  
  355.50  4.7059E-004  
  356.00  5.3332E-004  
  356.50  5.9742E-004  
  357.00  6.4233E-004  
  357.50  6.2731E-004  
  358.00  5.6136E-004  
  358.50  5.0592E-004  
  359.00  4.7486E-004  
  359.50  4.9439E-004  
  360.00  4.8584E-004  
  360.50  4.8759E-004  
  361.00  5.3810E-004  
  361.50  6.1166E-004  
  362.00  7.0436E-004  
  362.50  8.2630E-004  
  363.00  1.1131E-003  
  363.50  1.7608E-003  
  364.00  2.7949E-003  
  364.50  3.8265E-003  
  365.00  4.3201E-003  
  365.50  4.0889E-003  
  366.00  3.2029E-003  
  366.50  2.2322E-003  
  367.00  1.4583E-003  
  367.50  1.0123E-003  
  368.00  7.0294E-004  
  368.50  5.7142E-004  
  369.00  5.6766E-004  
  369.50  5.5713E-004  
  370.00  5.6477E-004  
  370.50  5.3374E-004  
  371.00  4.8612E-004  
  371.50  5.1785E-004  
  372.00  5.7124E-004  
  372.50  5.6712E-004  
  373.00  5.2422E-004  
  373.50  4.4857E-004  
  374.00  4.4798E-004  
  374.50  4.2269E-004  
  375.00  4.3013E-004  
  375.50  4.3589E-004  
  376.00  4.2878E-004  
  376.50  4.8835E-004  
  377.00  5.1848E-004  
  377.50  5.1426E-004  
  378.00  5.4578E-004  
  378.50  5.4251E-004  
  379.00  5.3845E-004  
  379.50  4.9807E-004  
  380.00  4.4679E-004  
  380.50  3.8931E-004  
  381.00  4.0936E-004  
  381.50  4.7460E-004  
  382.00  5.5347E-004  
  382.50  6.5935E-004  
  383.00  6.8286E-004  
  383.50  6.7242E-004  
  384.00  6.4111E-004  
  384.50  6.1071E-004  
  385.00  6.1569E-004  
  385.50  6.2520E-004  
  386.00  6.5682E-004  
  386.50  6.9013E-004  
  387.00  7.5494E-004  
  387.50  7.7340E-004  
  388.00  7.7600E-004  
  388.50  7.8936E-004  
  389.00  8.6725E-004  
  389.50  1.1586E-003  
  390.00  1.5782E-003  
  390.50  1.9624E-003  
  391.00  2.0304E-003  
  391.50  1.8483E-003  
  392.00  1.5394E-003  
  392.50  1.3158E-003  
  393.00  1.2253E-003  
  393.50  1.1985E-003  
  394.00  1.1494E-003  
  394.50  1.0584E-003  
  395.00  1.0275E-003  
  395.50  1.0079E-003  
  396.00  9.8754E-004  
  396.50  9.5523E-004  
  397.00  8.9396E-004  
  397.50  8.3661E-004  
  398.00  9.1155E-004  
  398.50  1.0228E-003  
  399.00  1.1628E-003  
  399.50  1.2811E-003  
  400.00  1.3592E-003  
  400.50  1.5874E-003  
  401.00  2.0455E-003  
  401.50  2.5608E-003  
  402.00  2.9375E-003  
  402.50  3.0188E-003  
  403.00  3.3349E-003  
  403.50  4.1502E-003  
  404.00  5.1691E-003  
  404.50  5.6098E-003  
  405.00  5.1172E-003  
  405.50  3.7859E-003  
  406.00  2.5936E-003  
  406.50  2.0614E-003  
  407.00  2.0994E-003  
  407.50  2.3031E-003  
  408.00  2.3235E-003  
  408.50  2.0670E-003  
  409.00  1.6891E-003  
  409.50  1.3981E-003  
  410.00  1.2177E-003  
  410.50  1.0960E-003  
  411.00  1.0114E-003  
  411.50  9.8131E-004  
  412.00  1.0135E-003  
  412.50  1.1442E-003  
  413.00  1.2853E-003  
  413.50  1.3603E-003  
  414.00  1.3824E-003  
  414.50  1.4045E-003  
  415.00  1.4584E-003  
  415.50  1.5326E-003  
  416.00  1.5456E-003  
  416.50  1.4671E-003  
  417.00  1.3625E-003  
  417.50  1.2593E-003  
  418.00  1.1580E-003  
  418.50  1.0984E-003  
  419.00  1.0392E-003  
  419.50  9.8056E-004  
  420.00  9.8789E-004  
  420.50  1.0629E-003  
  421.00  1.1533E-003  
  421.50  1.1999E-003  
  422.00  1.2750E-003  
  422.50  1.3992E-003  
  423.00  1.7047E-003  
  423.50  2.1538E-003  
  424.00  2.5120E-003  
  424.50  2.6126E-003  
  425.00  2.3806E-003  
  425.50  1.9615E-003  
  426.00  1.5727E-003  
  426.50  1.3539E-003  
  427.00  1.2992E-003  
  427.50  1.3197E-003  
  428.00  1.3352E-003  
  428.50  1.3614E-003  
  429.00  1.3892E-003  
  429.50  1.4801E-003  
  430.00  1.7231E-003  
  430.50  2.1736E-003  
  431.00  2.6530E-003  
  431.50  2.9652E-003  
  432.00  2.9387E-003  
  432.50  2.7077E-003  
  433.00  2.5543E-003  
  433.50  2.8849E-003  
  434.00  4.2477E-003  
  434.50  7.0313E-003  
  435.00  1.0326E-002  
  435.50  1.2369E-002  
  436.00  1.1726E-002  
  436.50  9.1803E-003  
  437.00  6.1913E-003  
  437.50  4.1002E-003  
  438.00  3.1033E-003  
  438.50  2.6650E-003  
  439.00  2.5009E-003  
  439.50  2.4563E-003  
  440.00  2.4548E-003  
  440.50  2.4617E-003  
  441.00  2.4321E-003  
  441.50  2.3774E-003  
  442.00  2.3187E-003  
  442.50  2.2242E-003  
  443.00  2.1221E-003  
  443.50  2.0037E-003  
  444.00  1.8773E-003  
  444.50  1.7636E-003  
  445.00  1.6253E-003  
  445.50  1.4831E-003  
  446.00  1.3151E-003  
  446.50  1.1940E-003  
  447.00  1.0733E-003  
  447.50  1.0070E-003  
  448.00  9.9585E-004  
  448.50  9.7199E-004  
  449.00  9.3079E-004  
  449.50  8.7762E-004  
  450.00  8.1680E-004  
  450.50  8.5568E-004  
  451.00  8.8171E-004  
  451.50  9.0124E-004  
  452.00  9.1167E-004  
  452.50  8.9688E-004  
  453.00  8.9761E-004  
  453.50  8.7005E-004  
  454.00  8.6943E-004  
  454.50  8.2926E-004  
  455.00  8.7251E-004  
  455.50  8.9805E-004  
  456.00  9.0278E-004  
  456.50  9.0467E-004  
  457.00  8.3384E-004  
  457.50  7.8207E-004  
  458.00  7.3931E-004  
  458.50  7.3261E-004  
  459.00  7.2899E-004  
  459.50  7.2376E-004  
  460.00  6.8314E-004  
  460.50  6.0339E-004  
  461.00  5.6139E-004  
  461.50  5.4126E-004  
  462.00  5.4137E-004  
  462.50  5.0985E-004  
  463.00  4.9475E-004  
  463.50  4.7225E-004  
  464.00  4.7191E-004  
  464.50  5.4386E-004  
  465.00  5.9107E-004  
  465.50  6.6729E-004  
  466.00  7.4838E-004  
  466.50  7.8453E-004  
  467.00  8.0882E-004  
  467.50  7.7792E-004  
  468.00  7.3998E-004  
  468.50  7.5728E-004  
  469.00  7.8860E-004  
  469.50  8.8316E-004  
  470.00  1.0016E-003  
  470.50  1.1340E-003  
  471.00  1.2544E-003  
  471.50  1.4810E-003  
  472.00  1.9849E-003  
  472.50  2.7830E-003  
  473.00  3.6576E-003  
  473.50  4.1672E-003  
  474.00  4.0839E-003  
  474.50  3.3320E-003  
  475.00  2.4067E-003  
  475.50  1.5897E-003  
  476.00  1.0907E-003  
  476.50  9.2664E-004  
  477.00  9.0749E-004  
  477.50  9.5593E-004  
  478.00  9.5438E-004  
  478.50  8.7459E-004  
  479.00  7.5028E-004  
  479.50  6.5287E-004  
  480.00  6.1528E-004  
  480.50  6.5637E-004  
  481.00  7.3330E-004  
  481.50  8.1439E-004  
  482.00  9.0913E-004  
  482.50  9.9331E-004  
  483.00  1.0856E-003  
  483.50  1.1033E-003  
  484.00  1.0677E-003  
  484.50  9.4993E-004  
  485.00  8.1987E-004  
  485.50  7.0464E-004  
  486.00  6.8821E-004  
  486.50  7.1871E-004  
  487.00  7.5157E-004  
  487.50  7.2571E-004  
  488.00  6.6361E-004  
  488.50  5.9767E-004  
  489.00  5.9405E-004  
  489.50  6.2528E-004  
  490.00  6.9262E-004  
  490.50  8.1359E-004  
  491.00  9.4823E-004  
  491.50  1.0357E-003  
  492.00  1.0025E-003  
  492.50  8.9576E-004  
  493.00  8.0148E-004  
  493.50  7.7451E-004  
  494.00  7.7787E-004  
  494.50  7.8626E-004  
  495.00  7.6208E-004  
  495.50  7.3553E-004  
  496.00  7.1733E-004  
  496.50  7.3929E-004  
  497.00  8.1351E-004  
  497.50  9.2737E-004  
  498.00  1.0147E-003  
  498.50  1.0024E-003  
  499.00  9.2537E-004  
  499.50  8.0384E-004  
  500.00  7.3797E-004  
  500.50  7.2560E-004  
  501.00  8.0269E-004  
  501.50  9.4030E-004  
  502.00  1.0586E-003  
  502.50  1.1270E-003  
  503.00  1.0600E-003  
  503.50  9.4625E-004  
  504.00  8.4060E-004  
  504.50  8.1838E-004  
  505.00  9.6583E-004  
  505.50  1.3066E-003  
  506.00  1.8964E-003  
  506.50  2.7533E-003  
  507.00  4.1086E-003  
  507.50  5.6565E-003  
  508.00  6.6475E-003  
  508.50  6.6053E-003  
  509.00  5.4076E-003  
  509.50  3.9011E-003  
  510.00  2.7302E-003  
  510.50  1.9983E-003  
  511.00  1.5404E-003  
  511.50  1.2222E-003  
  512.00  9.6633E-004  
  512.50  7.5053E-004  
  513.00  6.0906E-004  
  513.50  5.5038E-004  
  514.00  5.6092E-004  
  514.50  6.1388E-004  
  515.00  6.5060E-004  
  515.50  6.5104E-004  
  516.00  6.1135E-004  
  516.50  5.5919E-004  
  517.00  5.2852E-004  
  517.50  5.0578E-004  
  518.00  5.0652E-004  
  518.50  5.2180E-004  
  519.00  5.8404E-004  
  519.50  6.6659E-004  
  520.00  7.9312E-004  
  520.50  9.1889E-004  
  521.00  1.0049E-003  
  521.50  1.0103E-003  
  522.00  9.2570E-004  
  522.50  8.4297E-004  
  523.00  7.5721E-004  
  523.50  7.0032E-004  
  524.00  6.7055E-004  
  524.50  6.9987E-004  
  525.00  7.5563E-004  
  525.50  7.7883E-004  
  526.00  7.2831E-004  
  526.50  6.4347E-004  
  527.00  5.8406E-004  
  527.50  6.1204E-004  
  528.00  6.6628E-004  
  528.50  7.0838E-004  
  529.00  7.0425E-004  
  529.50  6.8782E-004  
  530.00  6.7416E-004  
  530.50  6.8697E-004  
  531.00  7.0547E-004  
  531.50  7.1888E-004  
  532.00  7.5614E-004  
  532.50  8.6365E-004  
  533.00  1.1280E-003  
  533.50  1.5900E-003  
  534.00  2.1707E-003  
  534.50  2.6045E-003  
  535.00  2.6868E-003  
  535.50  2.3370E-003  
  536.00  1.8133E-003  
  536.50  1.4143E-003  
  537.00  1.2478E-003  
  537.50  1.2503E-003  
  538.00  1.3251E-003  
  538.50  1.3985E-003  
  539.00  1.3903E-003  
  539.50  1.2779E-003  
  540.00  1.0913E-003  
  540.50  9.5179E-004  
  541.00  9.3272E-004  
  541.50  9.9120E-004  
  542.00  1.0681E-003  
  542.50  1.1765E-003  
  543.00  1.3342E-003  
  543.50  1.7461E-003  
  544.00  3.6105E-003  
  544.50  8.2381E-003  
  545.00  1.6150E-002  
  545.50  2.3662E-002  
  546.00  2.5308E-002  
  546.50  2.1121E-002  
  547.00  1.3841E-002  
  547.50  8.1195E-003  
  548.00  5.3546E-003  
  548.50  3.8574E-003  
  549.00  2.7469E-003  
  549.50  1.9583E-003  
  550.00  1.7680E-003  
  550.50  2.1257E-003  
  551.00  2.7217E-003  
  551.50  3.1279E-003  
  552.00  3.0682E-003  
  552.50  2.5608E-003  
  553.00  1.9166E-003  
  553.50  1.4445E-003  
  554.00  1.1867E-003  
  554.50  1.0877E-003  
  555.00  1.0128E-003  
  555.50  9.8563E-004  
  556.00  9.6571E-004  
  556.50  9.8067E-004  
  557.00  9.7693E-004  
  557.50  1.0158E-003  
  558.00  1.0748E-003  
  558.50  1.1188E-003  
  559.00  1.0913E-003  
  559.50  1.0081E-003  
  560.00  9.2529E-004  
  560.50  8.7984E-004  
  561.00  8.2456E-004  
  561.50  7.4331E-004  
  562.00  6.7173E-004  
  562.50  6.5538E-004  
  563.00  7.4034E-004  
  563.50  8.5092E-004  
  564.00  9.8194E-004  
  564.50  1.1172E-003  
  565.00  1.3441E-003  
  565.50  1.8588E-003  
  566.00  2.6982E-003  
  566.50  3.6887E-003  
  567.00  4.4654E-003  
  567.50  4.8926E-003  
  568.00  5.0560E-003  
  568.50  5.0471E-003  
  569.00  4.9410E-003  
  569.50  4.8764E-003  
  570.00  4.9063E-003  
  570.50  4.9341E-003  
  571.00  4.6568E-003  
  571.50  4.0134E-003  
  572.00  3.1168E-003  
  572.50  2.2292E-003  
  573.00  1.6135E-003  
  573.50  1.2998E-003  
  574.00  1.3106E-003  
  574.50  1.8879E-003  
  575.00  3.8264E-003  
  575.50  7.8301E-003  
  576.00  1.3101E-002  
  576.50  1.6840E-002  
  577.00  1.7578E-002  
  577.50  1.6493E-002  
  578.00  1.6264E-002  
  578.50  1.7134E-002  
  579.00  1.6472E-002  
  579.50  1.2923E-002  
  580.00  8.2122E-003  
  580.50  4.4708E-003  
  581.00  2.5381E-003  
  581.50  1.6171E-003  
  582.00  1.2162E-003  
  582.50  1.0063E-003  
  583.00  8.9250E-004  
  583.50  8.3233E-004  
  584.00  7.9771E-004  
  584.50  7.8761E-004  
  585.00  7.9216E-004  
  585.50  8.3475E-004  
  586.00  9.2412E-004  
  586.50  1.3001E-003  
  587.00  2.4789E-003  
  587.50  5.4220E-003  
  588.00  1.0432E-002  
  588.50  1.6177E-002  
  589.00  1.9671E-002  
  589.50  1.9504E-002  
  590.00  1.5737E-002  
  590.50  1.1059E-002  
  591.00  7.3268E-003  
  591.50  5.1007E-003  
  592.00  3.9150E-003  
  592.50  3.2532E-003  
  593.00  2.7622E-003  
  593.50  2.4162E-003  
  594.00  2.1567E-003  
  594.50  2.0008E-003  
  595.00  1.8967E-003  
  595.50  1.8341E-003  
  596.00  1.7845E-003  
  596.50  1.7521E-003  
  597.00  1.6547E-003  
  597.50  1.5622E-003  
  598.00  1.4986E-003  
  598.50  1.4991E-003  
  599.00  1.4583E-003  
  599.50  1.3328E-003  
  600.00  1.1656E-003  
  600.50  1.0728E-003  
  601.00  1.0459E-003  
  601.50  1.0758E-003  
  602.00  1.0906E-003  
  602.50  1.0955E-003  
  603.00  1.0619E-003  
  603.50  9.8953E-004  
  604.00  8.9932E-004  
  604.50  8.1762E-004  
  605.00  7.3642E-004  
  605.50  6.6538E-004  
  606.00  6.2953E-004  
  606.50  6.4611E-004  
  607.00  7.0520E-004  
  607.50  7.3937E-004  
  608.00  7.5843E-004  
  608.50  7.7046E-004  
  609.00  7.9062E-004  
  609.50  8.0266E-004  
  610.00  8.2470E-004  
  610.50  7.8168E-004  
  611.00  7.5106E-004  
  611.50  7.1932E-004  
  612.00  6.9783E-004  
  612.50  6.6440E-004  
  613.00  6.2461E-004  
  613.50  6.2827E-004  
  614.00  6.7691E-004  
  614.50  7.7321E-004  
  615.00  8.4880E-004  
  615.50  9.0397E-004  
  616.00  9.1705E-004  
  616.50  8.9834E-004  
  617.00  8.9659E-004  
  617.50  9.0059E-004  
  618.00  9.5554E-004  
  618.50  9.9673E-004  
  619.00  1.0860E-003  
  619.50  1.3271E-003  
  620.00  1.7461E-003  
  620.50  2.1486E-003  
  621.00  2.1649E-003  
  621.50  1.8248E-003  
  622.00  1.3697E-003  
  622.50  1.3081E-003  
  623.00  1.6653E-003  
  623.50  2.1344E-003  
  624.00  2.3392E-003  
  624.50  2.2309E-003  
  625.00  2.1136E-003  
  625.50  2.0095E-003  
  626.00  1.8448E-003  
  626.50  1.5273E-003  
  627.00  1.2444E-003  
  627.50  1.0759E-003  
  628.00  1.0112E-003  
  628.50  1.0321E-003  
  629.00  1.3134E-003  
  629.50  1.9160E-003  
  630.00  2.6342E-003  
  630.50  2.9018E-003  
  631.00  2.4497E-003  
  631.50  1.6208E-003  
  632.00  9.6757E-004  
  632.50  7.2401E-004  
  633.00  6.6666E-004  
  633.50  6.6530E-004  
  634.00  6.3878E-004  
  634.50  5.8639E-004  
  635.00  5.4664E-004  
  635.50  5.3803E-004  
  636.00  6.2516E-004  
  636.50  7.0985E-004  
  637.00  8.2932E-004  
  637.50  8.8505E-004  
  638.00  8.3424E-004  
  638.50  7.1915E-004  
  639.00  5.7720E-004  
  639.50  5.7690E-004  
  640.00  6.7503E-004  
  640.50  8.4790E-004  
  641.00  9.3332E-004  
  641.50  8.9221E-004  
  642.00  7.4832E-004  
  642.50  6.0320E-004  
  643.00  4.9219E-004  
  643.50  4.5311E-004  
  644.00  4.7257E-004  
  644.50  5.4864E-004  
  645.00  6.5122E-004  
  645.50  7.5787E-004  
  646.00  7.7439E-004  
  646.50  7.1328E-004  
  647.00  6.2675E-004  
  647.50  5.4130E-004  
  648.00  5.3521E-004  
  648.50  5.1116E-004  
  649.00  4.9262E-004  
  649.50  4.2704E-004  
  650.00  3.7916E-004  
  650.50  4.4119E-004  
  651.00  4.9507E-004  
  651.50  5.2821E-004  
  652.00  4.9247E-004  
  652.50  5.0769E-004  
  653.00  5.3907E-004  
  653.50  5.5381E-004  
  654.00  5.3204E-004  
  654.50  5.3389E-004  
  655.00  5.1005E-004  
  655.50  4.6366E-004  
  656.00  4.0056E-004  
  656.50  4.0534E-004  
  657.00  4.5394E-004  
  657.50  5.4816E-004  
  658.00  6.5662E-004  
  658.50  7.5189E-004  
  659.00  7.5891E-004  
  659.50  7.0372E-004  
  660.00  6.3643E-004  
  660.50  5.9691E-004  
  661.00  5.6236E-004  
  661.50  4.8543E-004  
  662.00  4.0516E-004  
  662.50  3.0388E-004  
  663.00  2.9332E-004  
  663.50  3.0823E-004  
  664.00  3.1478E-004  
  664.50  3.6197E-004  
  665.00  4.1169E-004  
  665.50  5.0836E-004  
  666.00  5.3074E-004  
  666.50  5.4001E-004  
  667.00  5.1161E-004  
  667.50  4.3904E-004  
  668.00  3.3447E-004  
  668.50  3.0908E-004  
  669.00  4.4467E-004  
  669.50  7.6308E-004  
  670.00  1.1160E-003  
  670.50  1.3238E-003  
  671.00  1.2711E-003  
  671.50  1.0290E-003  
  672.00  7.5392E-004  
  672.50  6.0096E-004  
  673.00  5.2075E-004  
  673.50  5.1776E-004  
  674.00  4.7559E-004  
  674.50  4.3437E-004  
  675.00  3.8767E-004  
  675.50  3.2840E-004  
  676.00  3.4479E-004  
  676.50  3.6490E-004  
  677.00  4.3288E-004  
  677.50  4.5919E-004  
  678.00  4.3120E-004  
  678.50  4.3045E-004  
  679.00  4.5402E-004  
  679.50  5.1905E-004  
  680.00  5.3126E-004  
  680.50  5.2688E-004  
  681.00  5.3357E-004  
  681.50  5.6675E-004  
  682.00  6.0675E-004  
  682.50  6.4635E-004  
  683.00  6.6651E-004  
  683.50  6.5817E-004  
  684.00  5.7776E-004  
  684.50  4.9295E-004  
  685.00  4.2475E-004  
  685.50  4.0616E-004  
  686.00  3.9729E-004  
  686.50  3.9430E-004  
  687.00  3.6596E-004  
  687.50  3.4033E-004  
  688.00  3.4940E-004  
  688.50  4.3511E-004  
  689.00  5.0073E-004  
  689.50  5.3972E-004  
  690.00  5.7972E-004  
  690.50  6.9924E-004  
  691.00  7.4552E-004  
  691.50  7.0169E-004  
  692.00  5.3248E-004  
  692.50  4.1952E-004  
  693.00  4.1682E-004  
  693.50  4.7149E-004  
  694.00  5.2984E-004  
  694.50  5.8165E-004  
  695.00  5.7438E-004  
  695.50  5.0780E-004  
  696.00  3.5993E-004  
  696.50  3.3686E-004  
  697.00  3.6762E-004  
  697.50  4.3138E-004  
  698.00  4.5883E-004  
  698.50  5.3906E-004  
  699.00  5.5717E-004  
  699.50  6.0753E-004  
  700.00  5.2987E-004  
  700.50  4.9520E-004  
  701.00  4.6086E-004  
  701.50  4.9796E-004  
  702.00  4.3856E-004  
  702.50  3.6228E-004  
  703.00  2.7280E-004  
  703.50  2.6877E-004  
  704.00  2.1310E-004  
  704.50  2.2401E-004  
  705.00  2.0052E-004  
  705.50  2.6260E-004  
  706.00  3.0459E-004  
  706.50  3.4290E-004  
  707.00  3.0345E-004  
  707.50  3.2213E-004  
  708.00  4.1406E-004  
  708.50  4.7683E-004  
  709.00  4.7125E-004  
  709.50  3.8218E-004  
  710.00  2.6263E-004  
  710.50  2.0431E-004  
  711.00  2.1845E-004  
  711.50  3.0408E-004  
  712.00  3.0505E-004  
  712.50  2.9713E-004  
  713.00  2.4122E-004  
  713.50  3.3325E-004  
  714.00  3.6266E-004  
  714.50  3.6262E-004  
  715.00  2.7571E-004  
  715.50  3.8004E-004  
  716.00  5.4279E-004  
  716.50  5.8288E-004  
  717.00  5.1408E-004  
  717.50  4.3030E-004  
  718.00  4.1152E-004  
  718.50  3.8000E-004  
  719.00  2.5466E-004  
  719.50  2.1698E-004  
  720.00  2.4958E-004  
  720.50  3.1408E-004  
  721.00  2.7457E-004  
  721.50  2.3637E-004  
  722.00  2.5823E-004  
  722.50  3.2871E-004  
  723.00  3.5155E-004  
  723.50  3.7765E-004  
  724.00  4.0492E-004  
  724.50  4.5744E-004  
  725.00  4.4392E-004  
  725.50  3.6141E-004  
  726.00  1.7652E-004  
  726.50  1.4818E-004  
  727.00  1.6106E-004  
  727.50  2.5106E-004  
  728.00  3.0172E-004  
  728.50  2.7946E-004  
  729.00  2.8634E-004  
  729.50  2.7946E-004  
  730.00  3.2086E-004  
  730.50  2.7760E-004  
  731.00  2.2775E-004  
  731.50  2.6100E-004  
  732.00  3.5229E-004  
  732.50  3.8002E-004  
  733.00  3.7894E-004  
  733.50  3.6407E-004  
  734.00  3.4761E-004  
  734.50  3.1546E-004  
  735.00  2.2456E-004  
  735.50  3.0985E-004  
  736.00  3.8731E-004  
  736.50  3.8620E-004  
  737.00  2.0574E-004  
  737.50  7.5880E-005  
  738.00  1.5118E-004  
  738.50  2.4540E-004  
  739.00  3.0178E-004  
  739.50  2.4081E-004  
  740.00  2.1681E-004  
  740.50  2.0880E-004  
  741.00  2.2700E-004  
  741.50  2.1082E-004  
  742.00  1.8144E-004  
  742.50  2.8788E-004  
  743.00  2.9270E-004  
  743.50  3.2339E-004  
  744.00  2.9690E-004  
  744.50  3.2918E-004  
  745.00  2.3452E-004  
  745.50  1.7293E-004  
  746.00  1.0585E-004  
  746.50  1.3849E-004  
  747.00  1.7205E-004  
  747.50  1.3234E-004  
  748.00  1.3547E-004  
  748.50  2.3009E-004  
  749.00  2.1024E-004  
  749.50  1.3319E-004  
  750.00  7.9820E-005  
  750.50  2.0699E-004  
  751.00  2.3240E-004  
  751.50  2.8872E-004  
  752.00  2.9520E-004  
  752.50  3.4710E-004  
  753.00  3.5584E-004  
  753.50  2.3308E-004  
  754.00  2.5805E-004  
  754.50  2.1682E-004  
  755.00  3.6277E-004  
  755.50  4.1751E-004  
  756.00  4.1399E-004  
  756.50  2.6052E-004  
  757.00  3.4327E-004  
  757.50  4.2697E-004  
  758.00  4.1317E-004  
  758.50  2.7194E-004  
  759.00  1.7559E-004  
  759.50  0.0000E+000  
  760.00  0.0000E+000  
  760.50  1.0290E-004  
  761.00  3.5283E-004  
  761.50  3.4887E-004  
  762.00  2.9215E-004  
  762.50  2.3073E-004  
  763.00  2.6067E-004  
  763.50  2.0616E-004  
  764.00  1.7765E-004  
  764.50  2.1974E-004  
  765.00  2.5923E-004  
  765.50  3.2194E-004  
  766.00  4.6661E-004  
  766.50  5.4167E-004  
  767.00  4.6820E-004  
  767.50  3.4671E-004  
  768.00  4.6524E-004  
  768.50  4.7500E-004  
  769.00  3.3729E-004  
  769.50  1.9639E-004  
  770.00  2.6300E-004  
  770.50  3.7014E-004  
  771.00  4.3335E-004  
  771.50  4.3432E-004  
  772.00  5.4150E-004  
  772.50  6.7408E-004  
  773.00  6.9165E-004  
  773.50  5.4282E-004  
  774.00  4.6187E-004  
  774.50  4.2470E-004  
  775.00  3.7126E-004  
  775.50  1.8611E-004  
  776.00  7.6682E-005  
  776.50  6.3726E-006  
  777.00  0.0000E+000  
  777.50  8.7830E-005  
  778.00  1.7637E-004  
  778.50  2.2297E-004  
  779.00  2.3684E-004  
  779.50  1.6855E-004  
  780.00  2.0982E-004  
  780.50  2.9652E-004  
  781.00  4.6132E-004  
  781.50  4.5440E-004  
  782.00  2.5091E-004  
  782.50  1.2465E-004  
  783.00  0.0000E+000  
  783.50  0.0000E+000  
  784.00  1.1426E-004  
  784.50  5.5745E-004  
  785.00  6.2791E-004  
  785.50  5.1421E-004  
  786.00  3.7139E-004  
  786.50  4.6105E-004  
  787.00  4.9574E-004  
  787.50  4.2410E-004  
  788.00  4.9845E-004  
  788.50  5.7222E-004  
  789.00  6.1902E-004  
  789.50  4.6334E-004  
  790.00  3.5386E-004  
  790.50  3.7356E-004  
  791.00  3.8634E-004  
  791.50  3.3841E-004  
  792.00  3.8421E-004  
  792.50  4.6192E-004  
  793.00  6.0142E-004  
  793.50  4.7764E-004  
  794.00  2.3184E-004  
  794.50  8.0820E-005  
  795.00  1.4970E-004  
  795.50  1.7089E-004  
  796.00  2.0946E-004  
  796.50  3.2636E-004  
  797.00  4.4581E-004  
  797.50  1.6561E-004  
  798.00  6.6098E-005  
  798.50  1.4874E-004  
  799.00  4.0102E-004  
  799.50  3.5325E-004  
  800.00  2.3376E-004  
  800.50  2.1450E-004  
  801.00  1.1482E-004  
  801.50  2.1521E-004  
  802.00  2.4277E-004  
  802.50  1.5986E-004  
  803.00  2.2078E-004  
  803.50  2.9963E-004  
  804.00  6.0689E-004  
  804.50  6.7451E-004  
  805.00  5.9949E-004  
  805.50  5.4387E-004  
  806.00  5.0534E-004  
  806.50  4.4397E-004  
  807.00  3.5545E-004  
  807.50  5.6548E-004  
  808.00  5.8796E-004  
  808.50  5.7450E-004  
  809.00  5.5165E-004  
  809.50  8.6614E-004  
  810.00  9.4664E-004  
  810.50  7.2188E-004  
  811.00  2.7830E-004  
  811.50  1.6891E-004  
  812.00  3.4700E-004  
  812.50  4.9510E-004  
  813.00  5.0575E-004  
  813.50  4.6431E-004  
  814.00  6.4153E-004  
  814.50  6.3510E-004  
  815.00  4.3502E-004  
  815.50  3.6384E-004  
  816.00  5.8994E-004  
  816.50  8.8585E-004  
  817.00  1.5720E-003  
  817.50  2.6307E-003  
  818.00  3.6117E-003  
  818.50  4.7533E-003  
  819.00  5.6452E-003  
  819.50  5.1059E-003  
  820.00  3.6563E-003  
  820.50  2.1274E-003  
  821.00  1.0809E-003  
  821.50  5.4269E-004  
  822.00  5.2293E-004  
  822.50  4.5217E-004  
  823.00  3.8059E-004  
  823.50  2.5329E-004  
  824.00  9.3407E-005  
  824.50  0.0000E+000  
  825.00  1.8250E-004  
  825.50  2.7204E-004  
  826.00  3.9007E-004  
  826.50  4.8372E-004  
  827.00  3.6234E-004  
  827.50  4.0871E-004  
  828.00  3.4097E-004  
  828.50  4.5652E-004  
  829.00  1.3677E-004  
  829.50  1.1540E-005  
  830.00  1.4800E-004  
  830.50  5.7338E-004  
  831.00  5.7899E-004  
  831.50  2.7257E-004  
  832.00  9.0962E-005  
  832.50  5.7344E-005  
  833.00  1.1213E-004  
  833.50  8.5430E-005  
  834.00  4.5649E-005  
  834.50  1.1467E-004  
  835.00  1.3843E-004  
  835.50  1.4813E-004  
  836.00  2.9760E-004  
  836.50  4.2626E-004  
  837.00  4.0491E-004  
  837.50  2.2417E-004  
  838.00  0.0000E+000  
  838.50  0.0000E+000  
  839.00  1.0015E-004  
  839.50  7.1600E-004  
  840.00  4.3382E-004  
  840.50  0.0000E+000  
  841.00  2.1348E-006  
  841.50  2.8248E-005  
  842.00  4.5876E-004  
  842.50  3.4499E-004  
  843.00  2.0200E-004  
  843.50  2.2051E-004  
  844.00  2.7232E-004  
  844.50  2.1115E-004  
  845.00  2.4757E-004  
  845.50  4.6213E-004  
  846.00  6.9892E-004  
  846.50  8.7024E-004  
  847.00  6.8179E-004  
  847.50  4.2807E-004  
  848.00  5.0253E-004  
  848.50  4.4503E-004  
  849.00  3.4569E-005  
  849.50  1.0358E-004  
  850.00  3.2412E-004  
  850.50  7.0328E-004  
  851.00  7.2226E-004  
  851.50  7.2684E-004  
  852.00  4.0020E-004  
  852.50  2.5361E-004  
  853.00  5.3935E-004  
  853.50  1.0088E-003  
  854.00  8.4114E-004  
  854.50  4.2392E-004  
  855.00  1.6583E-004  
  855.50  3.7185E-004  
  856.00  6.5749E-004  
  856.50  7.4229E-004  
  857.00  6.5335E-004  
  857.50  8.1042E-004  
  858.00  8.2707E-004  
  858.50  5.4126E-004  
  859.00  3.8883E-004  
  859.50  3.5445E-004  
  860.00  6.1931E-004  
  860.50  5.4953E-004  
  861.00  2.2953E-004  
  861.50  2.2033E-004  
  862.00  3.8509E-004  
  862.50  5.1171E-004  
  863.00  9.1953E-004  
  863.50  1.2686E-003  
  864.00  1.2445E-003  
  864.50  1.2473E-003  
  865.00  1.3876E-003  
  865.50  9.8572E-004  
  866.00  3.2076E-004  
  866.50  0.0000E+000  
  867.00  5.1479E-006  
  867.50  3.3628E-004  
  868.00  9.2681E-005  
  868.50  0.0000E+000  
  869.00  0.0000E+000  
  869.50  0.0000E+000  
  870.00  0.0000E+000  
  870.50  0.0000E+000  
  871.00  3.4642E-005  
  871.50  2.9074E-004  
  872.00  4.5396E-004  
  872.50  4.2809E-005  
  873.00  3.7581E-004  
  873.50  4.8187E-004  
  874.00  5.1570E-004  
  874.50  0.0000E+000  
  875.00  0.0000E+000  
  875.50  5.0120E-004  
  876.00  1.6086E-003  
  876.50  1.9055E-003  
  877.00  1.2980E-003  
  877.50  1.1171E-003  
  878.00  1.2799E-004  
  878.50  0.0000E+000  
  879.00  5.6794E-005  
  879.50  7.6639E-004  
  880.00  1.1890E-004  
  880.50  0.0000E+000  
  881.00  9.8270E-005  
  881.50  7.9586E-004  
  882.00  1.0377E-003  
  882.50  1.0972E-003  
  883.00  1.3342E-003  
  883.50  9.3363E-004  
  884.00  2.8027E-004  
  884.50  5.2654E-004  
  885.00  7.4274E-004  
  885.50  7.6455E-005  
  886.00  1.6722E-004  
  886.50  1.2349E-003  
  887.00  1.6991E-003  
  887.50  1.5980E-003  
  888.00  1.0745E-003  
  888.50  9.5923E-004  
  889.00  1.6695E-004  
  889.50  0.0000E+000  
  890.00  8.5249E-004  
  890.50  8.7831E-004  
  891.00  1.3733E-005  
  891.50  0.0000E+000  
  892.00  0.0000E+000  
  892.50  1.0284E-005  
  893.00  6.6022E-004  
  893.50  7.7140E-004  
  894.00  3.1143E-004  
  894.50  2.1183E-005  
  895.00  0.0000E+000  
  895.50  0.0000E+000  
  896.00  8.0414E-005  
  896.50  1.4916E-004  
  897.00  4.0087E-004  
  897.50  7.4609E-004  
  898.00  1.1214E-003  
  898.50  1.0540E-003  
  899.00  1.1913E-003  
  899.50  1.6578E-005  
