
# From lspdd.org
# 
# Name: LFC Globe Twister Domestique
# Indice spectral Valeur 
# MSI 0.27 
# SLI 0.45 
# IPI 0.56 
# Pourcentage de bleu 14.6 
# Caractéristique Valeur 
# CCT calculée (K) 2723 
# CCT du fabricant (K) 3000 
# Tension (V) 120 
# Puissance (W) 23.0 
# Efficacité lumineuse (Lum/W) 69.6 
#
# Image: '/app/system/img_1s/2482/medium_image1.JPG?1413485866'
# 

  273.00  0.0000E+000  
  273.50  0.0000E+000  
  274.00  0.0000E+000  
  274.50  0.0000E+000  
  275.00  0.0000E+000  
  275.50  0.0000E+000  
  276.00  0.0000E+000  
  276.50  0.0000E+000  
  277.00  0.0000E+000  
  277.50  0.0000E+000  
  278.00  0.0000E+000  
  278.50  0.0000E+000  
  279.00  0.0000E+000  
  279.50  0.0000E+000  
  280.00  0.0000E+000  
  280.50  0.0000E+000  
  281.00  0.0000E+000  
  281.50  0.0000E+000  
  282.00  0.0000E+000  
  282.50  0.0000E+000  
  283.00  0.0000E+000  
  283.50  0.0000E+000  
  284.00  0.0000E+000  
  284.50  0.0000E+000  
  285.00  0.0000E+000  
  285.50  0.0000E+000  
  286.00  0.0000E+000  
  286.50  0.0000E+000  
  287.00  0.0000E+000  
  287.50  0.0000E+000  
  288.00  0.0000E+000  
  288.50  0.0000E+000  
  289.00  0.0000E+000  
  289.50  0.0000E+000  
  290.00  0.0000E+000  
  290.50  0.0000E+000  
  291.00  0.0000E+000  
  291.50  0.0000E+000  
  292.00  0.0000E+000  
  292.50  0.0000E+000  
  293.00  0.0000E+000  
  293.50  0.0000E+000  
  294.00  0.0000E+000  
  294.50  0.0000E+000  
  295.00  0.0000E+000  
  295.50  0.0000E+000  
  296.00  0.0000E+000  
  296.50  0.0000E+000  
  297.00  0.0000E+000  
  297.50  0.0000E+000  
  298.00  0.0000E+000  
  298.50  0.0000E+000  
  299.00  0.0000E+000  
  299.50  0.0000E+000  
  300.00  0.0000E+000  
  300.50  0.0000E+000  
  301.00  0.0000E+000  
  301.50  0.0000E+000  
  302.00  0.0000E+000  
  302.50  0.0000E+000  
  303.00  0.0000E+000  
  303.50  0.0000E+000  
  304.00  0.0000E+000  
  304.50  0.0000E+000  
  305.00  0.0000E+000  
  305.50  0.0000E+000  
  306.00  0.0000E+000  
  306.50  0.0000E+000  
  307.00  0.0000E+000  
  307.50  0.0000E+000  
  308.00  0.0000E+000  
  308.50  0.0000E+000  
  309.00  0.0000E+000  
  309.50  0.0000E+000  
  310.00  0.0000E+000  
  310.50  7.4384E-007  
  311.00  5.1310E-005  
  311.50  1.5190E-004  
  312.00  2.4956E-004  
  312.50  3.1834E-004  
  313.00  2.9493E-004  
  313.50  2.0753E-004  
  314.00  8.0690E-005  
  314.50  0.0000E+000  
  315.00  0.0000E+000  
  315.50  0.0000E+000  
  316.00  0.0000E+000  
  316.50  0.0000E+000  
  317.00  0.0000E+000  
  317.50  0.0000E+000  
  318.00  0.0000E+000  
  318.50  0.0000E+000  
  319.00  0.0000E+000  
  319.50  0.0000E+000  
  320.00  0.0000E+000  
  320.50  0.0000E+000  
  321.00  0.0000E+000  
  321.50  0.0000E+000  
  322.00  0.0000E+000  
  322.50  0.0000E+000  
  323.00  0.0000E+000  
  323.50  0.0000E+000  
  324.00  2.8121E-005  
  324.50  4.3927E-005  
  325.00  2.5661E-005  
  325.50  0.0000E+000  
  326.00  0.0000E+000  
  326.50  0.0000E+000  
  327.00  0.0000E+000  
  327.50  0.0000E+000  
  328.00  0.0000E+000  
  328.50  0.0000E+000  
  329.00  0.0000E+000  
  329.50  0.0000E+000  
  330.00  0.0000E+000  
  330.50  5.3735E-007  
  331.00  3.1942E-006  
  331.50  2.6910E-006  
  332.00  6.0228E-006  
  332.50  1.4236E-005  
  333.00  1.8981E-005  
  333.50  5.5776E-005  
  334.00  7.7277E-005  
  334.50  7.8340E-005  
  335.00  4.3665E-005  
  335.50  7.6459E-006  
  336.00  0.0000E+000  
  336.50  0.0000E+000  
  337.00  0.0000E+000  
  337.50  0.0000E+000  
  338.00  0.0000E+000  
  338.50  0.0000E+000  
  339.00  0.0000E+000  
  339.50  0.0000E+000  
  340.00  0.0000E+000  
  340.50  0.0000E+000  
  341.00  0.0000E+000  
  341.50  0.0000E+000  
  342.00  0.0000E+000  
  342.50  0.0000E+000  
  343.00  0.0000E+000  
  343.50  0.0000E+000  
  344.00  0.0000E+000  
  344.50  0.0000E+000  
  345.00  0.0000E+000  
  345.50  4.7351E-006  
  346.00  1.7644E-005  
  346.50  1.8537E-005  
  347.00  9.5184E-006  
  347.50  0.0000E+000  
  348.00  0.0000E+000  
  348.50  2.6576E-005  
  349.00  1.6871E-005  
  349.50  3.7167E-006  
  350.00  0.0000E+000  
  350.50  0.0000E+000  
  351.00  0.0000E+000  
  351.50  0.0000E+000  
  352.00  0.0000E+000  
  352.50  0.0000E+000  
  353.00  0.0000E+000  
  353.50  0.0000E+000  
  354.00  0.0000E+000  
  354.50  9.0142E-006  
  355.00  4.7485E-005  
  355.50  8.2336E-005  
  356.00  6.6132E-005  
  356.50  5.4641E-005  
  357.00  2.7119E-005  
  357.50  2.6488E-005  
  358.00  4.7181E-005  
  358.50  5.2051E-005  
  359.00  5.4438E-005  
  359.50  3.9203E-005  
  360.00  1.6014E-005  
  360.50  0.0000E+000  
  361.00  0.0000E+000  
  361.50  0.0000E+000  
  362.00  0.0000E+000  
  362.50  0.0000E+000  
  363.00  5.3550E-005  
  363.50  2.7464E-004  
  364.00  6.1131E-004  
  364.50  9.3600E-004  
  365.00  1.1145E-003  
  365.50  1.0533E-003  
  366.00  7.8104E-004  
  366.50  5.0222E-004  
  367.00  2.8100E-004  
  367.50  1.5146E-004  
  368.00  6.4596E-005  
  368.50  9.0007E-008  
  369.00  0.0000E+000  
  369.50  0.0000E+000  
  370.00  1.6776E-006  
  370.50  2.0470E-005  
  371.00  1.9080E-005  
  371.50  0.0000E+000  
  372.00  0.0000E+000  
  372.50  0.0000E+000  
  373.00  0.0000E+000  
  373.50  0.0000E+000  
  374.00  0.0000E+000  
  374.50  0.0000E+000  
  375.00  0.0000E+000  
  375.50  0.0000E+000  
  376.00  0.0000E+000  
  376.50  0.0000E+000  
  377.00  0.0000E+000  
  377.50  0.0000E+000  
  378.00  0.0000E+000  
  378.50  0.0000E+000  
  379.00  0.0000E+000  
  379.50  0.0000E+000  
  380.00  1.1115E-005  
  380.50  4.8026E-005  
  381.00  6.8154E-005  
  381.50  4.6432E-005  
  382.00  1.0974E-005  
  382.50  0.0000E+000  
  383.00  2.4514E-007  
  383.50  2.9167E-006  
  384.00  1.9670E-006  
  384.50  0.0000E+000  
  385.00  0.0000E+000  
  385.50  0.0000E+000  
  386.00  0.0000E+000  
  386.50  0.0000E+000  
  387.00  0.0000E+000  
  387.50  0.0000E+000  
  388.00  0.0000E+000  
  388.50  0.0000E+000  
  389.00  0.0000E+000  
  389.50  2.3672E-006  
  390.00  0.0000E+000  
  390.50  2.1993E-006  
  391.00  0.0000E+000  
  391.50  0.0000E+000  
  392.00  0.0000E+000  
  392.50  0.0000E+000  
  393.00  0.0000E+000  
  393.50  0.0000E+000  
  394.00  0.0000E+000  
  394.50  0.0000E+000  
  395.00  0.0000E+000  
  395.50  0.0000E+000  
  396.00  1.6439E-007  
  396.50  1.1794E-005  
  397.00  3.2931E-005  
  397.50  5.1994E-005  
  398.00  6.6601E-005  
  398.50  4.3448E-005  
  399.00  1.8428E-005  
  399.50  1.7898E-005  
  400.00  5.9470E-006  
  400.50  1.1537E-005  
  401.00  1.9539E-005  
  401.50  3.3986E-005  
  402.00  4.7118E-005  
  402.50  1.3168E-004  
  403.00  4.9875E-004  
  403.50  1.2346E-003  
  404.00  2.0524E-003  
  404.50  2.4420E-003  
  405.00  2.2047E-003  
  405.50  1.4463E-003  
  406.00  7.4345E-004  
  406.50  3.5712E-004  
  407.00  2.6317E-004  
  407.50  2.5905E-004  
  408.00  2.3069E-004  
  408.50  1.6421E-004  
  409.00  9.1131E-005  
  409.50  3.4150E-005  
  410.00  1.6464E-005  
  410.50  1.6905E-005  
  411.00  2.6845E-005  
  411.50  3.2757E-005  
  412.00  3.2892E-005  
  412.50  1.9172E-005  
  413.00  3.1742E-005  
  413.50  4.2172E-005  
  414.00  4.5350E-005  
  414.50  5.4601E-005  
  415.00  4.1349E-005  
  415.50  5.0798E-005  
  416.00  6.7803E-005  
  416.50  7.5269E-005  
  417.00  6.7373E-005  
  417.50  6.2424E-005  
  418.00  5.0760E-005  
  418.50  5.0950E-005  
  419.00  5.9298E-005  
  419.50  6.3726E-005  
  420.00  6.5583E-005  
  420.50  6.0784E-005  
  421.00  5.3129E-005  
  421.50  4.6750E-005  
  422.00  5.2811E-005  
  422.50  6.5762E-005  
  423.00  7.3035E-005  
  423.50  7.9696E-005  
  424.00  6.5155E-005  
  424.50  6.5178E-005  
  425.00  8.8487E-005  
  425.50  1.1693E-004  
  426.00  1.3298E-004  
  426.50  1.2409E-004  
  427.00  9.7059E-005  
  427.50  9.1960E-005  
  428.00  1.0715E-004  
  428.50  1.0749E-004  
  429.00  1.2582E-004  
  429.50  1.3458E-004  
  430.00  1.5163E-004  
  430.50  1.6704E-004  
  431.00  1.5004E-004  
  431.50  1.6220E-004  
  432.00  2.0435E-004  
  432.50  2.4895E-004  
  433.00  2.9790E-004  
  433.50  5.0006E-004  
  434.00  1.3486E-003  
  434.50  3.6258E-003  
  435.00  6.6126E-003  
  435.50  8.7177E-003  
  436.00  8.3723E-003  
  436.50  6.0594E-003  
  437.00  3.2710E-003  
  437.50  1.3781E-003  
  438.00  6.0775E-004  
  438.50  3.5944E-004  
  439.00  2.6567E-004  
  439.50  2.2654E-004  
  440.00  1.9069E-004  
  440.50  1.7746E-004  
  441.00  1.9162E-004  
  441.50  2.0888E-004  
  442.00  2.3349E-004  
  442.50  2.3844E-004  
  443.00  2.2056E-004  
  443.50  1.9738E-004  
  444.00  1.7754E-004  
  444.50  1.9837E-004  
  445.00  2.3360E-004  
  445.50  2.6592E-004  
  446.00  2.6206E-004  
  446.50  2.5570E-004  
  447.00  2.6885E-004  
  447.50  2.8137E-004  
  448.00  2.6376E-004  
  448.50  2.0503E-004  
  449.00  1.7074E-004  
  449.50  1.5257E-004  
  450.00  1.7584E-004  
  450.50  1.8389E-004  
  451.00  1.8519E-004  
  451.50  1.8072E-004  
  452.00  1.8764E-004  
  452.50  2.0141E-004  
  453.00  2.0357E-004  
  453.50  2.1585E-004  
  454.00  1.9832E-004  
  454.50  1.8284E-004  
  455.00  1.8550E-004  
  455.50  1.8109E-004  
  456.00  1.7683E-004  
  456.50  1.6458E-004  
  457.00  1.4501E-004  
  457.50  1.5428E-004  
  458.00  1.7466E-004  
  458.50  1.7838E-004  
  459.00  1.7925E-004  
  459.50  1.7303E-004  
  460.00  1.7294E-004  
  460.50  1.7797E-004  
  461.00  1.8351E-004  
  461.50  1.9596E-004  
  462.00  1.8131E-004  
  462.50  1.5230E-004  
  463.00  1.2255E-004  
  463.50  1.1164E-004  
  464.00  1.3583E-004  
  464.50  1.4815E-004  
  465.00  1.4636E-004  
  465.50  1.4275E-004  
  466.00  1.4501E-004  
  466.50  1.5945E-004  
  467.00  1.6054E-004  
  467.50  1.5441E-004  
  468.00  1.4181E-004  
  468.50  1.3032E-004  
  469.00  1.3186E-004  
  469.50  1.2964E-004  
  470.00  1.4638E-004  
  470.50  1.5392E-004  
  471.00  1.5759E-004  
  471.50  1.7869E-004  
  472.00  2.0323E-004  
  472.50  1.9908E-004  
  473.00  1.9005E-004  
  473.50  1.7785E-004  
  474.00  1.7645E-004  
  474.50  1.8987E-004  
  475.00  1.9739E-004  
  475.50  1.9684E-004  
  476.00  2.0807E-004  
  476.50  2.0572E-004  
  477.00  1.8117E-004  
  477.50  1.4863E-004  
  478.00  1.4082E-004  
  478.50  1.6314E-004  
  479.00  1.9516E-004  
  479.50  2.3943E-004  
  480.00  2.7249E-004  
  480.50  3.1107E-004  
  481.00  3.4603E-004  
  481.50  3.8618E-004  
  482.00  4.3975E-004  
  482.50  5.2101E-004  
  483.00  6.3025E-004  
  483.50  7.5808E-004  
  484.00  9.0054E-004  
  484.50  1.0531E-003  
  485.00  1.2224E-003  
  485.50  1.3913E-003  
  486.00  1.5221E-003  
  486.50  1.5977E-003  
  487.00  1.6024E-003  
  487.50  1.5716E-003  
  488.00  1.5020E-003  
  488.50  1.4103E-003  
  489.00  1.3206E-003  
  489.50  1.2378E-003  
  490.00  1.1772E-003  
  490.50  1.1313E-003  
  491.00  1.1063E-003  
  491.50  1.0707E-003  
  492.00  1.0022E-003  
  492.50  9.2380E-004  
  493.00  8.5550E-004  
  493.50  8.0275E-004  
  494.00  7.7290E-004  
  494.50  7.3919E-004  
  495.00  7.1134E-004  
  495.50  6.8084E-004  
  496.00  6.3909E-004  
  496.50  6.0465E-004  
  497.00  5.5918E-004  
  497.50  5.3562E-004  
  498.00  4.9862E-004  
  498.50  4.5736E-004  
  499.00  4.1225E-004  
  499.50  3.6646E-004  
  500.00  3.3483E-004  
  500.50  3.0168E-004  
  501.00  2.6931E-004  
  501.50  2.3942E-004  
  502.00  2.1242E-004  
  502.50  1.9919E-004  
  503.00  1.8564E-004  
  503.50  1.8630E-004  
  504.00  1.7951E-004  
  504.50  1.7992E-004  
  505.00  1.8053E-004  
  505.50  1.8145E-004  
  506.00  1.7413E-004  
  506.50  1.6934E-004  
  507.00  1.6993E-004  
  507.50  1.7120E-004  
  508.00  1.5858E-004  
  508.50  1.3841E-004  
  509.00  1.2030E-004  
  509.50  1.2131E-004  
  510.00  1.4160E-004  
  510.50  1.5233E-004  
  511.00  1.5408E-004  
  511.50  1.5257E-004  
  512.00  1.4975E-004  
  512.50  1.4563E-004  
  513.00  1.3298E-004  
  513.50  1.2462E-004  
  514.00  1.2410E-004  
  514.50  1.3091E-004  
  515.00  1.4434E-004  
  515.50  1.4112E-004  
  516.00  1.5122E-004  
  516.50  1.5432E-004  
  517.00  1.6110E-004  
  517.50  1.6220E-004  
  518.00  1.4851E-004  
  518.50  1.2370E-004  
  519.00  1.0892E-004  
  519.50  1.0286E-004  
  520.00  1.1684E-004  
  520.50  1.3620E-004  
  521.00  1.3592E-004  
  521.50  1.2601E-004  
  522.00  1.0802E-004  
  522.50  1.0764E-004  
  523.00  1.1224E-004  
  523.50  1.1491E-004  
  524.00  1.1116E-004  
  524.50  1.2092E-004  
  525.00  1.3259E-004  
  525.50  1.3937E-004  
  526.00  1.3892E-004  
  526.50  1.4196E-004  
  527.00  1.4710E-004  
  527.50  1.4928E-004  
  528.00  1.3905E-004  
  528.50  1.3152E-004  
  529.00  1.3704E-004  
  529.50  1.5165E-004  
  530.00  1.6321E-004  
  530.50  1.6836E-004  
  531.00  1.7491E-004  
  531.50  2.1008E-004  
  532.00  2.6193E-004  
  532.50  3.2732E-004  
  533.00  3.7918E-004  
  533.50  4.0297E-004  
  534.00  4.1027E-004  
  534.50  4.0123E-004  
  535.00  4.1902E-004  
  535.50  4.7939E-004  
  536.00  5.8494E-004  
  536.50  7.6387E-004  
  537.00  9.7804E-004  
  537.50  1.2232E-003  
  538.00  1.4726E-003  
  538.50  1.7818E-003  
  539.00  2.2662E-003  
  539.50  3.0577E-003  
  540.00  4.3080E-003  
  540.50  5.9592E-003  
  541.00  7.6055E-003  
  541.50  8.7011E-003  
  542.00  8.8186E-003  
  542.50  8.2737E-003  
  543.00  7.6166E-003  
  543.50  7.2346E-003  
  544.00  7.4437E-003  
  544.50  8.5165E-003  
  545.00  1.0657E-002  
  545.50  1.2821E-002  
  546.00  1.3266E-002  
  546.50  1.1759E-002  
  547.00  9.0671E-003  
  547.50  6.7591E-003  
  548.00  5.4440E-003  
  548.50  4.6602E-003  
  549.00  4.0838E-003  
  549.50  3.5627E-003  
  550.00  3.0960E-003  
  550.50  2.6661E-003  
  551.00  2.2940E-003  
  551.50  1.9965E-003  
  552.00  1.7487E-003  
  552.50  1.5402E-003  
  553.00  1.3470E-003  
  553.50  1.1625E-003  
  554.00  9.9740E-004  
  554.50  8.5455E-004  
  555.00  7.3382E-004  
  555.50  6.3832E-004  
  556.00  5.6765E-004  
  556.50  5.1929E-004  
  557.00  4.9688E-004  
  557.50  4.4910E-004  
  558.00  3.9731E-004  
  558.50  3.4542E-004  
  559.00  3.2741E-004  
  559.50  3.1873E-004  
  560.00  3.1576E-004  
  560.50  2.8833E-004  
  561.00  2.5836E-004  
  561.50  2.3814E-004  
  562.00  2.3231E-004  
  562.50  2.3103E-004  
  563.00  2.2242E-004  
  563.50  2.0655E-004  
  564.00  2.0313E-004  
  564.50  2.0308E-004  
  565.00  2.0641E-004  
  565.50  1.9422E-004  
  566.00  1.8020E-004  
  566.50  1.6057E-004  
  567.00  1.5635E-004  
  567.50  1.5385E-004  
  568.00  1.5208E-004  
  568.50  1.4885E-004  
  569.00  1.4922E-004  
  569.50  1.4637E-004  
  570.00  1.3694E-004  
  570.50  1.2456E-004  
  571.00  1.2232E-004  
  571.50  1.1350E-004  
  572.00  1.1020E-004  
  572.50  1.0030E-004  
  573.00  1.0857E-004  
  573.50  1.1991E-004  
  574.00  1.3588E-004  
  574.50  1.5998E-004  
  575.00  2.7321E-004  
  575.50  5.9043E-004  
  576.00  1.1278E-003  
  576.50  1.6184E-003  
  577.00  1.8317E-003  
  577.50  1.7462E-003  
  578.00  1.7225E-003  
  578.50  1.9120E-003  
  579.00  2.1025E-003  
  579.50  2.0751E-003  
  580.00  1.8799E-003  
  580.50  1.6706E-003  
  581.00  1.5800E-003  
  581.50  1.6107E-003  
  582.00  1.7413E-003  
  582.50  1.8906E-003  
  583.00  1.9824E-003  
  583.50  2.0043E-003  
  584.00  1.9760E-003  
  584.50  1.9154E-003  
  585.00  1.8733E-003  
  585.50  1.9436E-003  
  586.00  2.2298E-003  
  586.50  2.6762E-003  
  587.00  3.0149E-003  
  587.50  2.9477E-003  
  588.00  2.4851E-003  
  588.50  1.8934E-003  
  589.00  1.4842E-003  
  589.50  1.2798E-003  
  590.00  1.2800E-003  
  590.50  1.3592E-003  
  591.00  1.5307E-003  
  591.50  1.7962E-003  
  592.00  2.1513E-003  
  592.50  2.5133E-003  
  593.00  2.7003E-003  
  593.50  2.5396E-003  
  594.00  2.1147E-003  
  594.50  1.6101E-003  
  595.00  1.2577E-003  
  595.50  1.0811E-003  
  596.00  1.0260E-003  
  596.50  1.0423E-003  
  597.00  1.0871E-003  
  597.50  1.2116E-003  
  598.00  1.3824E-003  
  598.50  1.6119E-003  
  599.00  1.8220E-003  
  599.50  1.8892E-003  
  600.00  1.7842E-003  
  600.50  1.5230E-003  
  601.00  1.2370E-003  
  601.50  1.0054E-003  
  602.00  8.5113E-004  
  602.50  7.5767E-004  
  603.00  7.1043E-004  
  603.50  7.1279E-004  
  604.00  7.5074E-004  
  604.50  7.8363E-004  
  605.00  8.2221E-004  
  605.50  8.9068E-004  
  606.00  1.0029E-003  
  606.50  1.1541E-003  
  607.00  1.3450E-003  
  607.50  1.6321E-003  
  608.00  2.0835E-003  
  608.50  2.8525E-003  
  609.00  4.2854E-003  
  609.50  7.4318E-003  
  610.00  1.2826E-002  
  610.50  1.9816E-002  
  611.00  2.5096E-002  
  611.50  2.6034E-002  
  612.00  2.2210E-002  
  612.50  1.6859E-002  
  613.00  1.2574E-002  
  613.50  1.0059E-002  
  614.00  8.6514E-003  
  614.50  7.5714E-003  
  615.00  6.4514E-003  
  615.50  5.2353E-003  
  616.00  4.1218E-003  
  616.50  3.2364E-003  
  617.00  2.6156E-003  
  617.50  2.1912E-003  
  618.00  1.9072E-003  
  618.50  1.7270E-003  
  619.00  1.6387E-003  
  619.50  1.6293E-003  
  620.00  1.6424E-003  
  620.50  1.6667E-003  
  621.00  1.6742E-003  
  621.50  1.7001E-003  
  622.00  1.7361E-003  
  622.50  1.8034E-003  
  623.00  1.8947E-003  
  623.50  1.9862E-003  
  624.00  2.0592E-003  
  624.50  2.1157E-003  
  625.00  2.1577E-003  
  625.50  2.2009E-003  
  626.00  2.2143E-003  
  626.50  2.1836E-003  
  627.00  2.1096E-003  
  627.50  2.0303E-003  
  628.00  1.9807E-003  
  628.50  1.9681E-003  
  629.00  2.0724E-003  
  629.50  2.3761E-003  
  630.00  2.8877E-003  
  630.50  3.3451E-003  
  631.00  3.4214E-003  
  631.50  2.9759E-003  
  632.00  2.2037E-003  
  632.50  1.4536E-003  
  633.00  9.5885E-004  
  633.50  6.8341E-004  
  634.00  5.6381E-004  
  634.50  4.9234E-004  
  635.00  4.6753E-004  
  635.50  4.6364E-004  
  636.00  4.5070E-004  
  636.50  4.0718E-004  
  637.00  3.5860E-004  
  637.50  3.2981E-004  
  638.00  3.3570E-004  
  638.50  3.4331E-004  
  639.00  3.3885E-004  
  639.50  3.2389E-004  
  640.00  2.8744E-004  
  640.50  2.4965E-004  
  641.00  2.0972E-004  
  641.50  2.3742E-004  
  642.00  2.7245E-004  
  642.50  2.8704E-004  
  643.00  2.7667E-004  
  643.50  2.6113E-004  
  644.00  2.7233E-004  
  644.50  2.6785E-004  
  645.00  2.5958E-004  
  645.50  2.7091E-004  
  646.00  2.8023E-004  
  646.50  2.7934E-004  
  647.00  2.4957E-004  
  647.50  2.3552E-004  
  648.00  2.6427E-004  
  648.50  3.2999E-004  
  649.00  4.6842E-004  
  649.50  6.9118E-004  
  650.00  9.3044E-004  
  650.50  1.0242E-003  
  651.00  9.4166E-004  
  651.50  7.6936E-004  
  652.00  6.2998E-004  
  652.50  5.5889E-004  
  653.00  5.0327E-004  
  653.50  4.5596E-004  
  654.00  3.8272E-004  
  654.50  3.3654E-004  
  655.00  2.8542E-004  
  655.50  2.6338E-004  
  656.00  2.6278E-004  
  656.50  2.9839E-004  
  657.00  3.2263E-004  
  657.50  3.2163E-004  
  658.00  2.9922E-004  
  658.50  2.7335E-004  
  659.00  2.4389E-004  
  659.50  2.4077E-004  
  660.00  2.4428E-004  
  660.50  2.6130E-004  
  661.00  3.0737E-004  
  661.50  4.1967E-004  
  662.00  5.5541E-004  
  662.50  6.5060E-004  
  663.00  5.9958E-004  
  663.50  4.6937E-004  
  664.00  3.3058E-004  
  664.50  2.7734E-004  
  665.00  2.5190E-004  
  665.50  2.3866E-004  
  666.00  2.1430E-004  
  666.50  1.9898E-004  
  667.00  1.2924E-004  
  667.50  9.1648E-005  
  668.00  9.5614E-005  
  668.50  1.4800E-004  
  669.00  1.7827E-004  
  669.50  1.6910E-004  
  670.00  1.7019E-004  
  670.50  1.4044E-004  
  671.00  1.0277E-004  
  671.50  7.7622E-005  
  672.00  1.1515E-004  
  672.50  1.3534E-004  
  673.00  1.2619E-004  
  673.50  7.5233E-005  
  674.00  7.7192E-005  
  674.50  6.6339E-005  
  675.00  4.8012E-005  
  675.50  4.5226E-005  
  676.00  6.0506E-005  
  676.50  9.8248E-005  
  677.00  9.4214E-005  
  677.50  8.6329E-005  
  678.00  9.5075E-005  
  678.50  1.0986E-004  
  679.00  1.2824E-004  
  679.50  1.2981E-004  
  680.00  1.5726E-004  
  680.50  1.8314E-004  
  681.00  1.8769E-004  
  681.50  1.7962E-004  
  682.00  1.3183E-004  
  682.50  8.5577E-005  
  683.00  7.0857E-005  
  683.50  1.2675E-004  
  684.00  1.8880E-004  
  684.50  2.2180E-004  
  685.00  2.1459E-004  
  685.50  2.0315E-004  
  686.00  2.2444E-004  
  686.50  3.3246E-004  
  687.00  4.6893E-004  
  687.50  5.3902E-004  
  688.00  5.2415E-004  
  688.50  4.4523E-004  
  689.00  3.2125E-004  
  689.50  1.9505E-004  
  690.00  1.0287E-004  
  690.50  8.4942E-005  
  691.00  6.8493E-005  
  691.50  6.7574E-005  
  692.00  8.1483E-005  
  692.50  1.4252E-004  
  693.00  2.6794E-004  
  693.50  3.8810E-004  
  694.00  4.2500E-004  
  694.50  3.3906E-004  
  695.00  1.7946E-004  
  695.50  6.3856E-005  
  696.00  2.5401E-005  
  696.50  5.2200E-005  
  697.00  5.7829E-005  
  697.50  2.8058E-005  
  698.00  1.3443E-005  
  698.50  3.6417E-007  
  699.00  5.3652E-006  
  699.50  1.3549E-005  
  700.00  2.6718E-005  
  700.50  4.1954E-005  
  701.00  2.7156E-005  
  701.50  7.1679E-005  
  702.00  1.1483E-004  
  702.50  1.3272E-004  
  703.00  1.1135E-004  
  703.50  1.3439E-004  
  704.00  2.0506E-004  
  704.50  2.9054E-004  
  705.00  4.2156E-004  
  705.50  6.5471E-004  
  706.00  1.0035E-003  
  706.50  1.2991E-003  
  707.00  1.4735E-003  
  707.50  1.4673E-003  
  708.00  1.4957E-003  
  708.50  1.5497E-003  
  709.00  1.5811E-003  
  709.50  1.3606E-003  
  710.00  1.0156E-003  
  710.50  7.2954E-004  
  711.00  7.3166E-004  
  711.50  9.1988E-004  
  712.00  1.1486E-003  
  712.50  1.2240E-003  
  713.00  1.0485E-003  
  713.50  7.1498E-004  
  714.00  4.0660E-004  
  714.50  2.2144E-004  
  715.00  1.3335E-004  
  715.50  6.9279E-005  
  716.00  1.6775E-005  
  716.50  0.0000E+000  
  717.00  0.0000E+000  
  717.50  0.0000E+000  
  718.00  0.0000E+000  
  718.50  0.0000E+000  
  719.00  0.0000E+000  
  719.50  0.0000E+000  
  720.00  0.0000E+000  
  720.50  0.0000E+000  
  721.00  0.0000E+000  
  721.50  0.0000E+000  
  722.00  0.0000E+000  
  722.50  0.0000E+000  
  723.00  0.0000E+000  
  723.50  0.0000E+000  
  724.00  8.2727E-006  
  724.50  6.2128E-005  
  725.00  8.2201E-005  
  725.50  2.9671E-005  
  726.00  5.3041E-006  
  726.50  0.0000E+000  
  727.00  0.0000E+000  
  727.50  0.0000E+000  
  728.00  6.9114E-006  
  728.50  1.5916E-006  
  729.00  0.0000E+000  
  729.50  0.0000E+000  
  730.00  1.9607E-005  
  730.50  4.2078E-005  
  731.00  5.9376E-006  
  731.50  0.0000E+000  
  732.00  0.0000E+000  
  732.50  0.0000E+000  
  733.00  0.0000E+000  
  733.50  0.0000E+000  
  734.00  0.0000E+000  
  734.50  0.0000E+000  
  735.00  0.0000E+000  
  735.50  0.0000E+000  
  736.00  0.0000E+000  
  736.50  0.0000E+000  
  737.00  0.0000E+000  
  737.50  0.0000E+000  
  738.00  0.0000E+000  
  738.50  0.0000E+000  
  739.00  0.0000E+000  
  739.50  0.0000E+000  
  740.00  0.0000E+000  
  740.50  0.0000E+000  
  741.00  0.0000E+000  
  741.50  0.0000E+000  
  742.00  0.0000E+000  
  742.50  0.0000E+000  
  743.00  0.0000E+000  
  743.50  1.2532E-005  
  744.00  2.5944E-006  
  744.50  0.0000E+000  
  745.00  0.0000E+000  
  745.50  0.0000E+000  
  746.00  0.0000E+000  
  746.50  0.0000E+000  
  747.00  0.0000E+000  
  747.50  0.0000E+000  
  748.00  0.0000E+000  
  748.50  0.0000E+000  
  749.00  0.0000E+000  
  749.50  0.0000E+000  
  750.00  0.0000E+000  
  750.50  0.0000E+000  
  751.00  0.0000E+000  
  751.50  0.0000E+000  
  752.00  0.0000E+000  
  752.50  0.0000E+000  
  753.00  0.0000E+000  
  753.50  0.0000E+000  
  754.00  0.0000E+000  
  754.50  0.0000E+000  
  755.00  0.0000E+000  
  755.50  0.0000E+000  
  756.00  0.0000E+000  
  756.50  0.0000E+000  
  757.00  0.0000E+000  
  757.50  0.0000E+000  
  758.00  0.0000E+000  
  758.50  0.0000E+000  
  759.00  0.0000E+000  
  759.50  0.0000E+000  
  760.00  0.0000E+000  
  760.50  0.0000E+000  
  761.00  0.0000E+000  
  761.50  0.0000E+000  
  762.00  0.0000E+000  
  762.50  2.0221E-005  
  763.00  2.0201E-004  
  763.50  2.1907E-004  
  764.00  1.3198E-004  
  764.50  3.3609E-005  
  765.00  0.0000E+000  
  765.50  0.0000E+000  
  766.00  0.0000E+000  
  766.50  0.0000E+000  
  767.00  0.0000E+000  
  767.50  0.0000E+000  
  768.00  0.0000E+000  
  768.50  0.0000E+000  
  769.00  0.0000E+000  
  769.50  0.0000E+000  
  770.00  0.0000E+000  
  770.50  0.0000E+000  
  771.00  0.0000E+000  
  771.50  0.0000E+000  
  772.00  0.0000E+000  
  772.50  0.0000E+000  
  773.00  0.0000E+000  
  773.50  0.0000E+000  
  774.00  0.0000E+000  
  774.50  0.0000E+000  
  775.00  0.0000E+000  
  775.50  0.0000E+000  
  776.00  0.0000E+000  
  776.50  0.0000E+000  
  777.00  0.0000E+000  
  777.50  0.0000E+000  
  778.00  2.4891E-005  
  778.50  2.1981E-006  
  779.00  0.0000E+000  
  779.50  0.0000E+000  
  780.00  0.0000E+000  
  780.50  0.0000E+000  
  781.00  0.0000E+000  
  781.50  0.0000E+000  
  782.00  0.0000E+000  
  782.50  0.0000E+000  
  783.00  0.0000E+000  
  783.50  0.0000E+000  
  784.00  0.0000E+000  
  784.50  0.0000E+000  
  785.00  0.0000E+000  
  785.50  0.0000E+000  
  786.00  0.0000E+000  
  786.50  0.0000E+000  
  787.00  0.0000E+000  
  787.50  0.0000E+000  
  788.00  0.0000E+000  
  788.50  0.0000E+000  
  789.00  0.0000E+000  
  789.50  0.0000E+000  
  790.00  0.0000E+000  
  790.50  0.0000E+000  
  791.00  0.0000E+000  
  791.50  0.0000E+000  
  792.00  0.0000E+000  
  792.50  0.0000E+000  
  793.00  0.0000E+000  
  793.50  0.0000E+000  
  794.00  0.0000E+000  
  794.50  0.0000E+000  
  795.00  0.0000E+000  
  795.50  0.0000E+000  
  796.00  0.0000E+000  
  796.50  0.0000E+000  
  797.00  0.0000E+000  
  797.50  0.0000E+000  
  798.00  0.0000E+000  
  798.50  0.0000E+000  
  799.00  0.0000E+000  
  799.50  0.0000E+000  
  800.00  0.0000E+000  
  800.50  1.3822E-005  
  801.00  0.0000E+000  
  801.50  0.0000E+000  
  802.00  0.0000E+000  
  802.50  5.7213E-005  
  803.00  5.1845E-005  
  803.50  0.0000E+000  
  804.00  0.0000E+000  
  804.50  0.0000E+000  
  805.00  0.0000E+000  
  805.50  0.0000E+000  
  806.00  0.0000E+000  
  806.50  0.0000E+000  
  807.00  0.0000E+000  
  807.50  0.0000E+000  
  808.00  0.0000E+000  
  808.50  0.0000E+000  
  809.00  1.1947E-005  
  809.50  1.0940E-004  
  810.00  1.1524E-004  
  810.50  1.0580E-004  
  811.00  2.5233E-004  
  811.50  4.8642E-004  
  812.00  4.7913E-004  
  812.50  1.7835E-004  
  813.00  0.0000E+000  
  813.50  0.0000E+000  
  814.00  0.0000E+000  
  814.50  0.0000E+000  
  815.00  0.0000E+000  
  815.50  0.0000E+000  
  816.00  0.0000E+000  
  816.50  0.0000E+000  
  817.00  0.0000E+000  
  817.50  0.0000E+000  
  818.00  0.0000E+000  
  818.50  0.0000E+000  
  819.00  0.0000E+000  
  819.50  0.0000E+000  
  820.00  0.0000E+000  
  820.50  0.0000E+000  
  821.00  0.0000E+000  
  821.50  0.0000E+000  
  822.00  0.0000E+000  
  822.50  0.0000E+000  
  823.00  0.0000E+000  
  823.50  0.0000E+000  
  824.00  0.0000E+000  
  824.50  0.0000E+000  
  825.00  0.0000E+000  
  825.50  0.0000E+000  
  826.00  0.0000E+000  
  826.50  0.0000E+000  
  827.00  0.0000E+000  
  827.50  0.0000E+000  
  828.00  0.0000E+000  
  828.50  0.0000E+000  
  829.00  0.0000E+000  
  829.50  0.0000E+000  
  830.00  0.0000E+000  
  830.50  0.0000E+000  
  831.00  0.0000E+000  
  831.50  0.0000E+000  
  832.00  0.0000E+000  
  832.50  0.0000E+000  
  833.00  0.0000E+000  
  833.50  0.0000E+000  
  834.00  0.0000E+000  
  834.50  0.0000E+000  
  835.00  0.0000E+000  
  835.50  0.0000E+000  
  836.00  0.0000E+000  
  836.50  0.0000E+000  
  837.00  0.0000E+000  
  837.50  0.0000E+000  
  838.00  0.0000E+000  
  838.50  0.0000E+000  
  839.00  0.0000E+000  
  839.50  0.0000E+000  
  840.00  0.0000E+000  
  840.50  0.0000E+000  
  841.00  0.0000E+000  
  841.50  0.0000E+000  
  842.00  3.2600E-005  
  842.50  1.1186E-004  
  843.00  0.0000E+000  
  843.50  0.0000E+000  
  844.00  0.0000E+000  
  844.50  0.0000E+000  
  845.00  0.0000E+000  
  845.50  0.0000E+000  
  846.00  0.0000E+000  
  846.50  0.0000E+000  
  847.00  0.0000E+000  
  847.50  0.0000E+000  
  848.00  0.0000E+000  
  848.50  0.0000E+000  
  849.00  0.0000E+000  
  849.50  0.0000E+000  
  850.00  0.0000E+000  
  850.50  0.0000E+000  
  851.00  0.0000E+000  
  851.50  0.0000E+000  
  852.00  0.0000E+000  
  852.50  0.0000E+000  
  853.00  0.0000E+000  
  853.50  0.0000E+000  
  854.00  0.0000E+000  
  854.50  0.0000E+000  
  855.00  0.0000E+000  
  855.50  0.0000E+000  
  856.00  0.0000E+000  
  856.50  0.0000E+000  
  857.00  0.0000E+000  
  857.50  0.0000E+000  
  858.00  6.9294E-005  
  858.50  1.1783E-004  
  859.00  1.0672E-005  
  859.50  0.0000E+000  
  860.00  0.0000E+000  
  860.50  0.0000E+000  
  861.00  0.0000E+000  
  861.50  0.0000E+000  
  862.00  0.0000E+000  
  862.50  0.0000E+000  
  863.00  0.0000E+000  
  863.50  0.0000E+000  
  864.00  0.0000E+000  
  864.50  0.0000E+000  
  865.00  0.0000E+000  
  865.50  0.0000E+000  
  866.00  0.0000E+000  
  866.50  0.0000E+000  
  867.00  0.0000E+000  
  867.50  0.0000E+000  
  868.00  0.0000E+000  
  868.50  0.0000E+000  
  869.00  0.0000E+000  
  869.50  0.0000E+000  
  870.00  0.0000E+000  
  870.50  0.0000E+000  
  871.00  0.0000E+000  
  871.50  0.0000E+000  
  872.00  0.0000E+000  
  872.50  0.0000E+000  
  873.00  0.0000E+000  
  873.50  0.0000E+000  
  874.00  0.0000E+000  
  874.50  0.0000E+000  
  875.00  0.0000E+000  
  875.50  0.0000E+000  
  876.00  0.0000E+000  
  876.50  0.0000E+000  
  877.00  0.0000E+000  
  877.50  0.0000E+000  
  878.00  0.0000E+000  
  878.50  0.0000E+000  
  879.00  0.0000E+000  
  879.50  0.0000E+000  
  880.00  0.0000E+000  
  880.50  0.0000E+000  
  881.00  0.0000E+000  
  881.50  0.0000E+000  
  882.00  0.0000E+000  
  882.50  0.0000E+000  
  883.00  0.0000E+000  
  883.50  0.0000E+000  
  884.00  0.0000E+000  
  884.50  0.0000E+000  
  885.00  0.0000E+000  
  885.50  0.0000E+000  
  886.00  0.0000E+000  
  886.50  0.0000E+000  
  887.00  0.0000E+000  
  887.50  0.0000E+000  
  888.00  0.0000E+000  
  888.50  0.0000E+000  
  889.00  0.0000E+000  
  889.50  0.0000E+000  
  890.00  0.0000E+000  
  890.50  0.0000E+000  
  891.00  0.0000E+000  
  891.50  0.0000E+000  
  892.00  0.0000E+000  
  892.50  0.0000E+000  
  893.00  0.0000E+000  
  893.50  0.0000E+000  
  894.00  0.0000E+000  
  894.50  0.0000E+000  
  895.00  0.0000E+000  
  895.50  0.0000E+000  
  896.00  0.0000E+000  
  896.50  0.0000E+000  
  897.00  0.0000E+000  
  897.50  0.0000E+000  
  898.00  0.0000E+000  
  898.50  0.0000E+000  
  899.00  0.0000E+000  
  899.50  0.0000E+000  
