
# From lspdd.org
# 
# Name: DEL Philips A19 Domestique
# Indice spectral Valeur 
# MSI 0.21 
# SLI 0.41 
# IPI 0.66 
# Pourcentage de bleu 12.8 
# Caractéristique Valeur 
# CCT calculée (K) 2496 
# CCT du fabricant (K) 2500 
# Tension (V) 120 
# Puissance (W) 8.0 
# Efficacité lumineuse (Lum/W) 58.8 
#
# Image: '/app/system/img_2s/2486/medium_image2.JPG?1413485886'
# Image: '/app/system/img_1s/2486/medium_image1.JPG?1413485887'
# 

  273.00  0.0000E+000  
  273.50  0.0000E+000  
  274.00  0.0000E+000  
  274.50  0.0000E+000  
  275.00  0.0000E+000  
  275.50  0.0000E+000  
  276.00  0.0000E+000  
  276.50  0.0000E+000  
  277.00  0.0000E+000  
  277.50  0.0000E+000  
  278.00  0.0000E+000  
  278.50  0.0000E+000  
  279.00  0.0000E+000  
  279.50  0.0000E+000  
  280.00  0.0000E+000  
  280.50  0.0000E+000  
  281.00  0.0000E+000  
  281.50  0.0000E+000  
  282.00  0.0000E+000  
  282.50  0.0000E+000  
  283.00  0.0000E+000  
  283.50  0.0000E+000  
  284.00  0.0000E+000  
  284.50  0.0000E+000  
  285.00  0.0000E+000  
  285.50  0.0000E+000  
  286.00  0.0000E+000  
  286.50  0.0000E+000  
  287.00  0.0000E+000  
  287.50  0.0000E+000  
  288.00  0.0000E+000  
  288.50  0.0000E+000  
  289.00  0.0000E+000  
  289.50  0.0000E+000  
  290.00  0.0000E+000  
  290.50  0.0000E+000  
  291.00  0.0000E+000  
  291.50  0.0000E+000  
  292.00  0.0000E+000  
  292.50  0.0000E+000  
  293.00  0.0000E+000  
  293.50  0.0000E+000  
  294.00  0.0000E+000  
  294.50  0.0000E+000  
  295.00  0.0000E+000  
  295.50  0.0000E+000  
  296.00  0.0000E+000  
  296.50  0.0000E+000  
  297.00  0.0000E+000  
  297.50  0.0000E+000  
  298.00  0.0000E+000  
  298.50  0.0000E+000  
  299.00  0.0000E+000  
  299.50  0.0000E+000  
  300.00  4.3799E-005  
  300.50  1.0495E-004  
  301.00  7.1054E-005  
  301.50  2.3616E-005  
  302.00  0.0000E+000  
  302.50  0.0000E+000  
  303.00  4.9143E-006  
  303.50  6.7740E-005  
  304.00  1.5109E-004  
  304.50  1.3362E-004  
  305.00  6.3549E-005  
  305.50  1.4229E-005  
  306.00  0.0000E+000  
  306.50  0.0000E+000  
  307.00  0.0000E+000  
  307.50  4.6122E-005  
  308.00  7.8923E-005  
  308.50  9.9262E-005  
  309.00  8.3333E-005  
  309.50  2.5141E-005  
  310.00  3.3740E-005  
  310.50  6.6367E-005  
  311.00  1.1635E-004  
  311.50  8.3756E-005  
  312.00  1.6195E-005  
  312.50  0.0000E+000  
  313.00  0.0000E+000  
  313.50  0.0000E+000  
  314.00  0.0000E+000  
  314.50  0.0000E+000  
  315.00  0.0000E+000  
  315.50  0.0000E+000  
  316.00  0.0000E+000  
  316.50  0.0000E+000  
  317.00  0.0000E+000  
  317.50  0.0000E+000  
  318.00  0.0000E+000  
  318.50  0.0000E+000  
  319.00  8.8723E-007  
  319.50  1.4538E-005  
  320.00  4.2476E-005  
  320.50  4.2985E-005  
  321.00  0.0000E+000  
  321.50  0.0000E+000  
  322.00  0.0000E+000  
  322.50  7.6673E-006  
  323.00  5.7937E-005  
  323.50  7.8827E-005  
  324.00  1.3457E-004  
  324.50  1.8658E-004  
  325.00  1.9620E-004  
  325.50  2.2271E-004  
  326.00  1.7793E-004  
  326.50  1.5644E-004  
  327.00  1.3726E-004  
  327.50  1.1368E-004  
  328.00  8.9445E-005  
  328.50  1.1301E-004  
  329.00  1.1887E-004  
  329.50  1.2473E-004  
  330.00  1.2859E-004  
  330.50  1.0808E-004  
  331.00  1.0536E-004  
  331.50  9.5419E-005  
  332.00  5.0188E-005  
  332.50  1.6729E-005  
  333.00  0.0000E+000  
  333.50  5.1972E-006  
  334.00  2.5480E-005  
  334.50  7.8106E-005  
  335.00  1.4735E-004  
  335.50  2.1257E-004  
  336.00  2.2049E-004  
  336.50  1.7151E-004  
  337.00  8.6978E-005  
  337.50  5.0179E-005  
  338.00  1.1592E-004  
  338.50  1.4724E-004  
  339.00  2.1094E-004  
  339.50  2.3659E-004  
  340.00  2.5970E-004  
  340.50  2.4957E-004  
  341.00  1.9560E-004  
  341.50  9.8296E-005  
  342.00  2.5805E-006  
  342.50  0.0000E+000  
  343.00  7.6567E-006  
  343.50  6.8935E-005  
  344.00  1.1687E-004  
  344.50  1.2769E-004  
  345.00  8.0966E-005  
  345.50  2.1775E-005  
  346.00  8.1397E-006  
  346.50  1.7078E-007  
  347.00  2.2205E-005  
  347.50  5.2918E-006  
  348.00  1.4708E-005  
  348.50  2.7841E-005  
  349.00  3.9218E-005  
  349.50  8.7129E-005  
  350.00  9.2000E-005  
  350.50  5.5288E-005  
  351.00  2.1478E-005  
  351.50  8.9765E-007  
  352.00  0.0000E+000  
  352.50  2.1630E-007  
  353.00  6.7869E-006  
  353.50  0.0000E+000  
  354.00  0.0000E+000  
  354.50  0.0000E+000  
  355.00  0.0000E+000  
  355.50  0.0000E+000  
  356.00  0.0000E+000  
  356.50  7.6247E-006  
  357.00  4.0697E-006  
  357.50  0.0000E+000  
  358.00  0.0000E+000  
  358.50  1.3593E-005  
  359.00  7.2982E-005  
  359.50  1.1305E-004  
  360.00  1.2368E-004  
  360.50  4.4044E-005  
  361.00  1.1485E-006  
  361.50  0.0000E+000  
  362.00  0.0000E+000  
  362.50  0.0000E+000  
  363.00  0.0000E+000  
  363.50  9.7444E-006  
  364.00  5.5141E-005  
  364.50  6.5402E-005  
  365.00  4.6738E-005  
  365.50  3.4199E-005  
  366.00  3.7471E-006  
  366.50  0.0000E+000  
  367.00  0.0000E+000  
  367.50  0.0000E+000  
  368.00  0.0000E+000  
  368.50  2.7431E-006  
  369.00  4.6498E-005  
  369.50  8.0567E-005  
  370.00  1.1139E-004  
  370.50  1.1362E-004  
  371.00  1.0363E-004  
  371.50  1.0563E-004  
  372.00  8.1793E-005  
  372.50  7.1236E-006  
  373.00  0.0000E+000  
  373.50  0.0000E+000  
  374.00  4.7867E-006  
  374.50  8.0045E-005  
  375.00  1.1800E-004  
  375.50  1.4580E-004  
  376.00  1.4603E-004  
  376.50  1.3278E-004  
  377.00  1.3500E-004  
  377.50  1.1409E-004  
  378.00  1.0830E-004  
  378.50  5.9169E-005  
  379.00  1.9327E-005  
  379.50  3.0778E-008  
  380.00  0.0000E+000  
  380.50  0.0000E+000  
  381.00  4.8063E-005  
  381.50  7.9071E-005  
  382.00  2.7779E-005  
  382.50  7.2210E-006  
  383.00  2.7879E-005  
  383.50  7.0580E-005  
  384.00  1.1176E-004  
  384.50  9.8588E-005  
  385.00  3.7611E-005  
  385.50  2.7540E-006  
  386.00  0.0000E+000  
  386.50  3.8644E-005  
  387.00  7.1390E-005  
  387.50  7.0214E-005  
  388.00  3.7341E-005  
  388.50  2.0261E-005  
  389.00  4.6562E-005  
  389.50  5.0856E-005  
  390.00  9.8761E-005  
  390.50  1.5724E-004  
  391.00  1.9664E-004  
  391.50  2.1099E-004  
  392.00  1.9636E-004  
  392.50  1.3296E-004  
  393.00  1.0763E-004  
  393.50  8.5997E-005  
  394.00  1.6052E-005  
  394.50  0.0000E+000  
  395.00  0.0000E+000  
  395.50  0.0000E+000  
  396.00  1.5616E-005  
  396.50  4.0351E-005  
  397.00  2.2374E-005  
  397.50  5.2563E-006  
  398.00  0.0000E+000  
  398.50  4.3431E-005  
  399.00  1.7542E-004  
  399.50  2.4475E-004  
  400.00  2.2381E-004  
  400.50  1.1481E-004  
  401.00  3.5663E-005  
  401.50  7.3138E-006  
  402.00  4.0290E-006  
  402.50  0.0000E+000  
  403.00  0.0000E+000  
  403.50  0.0000E+000  
  404.00  0.0000E+000  
  404.50  0.0000E+000  
  405.00  0.0000E+000  
  405.50  3.8465E-006  
  406.00  3.9836E-005  
  406.50  3.9927E-005  
  407.00  2.3308E-006  
  407.50  6.0439E-006  
  408.00  2.4190E-005  
  408.50  8.3430E-005  
  409.00  1.0034E-004  
  409.50  1.1160E-004  
  410.00  1.1414E-004  
  410.50  1.3325E-004  
  411.00  1.3708E-004  
  411.50  1.0094E-004  
  412.00  1.4408E-004  
  412.50  1.4411E-004  
  413.00  1.9418E-004  
  413.50  2.0677E-004  
  414.00  2.3790E-004  
  414.50  2.8337E-004  
  415.00  2.8901E-004  
  415.50  2.7341E-004  
  416.00  2.2781E-004  
  416.50  1.7528E-004  
  417.00  1.7131E-004  
  417.50  1.8378E-004  
  418.00  1.8244E-004  
  418.50  2.3618E-004  
  419.00  2.3335E-004  
  419.50  2.1574E-004  
  420.00  2.3407E-004  
  420.50  2.0861E-004  
  421.00  2.0960E-004  
  421.50  2.4513E-004  
  422.00  2.7869E-004  
  422.50  3.4958E-004  
  423.00  4.3259E-004  
  423.50  4.6742E-004  
  424.00  4.5215E-004  
  424.50  4.2351E-004  
  425.00  3.7741E-004  
  425.50  3.9522E-004  
  426.00  4.5441E-004  
  426.50  4.7705E-004  
  427.00  4.7845E-004  
  427.50  4.6766E-004  
  428.00  5.0000E-004  
  428.50  5.2780E-004  
  429.00  5.6318E-004  
  429.50  6.2932E-004  
  430.00  7.0330E-004  
  430.50  8.0138E-004  
  431.00  8.7170E-004  
  431.50  9.3686E-004  
  432.00  1.0441E-003  
  432.50  1.1681E-003  
  433.00  1.2823E-003  
  433.50  1.3619E-003  
  434.00  1.3867E-003  
  434.50  1.4037E-003  
  435.00  1.4302E-003  
  435.50  1.4957E-003  
  436.00  1.6095E-003  
  436.50  1.7254E-003  
  437.00  1.8201E-003  
  437.50  1.8822E-003  
  438.00  1.9452E-003  
  438.50  2.0289E-003  
  439.00  2.1871E-003  
  439.50  2.3526E-003  
  440.00  2.4939E-003  
  440.50  2.6169E-003  
  441.00  2.7149E-003  
  441.50  2.8569E-003  
  442.00  3.0410E-003  
  442.50  3.2071E-003  
  443.00  3.4063E-003  
  443.50  3.5703E-003  
  444.00  3.7480E-003  
  444.50  3.9584E-003  
  445.00  4.1585E-003  
  445.50  4.3558E-003  
  446.00  4.4989E-003  
  446.50  4.6439E-003  
  447.00  4.7657E-003  
  447.50  4.8878E-003  
  448.00  5.0227E-003  
  448.50  5.1409E-003  
  449.00  5.3141E-003  
  449.50  5.4684E-003  
  450.00  5.5647E-003  
  450.50  5.6578E-003  
  451.00  5.6912E-003  
  451.50  5.7427E-003  
  452.00  5.8169E-003  
  452.50  5.8670E-003  
  453.00  5.8761E-003  
  453.50  5.8644E-003  
  454.00  5.7996E-003  
  454.50  5.7258E-003  
  455.00  5.6682E-003  
  455.50  5.5546E-003  
  456.00  5.4271E-003  
  456.50  5.3045E-003  
  457.00  5.2021E-003  
  457.50  5.0905E-003  
  458.00  4.9639E-003  
  458.50  4.8409E-003  
  459.00  4.6695E-003  
  459.50  4.5182E-003  
  460.00  4.3738E-003  
  460.50  4.2518E-003  
  461.00  4.1708E-003  
  461.50  4.0851E-003  
  462.00  4.0224E-003  
  462.50  3.9927E-003  
  463.00  3.9327E-003  
  463.50  3.9193E-003  
  464.00  3.8867E-003  
  464.50  3.8940E-003  
  465.00  3.8723E-003  
  465.50  3.8378E-003  
  466.00  3.7779E-003  
  466.50  3.6923E-003  
  467.00  3.6395E-003  
  467.50  3.6058E-003  
  468.00  3.5834E-003  
  468.50  3.5751E-003  
  469.00  3.5066E-003  
  469.50  3.4343E-003  
  470.00  3.3696E-003  
  470.50  3.2859E-003  
  471.00  3.2675E-003  
  471.50  3.2250E-003  
  472.00  3.1596E-003  
  472.50  3.0834E-003  
  473.00  3.0175E-003  
  473.50  2.9911E-003  
  474.00  3.0236E-003  
  474.50  3.0208E-003  
  475.00  2.9934E-003  
  475.50  2.9422E-003  
  476.00  2.8841E-003  
  476.50  2.8941E-003  
  477.00  2.9071E-003  
  477.50  2.9767E-003  
  478.00  2.9670E-003  
  478.50  2.9808E-003  
  479.00  2.9468E-003  
  479.50  2.9369E-003  
  480.00  2.9200E-003  
  480.50  2.8970E-003  
  481.00  2.9201E-003  
  481.50  2.9048E-003  
  482.00  2.9290E-003  
  482.50  2.9420E-003  
  483.00  2.9518E-003  
  483.50  3.0015E-003  
  484.00  3.0281E-003  
  484.50  3.0964E-003  
  485.00  3.1338E-003  
  485.50  3.1277E-003  
  486.00  3.1219E-003  
  486.50  3.0903E-003  
  487.00  3.0906E-003  
  487.50  3.1217E-003  
  488.00  3.1790E-003  
  488.50  3.2706E-003  
  489.00  3.3439E-003  
  489.50  3.4039E-003  
  490.00  3.4060E-003  
  490.50  3.4223E-003  
  491.00  3.4649E-003  
  491.50  3.5029E-003  
  492.00  3.5654E-003  
  492.50  3.6032E-003  
  493.00  3.6523E-003  
  493.50  3.6955E-003  
  494.00  3.7439E-003  
  494.50  3.7820E-003  
  495.00  3.8194E-003  
  495.50  3.8844E-003  
  496.00  3.9645E-003  
  496.50  4.0463E-003  
  497.00  4.1274E-003  
  497.50  4.1829E-003  
  498.00  4.2359E-003  
  498.50  4.3159E-003  
  499.00  4.3630E-003  
  499.50  4.4317E-003  
  500.00  4.4903E-003  
  500.50  4.5261E-003  
  501.00  4.5814E-003  
  501.50  4.6438E-003  
  502.00  4.7250E-003  
  502.50  4.8088E-003  
  503.00  4.8541E-003  
  503.50  4.8948E-003  
  504.00  4.9733E-003  
  504.50  5.0600E-003  
  505.00  5.1491E-003  
  505.50  5.2164E-003  
  506.00  5.2704E-003  
  506.50  5.3332E-003  
  507.00  5.4285E-003  
  507.50  5.5241E-003  
  508.00  5.6067E-003  
  508.50  5.6338E-003  
  509.00  5.6598E-003  
  509.50  5.7103E-003  
  510.00  5.7773E-003  
  510.50  5.8638E-003  
  511.00  5.9460E-003  
  511.50  6.0154E-003  
  512.00  6.0791E-003  
  512.50  6.1433E-003  
  513.00  6.2198E-003  
  513.50  6.2927E-003  
  514.00  6.3604E-003  
  514.50  6.4504E-003  
  515.00  6.5412E-003  
  515.50  6.6419E-003  
  516.00  6.7090E-003  
  516.50  6.7888E-003  
  517.00  6.8739E-003  
  517.50  6.9726E-003  
  518.00  7.0581E-003  
  518.50  7.1279E-003  
  519.00  7.2158E-003  
  519.50  7.2869E-003  
  520.00  7.3595E-003  
  520.50  7.4014E-003  
  521.00  7.4333E-003  
  521.50  7.5177E-003  
  522.00  7.6315E-003  
  522.50  7.7197E-003  
  523.00  7.8018E-003  
  523.50  7.8759E-003  
  524.00  7.9869E-003  
  524.50  8.1097E-003  
  525.00  8.2414E-003  
  525.50  8.3468E-003  
  526.00  8.4712E-003  
  526.50  8.5797E-003  
  527.00  8.6971E-003  
  527.50  8.7848E-003  
  528.00  8.8644E-003  
  528.50  8.9402E-003  
  529.00  9.0296E-003  
  529.50  9.1421E-003  
  530.00  9.2515E-003  
  530.50  9.3828E-003  
  531.00  9.4835E-003  
  531.50  9.5999E-003  
  532.00  9.7284E-003  
  532.50  9.8474E-003  
  533.00  9.9504E-003  
  533.50  1.0012E-002  
  534.00  1.0119E-002  
  534.50  1.0269E-002  
  535.00  1.0433E-002  
  535.50  1.0554E-002  
  536.00  1.0637E-002  
  536.50  1.0754E-002  
  537.00  1.0862E-002  
  537.50  1.1003E-002  
  538.00  1.1123E-002  
  538.50  1.1252E-002  
  539.00  1.1386E-002  
  539.50  1.1529E-002  
  540.00  1.1698E-002  
  540.50  1.1865E-002  
  541.00  1.2009E-002  
  541.50  1.2125E-002  
  542.00  1.2248E-002  
  542.50  1.2372E-002  
  543.00  1.2484E-002  
  543.50  1.2588E-002  
  544.00  1.2732E-002  
  544.50  1.2882E-002  
  545.00  1.3046E-002  
  545.50  1.3211E-002  
  546.00  1.3353E-002  
  546.50  1.3473E-002  
  547.00  1.3626E-002  
  547.50  1.3809E-002  
  548.00  1.4005E-002  
  548.50  1.4171E-002  
  549.00  1.4317E-002  
  549.50  1.4464E-002  
  550.00  1.4658E-002  
  550.50  1.4852E-002  
  551.00  1.5019E-002  
  551.50  1.5149E-002  
  552.00  1.5216E-002  
  552.50  1.5312E-002  
  553.00  1.5430E-002  
  553.50  1.5586E-002  
  554.00  1.5753E-002  
  554.50  1.5916E-002  
  555.00  1.5990E-002  
  555.50  1.6064E-002  
  556.00  1.6203E-002  
  556.50  1.6404E-002  
  557.00  1.6645E-002  
  557.50  1.6776E-002  
  558.00  1.6897E-002  
  558.50  1.7066E-002  
  559.00  1.7249E-002  
  559.50  1.7439E-002  
  560.00  1.7563E-002  
  560.50  1.7659E-002  
  561.00  1.7728E-002  
  561.50  1.7820E-002  
  562.00  1.7931E-002  
  562.50  1.8085E-002  
  563.00  1.8260E-002  
  563.50  1.8413E-002  
  564.00  1.8559E-002  
  564.50  1.8646E-002  
  565.00  1.8765E-002  
  565.50  1.8861E-002  
  566.00  1.8976E-002  
  566.50  1.9149E-002  
  567.00  1.9299E-002  
  567.50  1.9477E-002  
  568.00  1.9656E-002  
  568.50  1.9790E-002  
  569.00  1.9898E-002  
  569.50  1.9955E-002  
  570.00  2.0029E-002  
  570.50  2.0154E-002  
  571.00  2.0326E-002  
  571.50  2.0445E-002  
  572.00  2.0582E-002  
  572.50  2.0672E-002  
  573.00  2.0810E-002  
  573.50  2.0886E-002  
  574.00  2.0982E-002  
  574.50  2.1062E-002  
  575.00  2.1165E-002  
  575.50  2.1275E-002  
  576.00  2.1391E-002  
  576.50  2.1507E-002  
  577.00  2.1624E-002  
  577.50  2.1737E-002  
  578.00  2.1830E-002  
  578.50  2.1954E-002  
  579.00  2.2086E-002  
  579.50  2.2230E-002  
  580.00  2.2341E-002  
  580.50  2.2480E-002  
  581.00  2.2574E-002  
  581.50  2.2686E-002  
  582.00  2.2713E-002  
  582.50  2.2764E-002  
  583.00  2.2824E-002  
  583.50  2.2886E-002  
  584.00  2.2998E-002  
  584.50  2.3094E-002  
  585.00  2.3187E-002  
  585.50  2.3225E-002  
  586.00  2.3269E-002  
  586.50  2.3417E-002  
  587.00  2.3589E-002  
  587.50  2.3753E-002  
  588.00  2.3824E-002  
  588.50  2.3859E-002  
  589.00  2.3898E-002  
  589.50  2.3978E-002  
  590.00  2.4058E-002  
  590.50  2.4138E-002  
  591.00  2.4238E-002  
  591.50  2.4349E-002  
  592.00  2.4413E-002  
  592.50  2.4434E-002  
  593.00  2.4485E-002  
  593.50  2.4507E-002  
  594.00  2.4517E-002  
  594.50  2.4535E-002  
  595.00  2.4647E-002  
  595.50  2.4814E-002  
  596.00  2.4901E-002  
  596.50  2.4956E-002  
  597.00  2.4973E-002  
  597.50  2.4962E-002  
  598.00  2.4965E-002  
  598.50  2.4988E-002  
  599.00  2.5054E-002  
  599.50  2.5097E-002  
  600.00  2.5152E-002  
  600.50  2.5187E-002  
  601.00  2.5232E-002  
  601.50  2.5226E-002  
  602.00  2.5244E-002  
  602.50  2.5211E-002  
  603.00  2.5214E-002  
  603.50  2.5159E-002  
  604.00  2.5130E-002  
  604.50  2.5117E-002  
  605.00  2.5175E-002  
  605.50  2.5271E-002  
  606.00  2.5275E-002  
  606.50  2.5224E-002  
  607.00  2.5207E-002  
  607.50  2.5278E-002  
  608.00  2.5311E-002  
  608.50  2.5304E-002  
  609.00  2.5271E-002  
  609.50  2.5262E-002  
  610.00  2.5254E-002  
  610.50  2.5161E-002  
  611.00  2.5040E-002  
  611.50  2.4931E-002  
  612.00  2.4864E-002  
  612.50  2.4863E-002  
  613.00  2.4852E-002  
  613.50  2.4862E-002  
  614.00  2.4864E-002  
  614.50  2.4901E-002  
  615.00  2.4863E-002  
  615.50  2.4777E-002  
  616.00  2.4684E-002  
  616.50  2.4629E-002  
  617.00  2.4520E-002  
  617.50  2.4448E-002  
  618.00  2.4409E-002  
  618.50  2.4407E-002  
  619.00  2.4389E-002  
  619.50  2.4294E-002  
  620.00  2.4229E-002  
  620.50  2.4118E-002  
  621.00  2.4059E-002  
  621.50  2.3989E-002  
  622.00  2.3884E-002  
  622.50  2.3772E-002  
  623.00  2.3618E-002  
  623.50  2.3508E-002  
  624.00  2.3431E-002  
  624.50  2.3381E-002  
  625.00  2.3386E-002  
  625.50  2.3372E-002  
  626.00  2.3246E-002  
  626.50  2.3095E-002  
  627.00  2.2965E-002  
  627.50  2.2847E-002  
  628.00  2.2737E-002  
  628.50  2.2541E-002  
  629.00  2.2444E-002  
  629.50  2.2374E-002  
  630.00  2.2254E-002  
  630.50  2.2181E-002  
  631.00  2.2077E-002  
  631.50  2.2062E-002  
  632.00  2.1947E-002  
  632.50  2.1830E-002  
  633.00  2.1712E-002  
  633.50  2.1637E-002  
  634.00  2.1615E-002  
  634.50  2.1529E-002  
  635.00  2.1373E-002  
  635.50  2.1140E-002  
  636.00  2.0978E-002  
  636.50  2.0880E-002  
  637.00  2.0845E-002  
  637.50  2.0776E-002  
  638.00  2.0730E-002  
  638.50  2.0598E-002  
  639.00  2.0472E-002  
  639.50  2.0301E-002  
  640.00  2.0186E-002  
  640.50  2.0017E-002  
  641.00  1.9850E-002  
  641.50  1.9697E-002  
  642.00  1.9585E-002  
  642.50  1.9471E-002  
  643.00  1.9287E-002  
  643.50  1.9079E-002  
  644.00  1.8906E-002  
  644.50  1.8819E-002  
  645.00  1.8780E-002  
  645.50  1.8689E-002  
  646.00  1.8502E-002  
  646.50  1.8340E-002  
  647.00  1.8261E-002  
  647.50  1.8257E-002  
  648.00  1.8157E-002  
  648.50  1.8020E-002  
  649.00  1.7871E-002  
  649.50  1.7731E-002  
  650.00  1.7598E-002  
  650.50  1.7423E-002  
  651.00  1.7268E-002  
  651.50  1.7096E-002  
  652.00  1.6951E-002  
  652.50  1.6819E-002  
  653.00  1.6711E-002  
  653.50  1.6582E-002  
  654.00  1.6427E-002  
  654.50  1.6229E-002  
  655.00  1.6044E-002  
  655.50  1.5973E-002  
  656.00  1.5890E-002  
  656.50  1.5798E-002  
  657.00  1.5607E-002  
  657.50  1.5475E-002  
  658.00  1.5287E-002  
  658.50  1.5122E-002  
  659.00  1.4929E-002  
  659.50  1.4827E-002  
  660.00  1.4718E-002  
  660.50  1.4650E-002  
  661.00  1.4541E-002  
  661.50  1.4396E-002  
  662.00  1.4163E-002  
  662.50  1.3935E-002  
  663.00  1.3821E-002  
  663.50  1.3742E-002  
  664.00  1.3649E-002  
  664.50  1.3472E-002  
  665.00  1.3286E-002  
  665.50  1.3149E-002  
  666.00  1.3002E-002  
  666.50  1.2938E-002  
  667.00  1.2828E-002  
  667.50  1.2713E-002  
  668.00  1.2530E-002  
  668.50  1.2383E-002  
  669.00  1.2277E-002  
  669.50  1.2163E-002  
  670.00  1.2076E-002  
  670.50  1.1974E-002  
  671.00  1.1848E-002  
  671.50  1.1710E-002  
  672.00  1.1537E-002  
  672.50  1.1390E-002  
  673.00  1.1205E-002  
  673.50  1.1095E-002  
  674.00  1.1037E-002  
  674.50  1.0987E-002  
  675.00  1.0910E-002  
  675.50  1.0761E-002  
  676.00  1.0666E-002  
  676.50  1.0536E-002  
  677.00  1.0441E-002  
  677.50  1.0314E-002  
  678.00  1.0186E-002  
  678.50  1.0155E-002  
  679.00  1.0133E-002  
  679.50  1.0020E-002  
  680.00  9.8367E-003  
  680.50  9.6680E-003  
  681.00  9.6268E-003  
  681.50  9.5769E-003  
  682.00  9.5141E-003  
  682.50  9.3971E-003  
  683.00  9.2146E-003  
  683.50  9.1045E-003  
  684.00  8.9892E-003  
  684.50  8.9118E-003  
  685.00  8.7733E-003  
  685.50  8.6599E-003  
  686.00  8.5625E-003  
  686.50  8.4663E-003  
  687.00  8.3682E-003  
  687.50  8.2412E-003  
  688.00  8.1570E-003  
  688.50  8.0841E-003  
  689.00  8.0192E-003  
  689.50  7.9333E-003  
  690.00  7.8820E-003  
  690.50  7.7583E-003  
  691.00  7.6548E-003  
  691.50  7.4852E-003  
  692.00  7.3867E-003  
  692.50  7.3032E-003  
  693.00  7.2545E-003  
  693.50  7.1999E-003  
  694.00  7.1697E-003  
  694.50  7.1534E-003  
  695.00  7.0911E-003  
  695.50  6.9446E-003  
  696.00  6.7981E-003  
  696.50  6.6924E-003  
  697.00  6.6087E-003  
  697.50  6.5888E-003  
  698.00  6.5731E-003  
  698.50  6.5819E-003  
  699.00  6.5283E-003  
  699.50  6.4347E-003  
  700.00  6.3186E-003  
  700.50  6.1836E-003  
  701.00  6.0957E-003  
  701.50  6.0752E-003  
  702.00  5.9715E-003  
  702.50  5.8391E-003  
  703.00  5.7514E-003  
  703.50  5.7653E-003  
  704.00  5.7340E-003  
  704.50  5.6444E-003  
  705.00  5.5523E-003  
  705.50  5.4741E-003  
  706.00  5.4169E-003  
  706.50  5.3461E-003  
  707.00  5.3087E-003  
  707.50  5.2994E-003  
  708.00  5.1896E-003  
  708.50  5.0729E-003  
  709.00  4.9499E-003  
  709.50  4.9367E-003  
  710.00  4.8877E-003  
  710.50  4.8457E-003  
  711.00  4.7261E-003  
  711.50  4.5879E-003  
  712.00  4.4591E-003  
  712.50  4.4726E-003  
  713.00  4.4333E-003  
  713.50  4.4131E-003  
  714.00  4.3444E-003  
  714.50  4.3033E-003  
  715.00  4.2796E-003  
  715.50  4.3710E-003  
  716.00  4.5065E-003  
  716.50  4.4798E-003  
  717.00  4.2946E-003  
  717.50  4.1682E-003  
  718.00  4.0715E-003  
  718.50  4.0859E-003  
  719.00  4.1072E-003  
  719.50  4.0303E-003  
  720.00  3.8109E-003  
  720.50  3.6422E-003  
  721.00  3.7412E-003  
  721.50  3.7190E-003  
  722.00  3.5775E-003  
  722.50  3.3771E-003  
  723.00  3.4102E-003  
  723.50  3.4519E-003  
  724.00  3.5025E-003  
  724.50  3.4935E-003  
  725.00  3.4235E-003  
  725.50  3.3699E-003  
  726.00  3.2410E-003  
  726.50  3.2174E-003  
  727.00  3.0896E-003  
  727.50  3.0472E-003  
  728.00  3.0089E-003  
  728.50  3.0538E-003  
  729.00  3.0319E-003  
  729.50  2.9952E-003  
  730.00  2.9236E-003  
  730.50  2.8574E-003  
  731.00  2.8299E-003  
  731.50  2.7824E-003  
  732.00  2.7167E-003  
  732.50  2.8008E-003  
  733.00  2.8154E-003  
  733.50  2.7656E-003  
  734.00  2.6104E-003  
  734.50  2.5761E-003  
  735.00  2.5730E-003  
  735.50  2.5421E-003  
  736.00  2.4684E-003  
  736.50  2.4534E-003  
  737.00  2.4176E-003  
  737.50  2.3617E-003  
  738.00  2.3145E-003  
  738.50  2.2559E-003  
  739.00  2.2006E-003  
  739.50  2.0893E-003  
  740.00  2.0718E-003  
  740.50  2.1639E-003  
  741.00  2.3207E-003  
  741.50  2.4132E-003  
  742.00  2.4072E-003  
  742.50  2.2502E-003  
  743.00  2.1077E-003  
  743.50  2.0597E-003  
  744.00  2.0485E-003  
  744.50  2.0239E-003  
  745.00  1.9447E-003  
  745.50  1.8490E-003  
  746.00  1.8607E-003  
  746.50  1.9066E-003  
  747.00  1.9529E-003  
  747.50  1.8964E-003  
  748.00  1.8941E-003  
  748.50  1.9497E-003  
  749.00  1.9681E-003  
  749.50  1.9285E-003  
  750.00  1.8232E-003  
  750.50  1.6950E-003  
  751.00  1.6656E-003  
  751.50  1.5989E-003  
  752.00  1.6510E-003  
  752.50  1.6012E-003  
  753.00  1.6295E-003  
  753.50  1.7141E-003  
  754.00  1.8121E-003  
  754.50  1.7591E-003  
  755.00  1.5727E-003  
  755.50  1.4883E-003  
  756.00  1.5232E-003  
  756.50  1.5150E-003  
  757.00  1.4530E-003  
  757.50  1.5140E-003  
  758.00  1.6116E-003  
  758.50  1.6603E-003  
  759.00  1.6453E-003  
  759.50  1.6015E-003  
  760.00  1.6010E-003  
  760.50  1.4834E-003  
  761.00  1.4619E-003  
  761.50  1.4319E-003  
  762.00  1.4247E-003  
  762.50  1.3090E-003  
  763.00  1.1873E-003  
  763.50  1.1517E-003  
  764.00  1.2292E-003  
  764.50  1.1941E-003  
  765.00  1.1304E-003  
  765.50  1.1376E-003  
  766.00  1.2051E-003  
  766.50  1.1888E-003  
  767.00  1.1300E-003  
  767.50  1.1161E-003  
  768.00  1.1681E-003  
  768.50  1.2391E-003  
  769.00  1.2043E-003  
  769.50  1.1342E-003  
  770.00  1.0828E-003  
  770.50  1.0978E-003  
  771.00  1.1609E-003  
  771.50  1.1097E-003  
  772.00  1.2061E-003  
  772.50  1.1738E-003  
  773.00  1.1009E-003  
  773.50  1.0473E-003  
  774.00  9.7644E-004  
  774.50  8.3410E-004  
  775.00  6.5971E-004  
  775.50  6.4308E-004  
  776.00  7.7614E-004  
  776.50  9.0845E-004  
  777.00  8.6666E-004  
  777.50  8.7742E-004  
  778.00  8.6993E-004  
  778.50  9.2016E-004  
  779.00  7.7607E-004  
  779.50  7.7939E-004  
  780.00  8.6441E-004  
  780.50  9.9442E-004  
  781.00  9.0888E-004  
  781.50  7.8372E-004  
  782.00  8.7435E-004  
  782.50  7.3823E-004  
  783.00  4.2526E-004  
  783.50  2.4650E-004  
  784.00  4.5712E-004  
  784.50  7.4208E-004  
  785.00  8.9474E-004  
  785.50  9.9411E-004  
  786.00  9.7036E-004  
  786.50  1.0915E-003  
  787.00  1.0918E-003  
  787.50  8.4546E-004  
  788.00  6.1089E-004  
  788.50  6.5924E-004  
  789.00  5.6330E-004  
  789.50  4.7080E-004  
  790.00  3.7577E-004  
  790.50  3.8069E-004  
  791.00  3.3577E-004  
  791.50  4.2148E-004  
  792.00  5.9355E-004  
  792.50  7.8838E-004  
  793.00  8.4315E-004  
  793.50  8.7153E-004  
  794.00  8.1371E-004  
  794.50  8.1437E-004  
  795.00  6.2980E-004  
  795.50  4.6095E-004  
  796.00  5.0027E-004  
  796.50  7.1152E-004  
  797.00  6.7939E-004  
  797.50  6.7661E-004  
  798.00  8.9967E-004  
  798.50  8.6262E-004  
  799.00  6.7979E-004  
  799.50  4.3969E-004  
  800.00  5.2283E-004  
  800.50  6.0719E-004  
  801.00  6.0954E-004  
  801.50  5.8563E-004  
  802.00  5.4517E-004  
  802.50  6.2362E-004  
  803.00  5.2689E-004  
  803.50  3.2183E-004  
  804.00  2.0235E-004  
  804.50  3.1213E-004  
  805.00  5.6941E-004  
  805.50  5.6583E-004  
  806.00  5.6029E-004  
  806.50  5.6883E-004  
  807.00  3.7418E-004  
  807.50  1.3086E-004  
  808.00  1.6433E-004  
  808.50  2.7646E-004  
  809.00  2.6515E-004  
  809.50  3.0238E-004  
  810.00  4.3712E-004  
  810.50  4.4186E-004  
  811.00  3.3307E-004  
  811.50  8.7973E-005  
  812.00  6.2743E-005  
  812.50  1.4858E-004  
  813.00  2.9311E-004  
  813.50  4.2080E-004  
  814.00  4.7612E-004  
  814.50  3.3557E-004  
  815.00  5.4426E-004  
  815.50  4.3232E-004  
  816.00  2.3741E-004  
  816.50  5.0231E-005  
  817.00  2.5511E-004  
  817.50  2.4769E-004  
  818.00  3.1317E-004  
  818.50  3.2123E-004  
  819.00  4.1993E-004  
  819.50  4.2122E-004  
  820.00  3.8460E-004  
  820.50  4.5085E-004  
  821.00  6.9113E-004  
  821.50  6.8494E-004  
  822.00  2.1850E-004  
  822.50  0.0000E+000  
  823.00  0.0000E+000  
  823.50  3.7687E-004  
  824.00  5.5133E-004  
  824.50  3.9429E-004  
  825.00  5.9387E-004  
  825.50  4.4264E-004  
  826.00  2.2943E-004  
  826.50  2.1210E-004  
  827.00  2.9590E-004  
  827.50  4.9474E-004  
  828.00  5.6646E-004  
  828.50  5.8532E-004  
  829.00  4.2375E-004  
  829.50  2.8027E-005  
  830.00  0.0000E+000  
  830.50  1.8217E-004  
  831.00  5.1051E-004  
  831.50  2.1833E-004  
  832.00  9.7116E-006  
  832.50  5.7071E-005  
  833.00  2.0907E-004  
  833.50  1.3059E-004  
  834.00  0.0000E+000  
  834.50  0.0000E+000  
  835.00  0.0000E+000  
  835.50  0.0000E+000  
  836.00  0.0000E+000  
  836.50  1.9823E-004  
  837.00  6.5588E-004  
  837.50  4.8983E-004  
  838.00  5.5095E-006  
  838.50  0.0000E+000  
  839.00  0.0000E+000  
  839.50  3.1203E-006  
  840.00  1.3963E-004  
  840.50  2.5284E-004  
  841.00  2.0762E-004  
  841.50  2.1751E-004  
  842.00  5.9157E-004  
  842.50  8.6880E-004  
  843.00  1.0015E-003  
  843.50  7.7487E-004  
  844.00  5.0185E-004  
  844.50  9.3157E-005  
  845.00  1.7926E-005  
  845.50  1.3173E-004  
  846.00  0.0000E+000  
  846.50  0.0000E+000  
  847.00  4.2461E-004  
  847.50  6.2560E-004  
  848.00  4.7722E-004  
  848.50  3.9837E-004  
  849.00  1.1692E-004  
  849.50  0.0000E+000  
  850.00  4.4295E-005  
  850.50  4.0275E-004  
  851.00  4.7977E-004  
  851.50  2.3977E-004  
  852.00  3.3770E-005  
  852.50  2.4926E-004  
  853.00  6.3223E-004  
  853.50  5.7040E-004  
  854.00  1.0278E-004  
  854.50  0.0000E+000  
  855.00  0.0000E+000  
  855.50  0.0000E+000  
  856.00  4.9168E-004  
  856.50  1.1683E-003  
  857.00  8.9982E-004  
  857.50  4.8572E-004  
  858.00  1.7321E-004  
  858.50  5.6823E-005  
  859.00  2.4015E-004  
  859.50  6.1049E-004  
  860.00  3.1675E-004  
  860.50  3.8151E-004  
  861.00  2.5053E-004  
  861.50  0.0000E+000  
  862.00  0.0000E+000  
  862.50  0.0000E+000  
  863.00  0.0000E+000  
  863.50  0.0000E+000  
  864.00  1.0310E-004  
  864.50  4.4695E-004  
  865.00  6.9380E-004  
  865.50  1.6067E-004  
  866.00  0.0000E+000  
  866.50  0.0000E+000  
  867.00  0.0000E+000  
  867.50  0.0000E+000  
  868.00  0.0000E+000  
  868.50  0.0000E+000  
  869.00  0.0000E+000  
  869.50  0.0000E+000  
  870.00  0.0000E+000  
  870.50  0.0000E+000  
  871.00  0.0000E+000  
  871.50  0.0000E+000  
  872.00  0.0000E+000  
  872.50  0.0000E+000  
  873.00  0.0000E+000  
  873.50  0.0000E+000  
  874.00  0.0000E+000  
  874.50  0.0000E+000  
  875.00  4.9485E-004  
  875.50  1.2949E-003  
  876.00  1.8267E-003  
  876.50  1.0708E-003  
  877.00  3.3919E-004  
  877.50  3.1077E-004  
  878.00  3.3710E-004  
  878.50  5.1502E-004  
  879.00  8.7324E-004  
  879.50  2.7642E-004  
  880.00  0.0000E+000  
  880.50  0.0000E+000  
  881.00  0.0000E+000  
  881.50  7.6915E-005  
  882.00  0.0000E+000  
  882.50  0.0000E+000  
  883.00  0.0000E+000  
  883.50  0.0000E+000  
  884.00  0.0000E+000  
  884.50  0.0000E+000  
  885.00  3.7721E-004  
  885.50  2.6727E-004  
  886.00  4.2437E-004  
  886.50  2.9049E-004  
  887.00  3.0877E-004  
  887.50  0.0000E+000  
  888.00  0.0000E+000  
  888.50  1.5331E-004  
  889.00  8.4424E-004  
  889.50  8.2540E-004  
  890.00  0.0000E+000  
  890.50  0.0000E+000  
  891.00  0.0000E+000  
  891.50  0.0000E+000  
  892.00  9.3717E-004  
  892.50  8.6467E-004  
  893.00  9.6820E-004  
  893.50  1.1944E-003  
  894.00  6.1192E-004  
  894.50  3.7035E-006  
  895.00  1.1510E-004  
  895.50  2.1137E-004  
  896.00  2.8161E-005  
  896.50  0.0000E+000  
  897.00  0.0000E+000  
  897.50  2.5454E-004  
  898.00  1.2388E-003  
  898.50  5.4072E-004  
  899.00  1.5115E-004  
  899.50  3.7507E-006  
