
# From lspdd.org
# 
# Name: DEL Philips PAR20 Flood Domestique
# Indice spectral Valeur 
# MSI 0.28 
# SLI 0.49 
# IPI 0.64 
# Pourcentage de bleu 19.0 
# Caractéristique Valeur 
# CCT calculée (K) 2890 
# CCT du fabricant (K) 3000 
# Tension (V) 120 
# Puissance (W) 8.0 
# Efficacité lumineuse (Lum/W) 58.8 
#
# Image: '/app/system/img_2s/2487/medium_image2.JPG?1413485890'
# Image: '/app/system/img_1s/2487/medium_image1.jpg?1413485899'
# 

  273.00  0.0000E+000  
  273.50  0.0000E+000  
  274.00  0.0000E+000  
  274.50  0.0000E+000  
  275.00  0.0000E+000  
  275.50  0.0000E+000  
  276.00  0.0000E+000  
  276.50  0.0000E+000  
  277.00  0.0000E+000  
  277.50  0.0000E+000  
  278.00  0.0000E+000  
  278.50  0.0000E+000  
  279.00  0.0000E+000  
  279.50  0.0000E+000  
  280.00  0.0000E+000  
  280.50  0.0000E+000  
  281.00  0.0000E+000  
  281.50  0.0000E+000  
  282.00  0.0000E+000  
  282.50  0.0000E+000  
  283.00  0.0000E+000  
  283.50  0.0000E+000  
  284.00  0.0000E+000  
  284.50  0.0000E+000  
  285.00  0.0000E+000  
  285.50  0.0000E+000  
  286.00  0.0000E+000  
  286.50  0.0000E+000  
  287.00  0.0000E+000  
  287.50  0.0000E+000  
  288.00  0.0000E+000  
  288.50  0.0000E+000  
  289.00  0.0000E+000  
  289.50  0.0000E+000  
  290.00  0.0000E+000  
  290.50  0.0000E+000  
  291.00  0.0000E+000  
  291.50  0.0000E+000  
  292.00  0.0000E+000  
  292.50  0.0000E+000  
  293.00  0.0000E+000  
  293.50  0.0000E+000  
  294.00  0.0000E+000  
  294.50  0.0000E+000  
  295.00  0.0000E+000  
  295.50  0.0000E+000  
  296.00  0.0000E+000  
  296.50  0.0000E+000  
  297.00  0.0000E+000  
  297.50  0.0000E+000  
  298.00  0.0000E+000  
  298.50  0.0000E+000  
  299.00  0.0000E+000  
  299.50  0.0000E+000  
  300.00  0.0000E+000  
  300.50  0.0000E+000  
  301.00  0.0000E+000  
  301.50  0.0000E+000  
  302.00  0.0000E+000  
  302.50  0.0000E+000  
  303.00  0.0000E+000  
  303.50  0.0000E+000  
  304.00  0.0000E+000  
  304.50  0.0000E+000  
  305.00  0.0000E+000  
  305.50  0.0000E+000  
  306.00  0.0000E+000  
  306.50  0.0000E+000  
  307.00  0.0000E+000  
  307.50  0.0000E+000  
  308.00  0.0000E+000  
  308.50  0.0000E+000  
  309.00  0.0000E+000  
  309.50  0.0000E+000  
  310.00  0.0000E+000  
  310.50  0.0000E+000  
  311.00  0.0000E+000  
  311.50  0.0000E+000  
  312.00  0.0000E+000  
  312.50  0.0000E+000  
  313.00  0.0000E+000  
  313.50  0.0000E+000  
  314.00  0.0000E+000  
  314.50  0.0000E+000  
  315.00  0.0000E+000  
  315.50  0.0000E+000  
  316.00  0.0000E+000  
  316.50  0.0000E+000  
  317.00  0.0000E+000  
  317.50  0.0000E+000  
  318.00  0.0000E+000  
  318.50  0.0000E+000  
  319.00  0.0000E+000  
  319.50  0.0000E+000  
  320.00  0.0000E+000  
  320.50  0.0000E+000  
  321.00  0.0000E+000  
  321.50  0.0000E+000  
  322.00  0.0000E+000  
  322.50  0.0000E+000  
  323.00  0.0000E+000  
  323.50  0.0000E+000  
  324.00  0.0000E+000  
  324.50  0.0000E+000  
  325.00  0.0000E+000  
  325.50  0.0000E+000  
  326.00  0.0000E+000  
  326.50  0.0000E+000  
  327.00  0.0000E+000  
  327.50  0.0000E+000  
  328.00  0.0000E+000  
  328.50  0.0000E+000  
  329.00  0.0000E+000  
  329.50  0.0000E+000  
  330.00  0.0000E+000  
  330.50  0.0000E+000  
  331.00  0.0000E+000  
  331.50  0.0000E+000  
  332.00  0.0000E+000  
  332.50  0.0000E+000  
  333.00  0.0000E+000  
  333.50  0.0000E+000  
  334.00  0.0000E+000  
  334.50  0.0000E+000  
  335.00  0.0000E+000  
  335.50  0.0000E+000  
  336.00  0.0000E+000  
  336.50  0.0000E+000  
  337.00  0.0000E+000  
  337.50  0.0000E+000  
  338.00  0.0000E+000  
  338.50  0.0000E+000  
  339.00  0.0000E+000  
  339.50  0.0000E+000  
  340.00  0.0000E+000  
  340.50  0.0000E+000  
  341.00  0.0000E+000  
  341.50  0.0000E+000  
  342.00  0.0000E+000  
  342.50  0.0000E+000  
  343.00  0.0000E+000  
  343.50  0.0000E+000  
  344.00  0.0000E+000  
  344.50  0.0000E+000  
  345.00  0.0000E+000  
  345.50  0.0000E+000  
  346.00  0.0000E+000  
  346.50  0.0000E+000  
  347.00  0.0000E+000  
  347.50  0.0000E+000  
  348.00  0.0000E+000  
  348.50  0.0000E+000  
  349.00  0.0000E+000  
  349.50  0.0000E+000  
  350.00  0.0000E+000  
  350.50  0.0000E+000  
  351.00  0.0000E+000  
  351.50  0.0000E+000  
  352.00  0.0000E+000  
  352.50  0.0000E+000  
  353.00  0.0000E+000  
  353.50  0.0000E+000  
  354.00  0.0000E+000  
  354.50  0.0000E+000  
  355.00  0.0000E+000  
  355.50  0.0000E+000  
  356.00  0.0000E+000  
  356.50  0.0000E+000  
  357.00  0.0000E+000  
  357.50  0.0000E+000  
  358.00  0.0000E+000  
  358.50  0.0000E+000  
  359.00  0.0000E+000  
  359.50  0.0000E+000  
  360.00  0.0000E+000  
  360.50  0.0000E+000  
  361.00  0.0000E+000  
  361.50  0.0000E+000  
  362.00  0.0000E+000  
  362.50  0.0000E+000  
  363.00  0.0000E+000  
  363.50  0.0000E+000  
  364.00  0.0000E+000  
  364.50  0.0000E+000  
  365.00  0.0000E+000  
  365.50  0.0000E+000  
  366.00  0.0000E+000  
  366.50  0.0000E+000  
  367.00  0.0000E+000  
  367.50  0.0000E+000  
  368.00  0.0000E+000  
  368.50  0.0000E+000  
  369.00  0.0000E+000  
  369.50  0.0000E+000  
  370.00  0.0000E+000  
  370.50  0.0000E+000  
  371.00  0.0000E+000  
  371.50  0.0000E+000  
  372.00  0.0000E+000  
  372.50  0.0000E+000  
  373.00  0.0000E+000  
  373.50  0.0000E+000  
  374.00  0.0000E+000  
  374.50  0.0000E+000  
  375.00  0.0000E+000  
  375.50  0.0000E+000  
  376.00  0.0000E+000  
  376.50  0.0000E+000  
  377.00  0.0000E+000  
  377.50  0.0000E+000  
  378.00  0.0000E+000  
  378.50  0.0000E+000  
  379.00  0.0000E+000  
  379.50  0.0000E+000  
  380.00  0.0000E+000  
  380.50  0.0000E+000  
  381.00  0.0000E+000  
  381.50  0.0000E+000  
  382.00  0.0000E+000  
  382.50  0.0000E+000  
  383.00  0.0000E+000  
  383.50  0.0000E+000  
  384.00  0.0000E+000  
  384.50  0.0000E+000  
  385.00  0.0000E+000  
  385.50  0.0000E+000  
  386.00  0.0000E+000  
  386.50  0.0000E+000  
  387.00  0.0000E+000  
  387.50  0.0000E+000  
  388.00  0.0000E+000  
  388.50  0.0000E+000  
  389.00  0.0000E+000  
  389.50  0.0000E+000  
  390.00  0.0000E+000  
  390.50  0.0000E+000  
  391.00  0.0000E+000  
  391.50  0.0000E+000  
  392.00  0.0000E+000  
  392.50  0.0000E+000  
  393.00  0.0000E+000  
  393.50  0.0000E+000  
  394.00  0.0000E+000  
  394.50  0.0000E+000  
  395.00  0.0000E+000  
  395.50  0.0000E+000  
  396.00  0.0000E+000  
  396.50  0.0000E+000  
  397.00  0.0000E+000  
  397.50  0.0000E+000  
  398.00  0.0000E+000  
  398.50  0.0000E+000  
  399.00  0.0000E+000  
  399.50  0.0000E+000  
  400.00  0.0000E+000  
  400.50  0.0000E+000  
  401.00  0.0000E+000  
  401.50  0.0000E+000  
  402.00  0.0000E+000  
  402.50  0.0000E+000  
  403.00  0.0000E+000  
  403.50  0.0000E+000  
  404.00  0.0000E+000  
  404.50  0.0000E+000  
  405.00  0.0000E+000  
  405.50  0.0000E+000  
  406.00  0.0000E+000  
  406.50  0.0000E+000  
  407.00  0.0000E+000  
  407.50  0.0000E+000  
  408.00  0.0000E+000  
  408.50  0.0000E+000  
  409.00  0.0000E+000  
  409.50  0.0000E+000  
  410.00  0.0000E+000  
  410.50  5.2058E-005  
  411.00  5.0721E-005  
  411.50  3.3350E-005  
  412.00  1.7997E-005  
  412.50  3.7173E-005  
  413.00  1.2977E-004  
  413.50  2.1226E-004  
  414.00  3.0369E-004  
  414.50  3.3852E-004  
  415.00  3.8014E-004  
  415.50  4.5946E-004  
  416.00  5.3487E-004  
  416.50  6.5639E-004  
  417.00  7.4160E-004  
  417.50  8.4345E-004  
  418.00  9.5942E-004  
  418.50  9.8929E-004  
  419.00  1.0302E-003  
  419.50  1.1372E-003  
  420.00  1.2632E-003  
  420.50  1.4678E-003  
  421.00  1.6281E-003  
  421.50  1.7879E-003  
  422.00  1.9591E-003  
  422.50  2.0896E-003  
  423.00  2.2721E-003  
  423.50  2.3599E-003  
  424.00  2.4753E-003  
  424.50  2.6144E-003  
  425.00  2.7734E-003  
  425.50  2.9993E-003  
  426.00  3.1825E-003  
  426.50  3.3686E-003  
  427.00  3.5437E-003  
  427.50  3.7151E-003  
  428.00  3.9231E-003  
  428.50  4.1283E-003  
  429.00  4.3563E-003  
  429.50  4.6040E-003  
  430.00  4.8146E-003  
  430.50  5.0098E-003  
  431.00  5.1625E-003  
  431.50  5.2555E-003  
  432.00  5.3363E-003  
  432.50  5.4915E-003  
  433.00  5.7472E-003  
  433.50  5.9992E-003  
  434.00  6.2081E-003  
  434.50  6.2975E-003  
  435.00  6.4176E-003  
  435.50  6.5878E-003  
  436.00  6.7965E-003  
  436.50  7.0530E-003  
  437.00  7.3194E-003  
  437.50  7.5374E-003  
  438.00  7.6458E-003  
  438.50  7.6994E-003  
  439.00  7.8149E-003  
  439.50  7.9921E-003  
  440.00  8.2202E-003  
  440.50  8.3888E-003  
  441.00  8.5686E-003  
  441.50  8.8122E-003  
  442.00  9.0918E-003  
  442.50  9.3081E-003  
  443.00  9.5107E-003  
  443.50  9.6191E-003  
  444.00  9.7359E-003  
  444.50  9.9208E-003  
  445.00  1.0080E-002  
  445.50  1.0263E-002  
  446.00  1.0362E-002  
  446.50  1.0385E-002  
  447.00  1.0318E-002  
  447.50  1.0238E-002  
  448.00  1.0145E-002  
  448.50  9.9854E-003  
  449.00  9.8132E-003  
  449.50  9.5584E-003  
  450.00  9.3242E-003  
  450.50  9.0810E-003  
  451.00  8.8135E-003  
  451.50  8.4987E-003  
  452.00  8.1547E-003  
  452.50  7.8056E-003  
  453.00  7.4681E-003  
  453.50  7.1227E-003  
  454.00  6.7921E-003  
  454.50  6.4107E-003  
  455.00  6.0519E-003  
  455.50  5.7296E-003  
  456.00  5.4866E-003  
  456.50  5.3488E-003  
  457.00  5.2565E-003  
  457.50  5.1093E-003  
  458.00  4.9151E-003  
  458.50  4.6652E-003  
  459.00  4.4631E-003  
  459.50  4.3466E-003  
  460.00  4.2681E-003  
  460.50  4.1421E-003  
  461.00  3.9807E-003  
  461.50  3.8454E-003  
  462.00  3.7218E-003  
  462.50  3.6479E-003  
  463.00  3.5674E-003  
  463.50  3.4963E-003  
  464.00  3.4663E-003  
  464.50  3.4481E-003  
  465.00  3.3948E-003  
  465.50  3.3354E-003  
  466.00  3.2427E-003  
  466.50  3.1620E-003  
  467.00  3.0333E-003  
  467.50  2.8855E-003  
  468.00  2.7902E-003  
  468.50  2.7609E-003  
  469.00  2.7472E-003  
  469.50  2.7010E-003  
  470.00  2.6569E-003  
  470.50  2.5822E-003  
  471.00  2.5679E-003  
  471.50  2.5364E-003  
  472.00  2.5047E-003  
  472.50  2.4601E-003  
  473.00  2.4111E-003  
  473.50  2.3400E-003  
  474.00  2.3191E-003  
  474.50  2.3053E-003  
  475.00  2.3216E-003  
  475.50  2.3571E-003  
  476.00  2.3773E-003  
  476.50  2.4003E-003  
  477.00  2.3833E-003  
  477.50  2.3690E-003  
  478.00  2.3746E-003  
  478.50  2.4110E-003  
  479.00  2.4756E-003  
  479.50  2.5337E-003  
  480.00  2.5784E-003  
  480.50  2.6262E-003  
  481.00  2.6863E-003  
  481.50  2.7673E-003  
  482.00  2.8561E-003  
  482.50  2.9078E-003  
  483.00  2.9127E-003  
  483.50  2.9398E-003  
  484.00  2.9520E-003  
  484.50  3.0195E-003  
  485.00  3.0737E-003  
  485.50  3.1461E-003  
  486.00  3.2336E-003  
  486.50  3.3356E-003  
  487.00  3.4273E-003  
  487.50  3.5349E-003  
  488.00  3.6369E-003  
  488.50  3.7524E-003  
  489.00  3.8869E-003  
  489.50  3.9942E-003  
  490.00  4.0915E-003  
  490.50  4.2107E-003  
  491.00  4.3667E-003  
  491.50  4.5560E-003  
  492.00  4.7003E-003  
  492.50  4.8346E-003  
  493.00  4.9619E-003  
  493.50  5.0952E-003  
  494.00  5.2066E-003  
  494.50  5.3303E-003  
  495.00  5.4697E-003  
  495.50  5.6656E-003  
  496.00  5.8837E-003  
  496.50  6.1101E-003  
  497.00  6.3214E-003  
  497.50  6.4785E-003  
  498.00  6.6143E-003  
  498.50  6.7678E-003  
  499.00  6.9483E-003  
  499.50  7.1507E-003  
  500.00  7.3445E-003  
  500.50  7.5391E-003  
  501.00  7.7348E-003  
  501.50  7.9071E-003  
  502.00  8.0944E-003  
  502.50  8.2763E-003  
  503.00  8.4457E-003  
  503.50  8.6022E-003  
  504.00  8.7581E-003  
  504.50  8.9121E-003  
  505.00  9.0739E-003  
  505.50  9.2289E-003  
  506.00  9.4159E-003  
  506.50  9.6188E-003  
  507.00  9.8393E-003  
  507.50  1.0014E-002  
  508.00  1.0150E-002  
  508.50  1.0291E-002  
  509.00  1.0442E-002  
  509.50  1.0576E-002  
  510.00  1.0721E-002  
  510.50  1.0817E-002  
  511.00  1.0974E-002  
  511.50  1.1143E-002  
  512.00  1.1307E-002  
  512.50  1.1473E-002  
  513.00  1.1599E-002  
  513.50  1.1726E-002  
  514.00  1.1867E-002  
  514.50  1.2026E-002  
  515.00  1.2156E-002  
  515.50  1.2272E-002  
  516.00  1.2357E-002  
  516.50  1.2440E-002  
  517.00  1.2528E-002  
  517.50  1.2609E-002  
  518.00  1.2702E-002  
  518.50  1.2835E-002  
  519.00  1.3011E-002  
  519.50  1.3158E-002  
  520.00  1.3281E-002  
  520.50  1.3335E-002  
  521.00  1.3338E-002  
  521.50  1.3369E-002  
  522.00  1.3418E-002  
  522.50  1.3535E-002  
  523.00  1.3643E-002  
  523.50  1.3735E-002  
  524.00  1.3823E-002  
  524.50  1.3947E-002  
  525.00  1.4058E-002  
  525.50  1.4121E-002  
  526.00  1.4140E-002  
  526.50  1.4228E-002  
  527.00  1.4313E-002  
  527.50  1.4422E-002  
  528.00  1.4461E-002  
  528.50  1.4497E-002  
  529.00  1.4556E-002  
  529.50  1.4661E-002  
  530.00  1.4750E-002  
  530.50  1.4825E-002  
  531.00  1.4895E-002  
  531.50  1.4941E-002  
  532.00  1.4991E-002  
  532.50  1.5046E-002  
  533.00  1.5119E-002  
  533.50  1.5180E-002  
  534.00  1.5228E-002  
  534.50  1.5241E-002  
  535.00  1.5303E-002  
  535.50  1.5407E-002  
  536.00  1.5511E-002  
  536.50  1.5558E-002  
  537.00  1.5596E-002  
  537.50  1.5634E-002  
  538.00  1.5736E-002  
  538.50  1.5822E-002  
  539.00  1.5887E-002  
  539.50  1.5929E-002  
  540.00  1.5949E-002  
  540.50  1.6032E-002  
  541.00  1.6128E-002  
  541.50  1.6196E-002  
  542.00  1.6239E-002  
  542.50  1.6251E-002  
  543.00  1.6269E-002  
  543.50  1.6310E-002  
  544.00  1.6369E-002  
  544.50  1.6443E-002  
  545.00  1.6570E-002  
  545.50  1.6686E-002  
  546.00  1.6781E-002  
  546.50  1.6853E-002  
  547.00  1.6865E-002  
  547.50  1.6902E-002  
  548.00  1.6952E-002  
  548.50  1.7031E-002  
  549.00  1.7152E-002  
  549.50  1.7263E-002  
  550.00  1.7338E-002  
  550.50  1.7346E-002  
  551.00  1.7401E-002  
  551.50  1.7496E-002  
  552.00  1.7623E-002  
  552.50  1.7754E-002  
  553.00  1.7893E-002  
  553.50  1.8071E-002  
  554.00  1.8174E-002  
  554.50  1.8219E-002  
  555.00  1.8239E-002  
  555.50  1.8275E-002  
  556.00  1.8337E-002  
  556.50  1.8382E-002  
  557.00  1.8463E-002  
  557.50  1.8622E-002  
  558.00  1.8789E-002  
  558.50  1.8899E-002  
  559.00  1.9020E-002  
  559.50  1.9066E-002  
  560.00  1.9202E-002  
  560.50  1.9295E-002  
  561.00  1.9415E-002  
  561.50  1.9501E-002  
  562.00  1.9600E-002  
  562.50  1.9722E-002  
  563.00  1.9834E-002  
  563.50  1.9926E-002  
  564.00  1.9995E-002  
  564.50  2.0069E-002  
  565.00  2.0180E-002  
  565.50  2.0325E-002  
  566.00  2.0471E-002  
  566.50  2.0638E-002  
  567.00  2.0703E-002  
  567.50  2.0784E-002  
  568.00  2.0819E-002  
  568.50  2.0970E-002  
  569.00  2.1099E-002  
  569.50  2.1237E-002  
  570.00  2.1339E-002  
  570.50  2.1459E-002  
  571.00  2.1612E-002  
  571.50  2.1756E-002  
  572.00  2.1890E-002  
  572.50  2.2024E-002  
  573.00  2.2129E-002  
  573.50  2.2240E-002  
  574.00  2.2310E-002  
  574.50  2.2415E-002  
  575.00  2.2565E-002  
  575.50  2.2668E-002  
  576.00  2.2800E-002  
  576.50  2.2880E-002  
  577.00  2.3008E-002  
  577.50  2.3147E-002  
  578.00  2.3294E-002  
  578.50  2.3467E-002  
  579.00  2.3611E-002  
  579.50  2.3700E-002  
  580.00  2.3817E-002  
  580.50  2.3895E-002  
  581.00  2.4016E-002  
  581.50  2.4101E-002  
  582.00  2.4249E-002  
  582.50  2.4391E-002  
  583.00  2.4487E-002  
  583.50  2.4573E-002  
  584.00  2.4679E-002  
  584.50  2.4842E-002  
  585.00  2.5029E-002  
  585.50  2.5103E-002  
  586.00  2.5164E-002  
  586.50  2.5216E-002  
  587.00  2.5269E-002  
  587.50  2.5397E-002  
  588.00  2.5500E-002  
  588.50  2.5623E-002  
  589.00  2.5715E-002  
  589.50  2.5784E-002  
  590.00  2.5918E-002  
  590.50  2.6021E-002  
  591.00  2.6070E-002  
  591.50  2.6124E-002  
  592.00  2.6150E-002  
  592.50  2.6286E-002  
  593.00  2.6342E-002  
  593.50  2.6356E-002  
  594.00  2.6430E-002  
  594.50  2.6492E-002  
  595.00  2.6622E-002  
  595.50  2.6604E-002  
  596.00  2.6591E-002  
  596.50  2.6641E-002  
  597.00  2.6812E-002  
  597.50  2.6953E-002  
  598.00  2.7061E-002  
  598.50  2.7098E-002  
  599.00  2.7106E-002  
  599.50  2.7092E-002  
  600.00  2.7049E-002  
  600.50  2.7106E-002  
  601.00  2.7148E-002  
  601.50  2.7161E-002  
  602.00  2.7108E-002  
  602.50  2.7075E-002  
  603.00  2.7133E-002  
  603.50  2.7205E-002  
  604.00  2.7327E-002  
  604.50  2.7355E-002  
  605.00  2.7324E-002  
  605.50  2.7224E-002  
  606.00  2.7224E-002  
  606.50  2.7255E-002  
  607.00  2.7314E-002  
  607.50  2.7294E-002  
  608.00  2.7287E-002  
  608.50  2.7269E-002  
  609.00  2.7180E-002  
  609.50  2.7109E-002  
  610.00  2.7064E-002  
  610.50  2.7061E-002  
  611.00  2.7066E-002  
  611.50  2.7037E-002  
  612.00  2.7029E-002  
  612.50  2.6961E-002  
  613.00  2.6865E-002  
  613.50  2.6793E-002  
  614.00  2.6695E-002  
  614.50  2.6651E-002  
  615.00  2.6624E-002  
  615.50  2.6576E-002  
  616.00  2.6535E-002  
  616.50  2.6455E-002  
  617.00  2.6387E-002  
  617.50  2.6258E-002  
  618.00  2.6133E-002  
  618.50  2.6043E-002  
  619.00  2.5989E-002  
  619.50  2.5917E-002  
  620.00  2.5875E-002  
  620.50  2.5783E-002  
  621.00  2.5669E-002  
  621.50  2.5506E-002  
  622.00  2.5377E-002  
  622.50  2.5189E-002  
  623.00  2.5082E-002  
  623.50  2.4949E-002  
  624.00  2.4890E-002  
  624.50  2.4818E-002  
  625.00  2.4770E-002  
  625.50  2.4744E-002  
  626.00  2.4590E-002  
  626.50  2.4369E-002  
  627.00  2.4162E-002  
  627.50  2.3998E-002  
  628.00  2.3878E-002  
  628.50  2.3824E-002  
  629.00  2.3774E-002  
  629.50  2.3720E-002  
  630.00  2.3546E-002  
  630.50  2.3364E-002  
  631.00  2.3226E-002  
  631.50  2.3135E-002  
  632.00  2.3006E-002  
  632.50  2.2799E-002  
  633.00  2.2558E-002  
  633.50  2.2373E-002  
  634.00  2.2279E-002  
  634.50  2.2162E-002  
  635.00  2.2060E-002  
  635.50  2.1929E-002  
  636.00  2.1871E-002  
  636.50  2.1795E-002  
  637.00  2.1654E-002  
  637.50  2.1495E-002  
  638.00  2.1312E-002  
  638.50  2.1148E-002  
  639.00  2.0933E-002  
  639.50  2.0728E-002  
  640.00  2.0583E-002  
  640.50  2.0439E-002  
  641.00  2.0294E-002  
  641.50  2.0118E-002  
  642.00  1.9940E-002  
  642.50  1.9816E-002  
  643.00  1.9638E-002  
  643.50  1.9496E-002  
  644.00  1.9293E-002  
  644.50  1.9125E-002  
  645.00  1.8931E-002  
  645.50  1.8752E-002  
  646.00  1.8564E-002  
  646.50  1.8394E-002  
  647.00  1.8276E-002  
  647.50  1.8151E-002  
  648.00  1.8042E-002  
  648.50  1.7879E-002  
  649.00  1.7715E-002  
  649.50  1.7525E-002  
  650.00  1.7328E-002  
  650.50  1.7145E-002  
  651.00  1.6955E-002  
  651.50  1.6760E-002  
  652.00  1.6627E-002  
  652.50  1.6527E-002  
  653.00  1.6465E-002  
  653.50  1.6325E-002  
  654.00  1.6117E-002  
  654.50  1.5862E-002  
  655.00  1.5623E-002  
  655.50  1.5434E-002  
  656.00  1.5271E-002  
  656.50  1.5085E-002  
  657.00  1.4880E-002  
  657.50  1.4636E-002  
  658.00  1.4472E-002  
  658.50  1.4392E-002  
  659.00  1.4333E-002  
  659.50  1.4174E-002  
  660.00  1.3976E-002  
  660.50  1.3824E-002  
  661.00  1.3725E-002  
  661.50  1.3632E-002  
  662.00  1.3522E-002  
  662.50  1.3396E-002  
  663.00  1.3216E-002  
  663.50  1.3062E-002  
  664.00  1.2913E-002  
  664.50  1.2776E-002  
  665.00  1.2571E-002  
  665.50  1.2358E-002  
  666.00  1.2122E-002  
  666.50  1.1954E-002  
  667.00  1.1859E-002  
  667.50  1.1822E-002  
  668.00  1.1646E-002  
  668.50  1.1400E-002  
  669.00  1.1213E-002  
  669.50  1.1124E-002  
  670.00  1.1022E-002  
  670.50  1.0903E-002  
  671.00  1.0741E-002  
  671.50  1.0626E-002  
  672.00  1.0439E-002  
  672.50  1.0281E-002  
  673.00  1.0132E-002  
  673.50  1.0053E-002  
  674.00  9.9776E-003  
  674.50  9.8352E-003  
  675.00  9.6620E-003  
  675.50  9.5489E-003  
  676.00  9.4277E-003  
  676.50  9.3447E-003  
  677.00  9.2008E-003  
  677.50  9.0702E-003  
  678.00  8.9562E-003  
  678.50  8.8227E-003  
  679.00  8.7090E-003  
  679.50  8.5529E-003  
  680.00  8.4481E-003  
  680.50  8.3290E-003  
  681.00  8.2365E-003  
  681.50  8.1292E-003  
  682.00  8.0328E-003  
  682.50  7.8624E-003  
  683.00  7.7059E-003  
  683.50  7.6030E-003  
  684.00  7.6179E-003  
  684.50  7.5739E-003  
  685.00  7.5012E-003  
  685.50  7.3901E-003  
  686.00  7.2446E-003  
  686.50  7.0307E-003  
  687.00  6.8225E-003  
  687.50  6.7040E-003  
  688.00  6.6517E-003  
  688.50  6.6414E-003  
  689.00  6.5952E-003  
  689.50  6.5228E-003  
  690.00  6.3260E-003  
  690.50  6.2297E-003  
  691.00  6.1368E-003  
  691.50  6.0887E-003  
  692.00  5.9911E-003  
  692.50  5.8231E-003  
  693.00  5.6778E-003  
  693.50  5.5919E-003  
  694.00  5.5763E-003  
  694.50  5.5439E-003  
  695.00  5.4820E-003  
  695.50  5.4277E-003  
  696.00  5.3819E-003  
  696.50  5.2506E-003  
  697.00  5.0877E-003  
  697.50  4.9775E-003  
  698.00  4.9498E-003  
  698.50  4.8711E-003  
  699.00  4.7533E-003  
  699.50  4.6304E-003  
  700.00  4.5801E-003  
  700.50  4.5561E-003  
  701.00  4.5079E-003  
  701.50  4.4838E-003  
  702.00  4.3998E-003  
  702.50  4.3358E-003  
  703.00  4.2746E-003  
  703.50  4.2247E-003  
  704.00  4.1361E-003  
  704.50  3.9652E-003  
  705.00  3.8166E-003  
  705.50  3.6950E-003  
  706.00  3.6635E-003  
  706.50  3.6474E-003  
  707.00  3.6169E-003  
  707.50  3.5867E-003  
  708.00  3.5816E-003  
  708.50  3.6219E-003  
  709.00  3.4839E-003  
  709.50  3.3472E-003  
  710.00  3.2593E-003  
  710.50  3.3122E-003  
  711.00  3.2878E-003  
  711.50  3.0899E-003  
  712.00  2.9442E-003  
  712.50  2.9232E-003  
  713.00  2.9324E-003  
  713.50  2.8656E-003  
  714.00  2.8209E-003  
  714.50  2.8636E-003  
  715.00  2.8687E-003  
  715.50  2.8154E-003  
  716.00  2.7424E-003  
  716.50  2.6220E-003  
  717.00  2.5196E-003  
  717.50  2.5142E-003  
  718.00  2.4025E-003  
  718.50  2.2699E-003  
  719.00  2.2049E-003  
  719.50  2.2534E-003  
  720.00  2.3235E-003  
  720.50  2.2666E-003  
  721.00  2.2237E-003  
  721.50  2.0920E-003  
  722.00  2.0928E-003  
  722.50  2.0423E-003  
  723.00  2.0190E-003  
  723.50  1.9920E-003  
  724.00  1.9835E-003  
  724.50  1.9317E-003  
  725.00  1.7890E-003  
  725.50  1.6518E-003  
  726.00  1.5408E-003  
  726.50  1.5525E-003  
  727.00  1.5735E-003  
  727.50  1.6738E-003  
  728.00  1.7273E-003  
  728.50  1.7111E-003  
  729.00  1.6504E-003  
  729.50  1.5282E-003  
  730.00  1.4839E-003  
  730.50  1.3718E-003  
  731.00  1.3063E-003  
  731.50  1.2198E-003  
  732.00  1.1746E-003  
  732.50  1.2346E-003  
  733.00  1.1674E-003  
  733.50  1.1880E-003  
  734.00  1.1574E-003  
  734.50  1.2169E-003  
  735.00  1.2178E-003  
  735.50  1.2130E-003  
  736.00  1.2465E-003  
  736.50  1.1621E-003  
  737.00  1.0744E-003  
  737.50  9.3160E-004  
  738.00  9.5150E-004  
  738.50  9.7823E-004  
  739.00  1.0045E-003  
  739.50  9.5440E-004  
  740.00  9.7404E-004  
  740.50  9.5689E-004  
  741.00  8.8413E-004  
  741.50  7.6094E-004  
  742.00  6.7743E-004  
  742.50  6.5081E-004  
  743.00  7.1801E-004  
  743.50  7.4431E-004  
  744.00  6.6900E-004  
  744.50  5.8085E-004  
  745.00  6.3541E-004  
  745.50  7.0353E-004  
  746.00  6.5538E-004  
  746.50  5.8085E-004  
  747.00  6.2870E-004  
  747.50  5.8994E-004  
  748.00  5.9671E-004  
  748.50  5.0435E-004  
  749.00  4.2339E-004  
  749.50  3.1918E-004  
  750.00  3.6755E-004  
  750.50  5.3776E-004  
  751.00  5.6207E-004  
  751.50  6.4419E-004  
  752.00  5.8459E-004  
  752.50  5.3361E-004  
  753.00  4.2202E-004  
  753.50  3.1920E-004  
  754.00  1.8528E-004  
  754.50  7.5538E-005  
  755.00  1.0064E-004  
  755.50  1.0661E-004  
  756.00  8.6362E-005  
  756.50  2.7412E-006  
  757.00  2.0940E-005  
  757.50  6.5598E-005  
  758.00  1.7391E-005  
  758.50  1.5246E-005  
  759.00  1.0981E-005  
  759.50  2.1786E-006  
  760.00  0.0000E+000  
  760.50  0.0000E+000  
  761.00  0.0000E+000  
  761.50  0.0000E+000  
  762.00  0.0000E+000  
  762.50  1.0887E-005  
  763.00  1.1217E-004  
  763.50  5.9311E-005  
  764.00  1.6774E-006  
  764.50  0.0000E+000  
  765.00  0.0000E+000  
  765.50  0.0000E+000  
  766.00  0.0000E+000  
  766.50  0.0000E+000  
  767.00  0.0000E+000  
  767.50  0.0000E+000  
  768.00  0.0000E+000  
  768.50  0.0000E+000  
  769.00  0.0000E+000  
  769.50  3.0966E-005  
  770.00  0.0000E+000  
  770.50  0.0000E+000  
  771.00  0.0000E+000  
  771.50  0.0000E+000  
  772.00  0.0000E+000  
  772.50  0.0000E+000  
  773.00  0.0000E+000  
  773.50  0.0000E+000  
  774.00  0.0000E+000  
  774.50  0.0000E+000  
  775.00  0.0000E+000  
  775.50  0.0000E+000  
  776.00  0.0000E+000  
  776.50  0.0000E+000  
  777.00  0.0000E+000  
  777.50  0.0000E+000  
  778.00  0.0000E+000  
  778.50  0.0000E+000  
  779.00  0.0000E+000  
  779.50  0.0000E+000  
  780.00  0.0000E+000  
  780.50  0.0000E+000  
  781.00  0.0000E+000  
  781.50  0.0000E+000  
  782.00  0.0000E+000  
  782.50  0.0000E+000  
  783.00  0.0000E+000  
  783.50  0.0000E+000  
  784.00  0.0000E+000  
  784.50  0.0000E+000  
  785.00  0.0000E+000  
  785.50  0.0000E+000  
  786.00  0.0000E+000  
  786.50  0.0000E+000  
  787.00  0.0000E+000  
  787.50  0.0000E+000  
  788.00  0.0000E+000  
  788.50  0.0000E+000  
  789.00  0.0000E+000  
  789.50  0.0000E+000  
  790.00  0.0000E+000  
  790.50  0.0000E+000  
  791.00  0.0000E+000  
  791.50  0.0000E+000  
  792.00  0.0000E+000  
  792.50  0.0000E+000  
  793.00  0.0000E+000  
  793.50  0.0000E+000  
  794.00  0.0000E+000  
  794.50  0.0000E+000  
  795.00  0.0000E+000  
  795.50  0.0000E+000  
  796.00  0.0000E+000  
  796.50  0.0000E+000  
  797.00  0.0000E+000  
  797.50  0.0000E+000  
  798.00  0.0000E+000  
  798.50  0.0000E+000  
  799.00  0.0000E+000  
  799.50  0.0000E+000  
  800.00  0.0000E+000  
  800.50  0.0000E+000  
  801.00  0.0000E+000  
  801.50  0.0000E+000  
  802.00  0.0000E+000  
  802.50  0.0000E+000  
  803.00  0.0000E+000  
  803.50  0.0000E+000  
  804.00  0.0000E+000  
  804.50  0.0000E+000  
  805.00  0.0000E+000  
  805.50  0.0000E+000  
  806.00  0.0000E+000  
  806.50  0.0000E+000  
  807.00  0.0000E+000  
  807.50  0.0000E+000  
  808.00  0.0000E+000  
  808.50  0.0000E+000  
  809.00  0.0000E+000  
  809.50  0.0000E+000  
  810.00  0.0000E+000  
  810.50  0.0000E+000  
  811.00  0.0000E+000  
  811.50  0.0000E+000  
  812.00  0.0000E+000  
  812.50  0.0000E+000  
  813.00  0.0000E+000  
  813.50  0.0000E+000  
  814.00  0.0000E+000  
  814.50  0.0000E+000  
  815.00  0.0000E+000  
  815.50  0.0000E+000  
  816.00  0.0000E+000  
  816.50  0.0000E+000  
  817.00  0.0000E+000  
  817.50  0.0000E+000  
  818.00  0.0000E+000  
  818.50  0.0000E+000  
  819.00  0.0000E+000  
  819.50  0.0000E+000  
  820.00  0.0000E+000  
  820.50  0.0000E+000  
  821.00  0.0000E+000  
  821.50  0.0000E+000  
  822.00  0.0000E+000  
  822.50  0.0000E+000  
  823.00  0.0000E+000  
  823.50  0.0000E+000  
  824.00  0.0000E+000  
  824.50  0.0000E+000  
  825.00  0.0000E+000  
  825.50  0.0000E+000  
  826.00  0.0000E+000  
  826.50  0.0000E+000  
  827.00  0.0000E+000  
  827.50  0.0000E+000  
  828.00  0.0000E+000  
  828.50  0.0000E+000  
  829.00  0.0000E+000  
  829.50  0.0000E+000  
  830.00  0.0000E+000  
  830.50  0.0000E+000  
  831.00  0.0000E+000  
  831.50  0.0000E+000  
  832.00  0.0000E+000  
  832.50  0.0000E+000  
  833.00  0.0000E+000  
  833.50  0.0000E+000  
  834.00  0.0000E+000  
  834.50  0.0000E+000  
  835.00  0.0000E+000  
  835.50  0.0000E+000  
  836.00  0.0000E+000  
  836.50  0.0000E+000  
  837.00  0.0000E+000  
  837.50  0.0000E+000  
  838.00  0.0000E+000  
  838.50  0.0000E+000  
  839.00  0.0000E+000  
  839.50  0.0000E+000  
  840.00  0.0000E+000  
  840.50  0.0000E+000  
  841.00  0.0000E+000  
  841.50  0.0000E+000  
  842.00  0.0000E+000  
  842.50  0.0000E+000  
  843.00  0.0000E+000  
  843.50  0.0000E+000  
  844.00  0.0000E+000  
  844.50  0.0000E+000  
  845.00  0.0000E+000  
  845.50  0.0000E+000  
  846.00  0.0000E+000  
  846.50  0.0000E+000  
  847.00  0.0000E+000  
  847.50  0.0000E+000  
  848.00  0.0000E+000  
  848.50  0.0000E+000  
  849.00  0.0000E+000  
  849.50  0.0000E+000  
  850.00  0.0000E+000  
  850.50  0.0000E+000  
  851.00  0.0000E+000  
  851.50  0.0000E+000  
  852.00  0.0000E+000  
  852.50  0.0000E+000  
  853.00  0.0000E+000  
  853.50  0.0000E+000  
  854.00  0.0000E+000  
  854.50  0.0000E+000  
  855.00  0.0000E+000  
  855.50  0.0000E+000  
  856.00  0.0000E+000  
  856.50  0.0000E+000  
  857.00  0.0000E+000  
  857.50  0.0000E+000  
  858.00  0.0000E+000  
  858.50  0.0000E+000  
  859.00  0.0000E+000  
  859.50  0.0000E+000  
  860.00  0.0000E+000  
  860.50  0.0000E+000  
  861.00  0.0000E+000  
  861.50  0.0000E+000  
  862.00  0.0000E+000  
  862.50  0.0000E+000  
  863.00  0.0000E+000  
  863.50  0.0000E+000  
  864.00  0.0000E+000  
  864.50  0.0000E+000  
  865.00  0.0000E+000  
  865.50  0.0000E+000  
  866.00  0.0000E+000  
  866.50  0.0000E+000  
  867.00  0.0000E+000  
  867.50  0.0000E+000  
  868.00  0.0000E+000  
  868.50  0.0000E+000  
  869.00  0.0000E+000  
  869.50  0.0000E+000  
  870.00  0.0000E+000  
  870.50  0.0000E+000  
  871.00  0.0000E+000  
  871.50  0.0000E+000  
  872.00  0.0000E+000  
  872.50  0.0000E+000  
  873.00  0.0000E+000  
  873.50  0.0000E+000  
  874.00  0.0000E+000  
  874.50  0.0000E+000  
  875.00  0.0000E+000  
  875.50  0.0000E+000  
  876.00  0.0000E+000  
  876.50  0.0000E+000  
  877.00  0.0000E+000  
  877.50  0.0000E+000  
  878.00  0.0000E+000  
  878.50  0.0000E+000  
  879.00  0.0000E+000  
  879.50  0.0000E+000  
  880.00  0.0000E+000  
  880.50  0.0000E+000  
  881.00  0.0000E+000  
  881.50  0.0000E+000  
  882.00  0.0000E+000  
  882.50  0.0000E+000  
  883.00  0.0000E+000  
  883.50  0.0000E+000  
  884.00  0.0000E+000  
  884.50  0.0000E+000  
  885.00  0.0000E+000  
  885.50  0.0000E+000  
  886.00  0.0000E+000  
  886.50  0.0000E+000  
  887.00  0.0000E+000  
  887.50  0.0000E+000  
  888.00  0.0000E+000  
  888.50  0.0000E+000  
  889.00  0.0000E+000  
  889.50  0.0000E+000  
  890.00  0.0000E+000  
  890.50  0.0000E+000  
  891.00  0.0000E+000  
  891.50  0.0000E+000  
  892.00  0.0000E+000  
  892.50  0.0000E+000  
  893.00  0.0000E+000  
  893.50  0.0000E+000  
  894.00  0.0000E+000  
  894.50  0.0000E+000  
  895.00  0.0000E+000  
  895.50  0.0000E+000  
  896.00  0.0000E+000  
  896.50  0.0000E+000  
  897.00  0.0000E+000  
  897.50  0.0000E+000  
  898.00  0.0000E+000  
  898.50  0.0000E+000  
  899.00  0.0000E+000  
  899.50  0.0000E+000  
