
# From lspdd.org
# 
# Name: LFC Globe Twister Domestique
# Indice spectral Valeur 
# MSI 0.56 
# SLI 0.71 
# IPI 0.66 
# Pourcentage de bleu 32.3 
# Caractéristique Valeur 
# CCT calculée (K) 4404 
# CCT du fabricant (K) 5000 
# Tension (V) 120 
# Puissance (W) 13.0 
# Efficacité lumineuse (Lum/W) 67.7 
#
# Image: '/app/system/img_1s/2488/medium_image1.jpg?1413485900'
# 

  273.00  0.0000E+000  
  273.50  0.0000E+000  
  274.00  0.0000E+000  
  274.50  0.0000E+000  
  275.00  0.0000E+000  
  275.50  0.0000E+000  
  276.00  0.0000E+000  
  276.50  0.0000E+000  
  277.00  0.0000E+000  
  277.50  0.0000E+000  
  278.00  0.0000E+000  
  278.50  0.0000E+000  
  279.00  0.0000E+000  
  279.50  0.0000E+000  
  280.00  0.0000E+000  
  280.50  0.0000E+000  
  281.00  0.0000E+000  
  281.50  0.0000E+000  
  282.00  0.0000E+000  
  282.50  0.0000E+000  
  283.00  0.0000E+000  
  283.50  0.0000E+000  
  284.00  0.0000E+000  
  284.50  0.0000E+000  
  285.00  0.0000E+000  
  285.50  0.0000E+000  
  286.00  0.0000E+000  
  286.50  0.0000E+000  
  287.00  0.0000E+000  
  287.50  0.0000E+000  
  288.00  0.0000E+000  
  288.50  0.0000E+000  
  289.00  0.0000E+000  
  289.50  0.0000E+000  
  290.00  0.0000E+000  
  290.50  0.0000E+000  
  291.00  0.0000E+000  
  291.50  0.0000E+000  
  292.00  0.0000E+000  
  292.50  0.0000E+000  
  293.00  0.0000E+000  
  293.50  0.0000E+000  
  294.00  0.0000E+000  
  294.50  0.0000E+000  
  295.00  0.0000E+000  
  295.50  0.0000E+000  
  296.00  0.0000E+000  
  296.50  0.0000E+000  
  297.00  0.0000E+000  
  297.50  0.0000E+000  
  298.00  0.0000E+000  
  298.50  0.0000E+000  
  299.00  0.0000E+000  
  299.50  0.0000E+000  
  300.00  0.0000E+000  
  300.50  0.0000E+000  
  301.00  0.0000E+000  
  301.50  0.0000E+000  
  302.00  0.0000E+000  
  302.50  0.0000E+000  
  303.00  0.0000E+000  
  303.50  0.0000E+000  
  304.00  1.4150E-005  
  304.50  3.0094E-005  
  305.00  4.2114E-005  
  305.50  3.2537E-005  
  306.00  2.7737E-005  
  306.50  1.0159E-005  
  307.00  0.0000E+000  
  307.50  0.0000E+000  
  308.00  0.0000E+000  
  308.50  0.0000E+000  
  309.00  0.0000E+000  
  309.50  1.9290E-005  
  310.00  6.5025E-005  
  310.50  7.8549E-005  
  311.00  7.1165E-005  
  311.50  7.0198E-005  
  312.00  4.5929E-005  
  312.50  2.2994E-005  
  313.00  1.6142E-005  
  313.50  0.0000E+000  
  314.00  0.0000E+000  
  314.50  0.0000E+000  
  315.00  1.5638E-006  
  315.50  2.3466E-005  
  316.00  4.5132E-005  
  316.50  5.7967E-005  
  317.00  7.1594E-005  
  317.50  7.9812E-005  
  318.00  7.5913E-005  
  318.50  6.8037E-005  
  319.00  6.4417E-005  
  319.50  4.8911E-005  
  320.00  3.4707E-005  
  320.50  6.8507E-006  
  321.00  0.0000E+000  
  321.50  0.0000E+000  
  322.00  0.0000E+000  
  322.50  0.0000E+000  
  323.00  2.4696E-006  
  323.50  2.0979E-005  
  324.00  3.0450E-005  
  324.50  2.7036E-005  
  325.00  2.0500E-005  
  325.50  0.0000E+000  
  326.00  0.0000E+000  
  326.50  0.0000E+000  
  327.00  0.0000E+000  
  327.50  0.0000E+000  
  328.00  0.0000E+000  
  328.50  0.0000E+000  
  329.00  0.0000E+000  
  329.50  0.0000E+000  
  330.00  1.4166E-007  
  330.50  2.5901E-005  
  331.00  9.3568E-005  
  331.50  1.0432E-004  
  332.00  1.0374E-004  
  332.50  8.2451E-005  
  333.00  6.1398E-005  
  333.50  8.3061E-005  
  334.00  9.5620E-005  
  334.50  9.8621E-005  
  335.00  6.2432E-005  
  335.50  1.4023E-005  
  336.00  0.0000E+000  
  336.50  0.0000E+000  
  337.00  0.0000E+000  
  337.50  9.9446E-008  
  338.00  1.3860E-007  
  338.50  0.0000E+000  
  339.00  0.0000E+000  
  339.50  0.0000E+000  
  340.00  0.0000E+000  
  340.50  0.0000E+000  
  341.00  0.0000E+000  
  341.50  0.0000E+000  
  342.00  0.0000E+000  
  342.50  3.0149E-006  
  343.00  1.9945E-005  
  343.50  4.7358E-005  
  344.00  5.3213E-005  
  344.50  1.8379E-005  
  345.00  2.4405E-007  
  345.50  6.8286E-006  
  346.00  7.0660E-006  
  346.50  4.8923E-005  
  347.00  5.6680E-005  
  347.50  3.6791E-005  
  348.00  2.8410E-005  
  348.50  1.9524E-005  
  349.00  1.2561E-005  
  349.50  2.7732E-005  
  350.00  5.2033E-005  
  350.50  3.2403E-005  
  351.00  2.0564E-005  
  351.50  4.0384E-006  
  352.00  0.0000E+000  
  352.50  1.1650E-006  
  353.00  9.4758E-006  
  353.50  1.4508E-005  
  354.00  5.3632E-005  
  354.50  7.2699E-005  
  355.00  9.7716E-005  
  355.50  1.1917E-004  
  356.00  1.0108E-004  
  356.50  6.7036E-005  
  357.00  1.8861E-005  
  357.50  9.7730E-007  
  358.00  0.0000E+000  
  358.50  3.0813E-006  
  359.00  1.2271E-005  
  359.50  0.0000E+000  
  360.00  0.0000E+000  
  360.50  0.0000E+000  
  361.00  0.0000E+000  
  361.50  7.7390E-006  
  362.00  3.5282E-005  
  362.50  4.9861E-005  
  363.00  8.2949E-005  
  363.50  1.6885E-004  
  364.00  2.8647E-004  
  364.50  3.8768E-004  
  365.00  4.4968E-004  
  365.50  4.1919E-004  
  366.00  3.0177E-004  
  366.50  1.8314E-004  
  367.00  9.8066E-005  
  367.50  4.5675E-005  
  368.00  1.1709E-005  
  368.50  0.0000E+000  
  369.00  0.0000E+000  
  369.50  1.1059E-005  
  370.00  5.5204E-005  
  370.50  9.3277E-005  
  371.00  9.2287E-005  
  371.50  5.3272E-005  
  372.00  2.3393E-005  
  372.50  3.9961E-006  
  373.00  0.0000E+000  
  373.50  1.4156E-005  
  374.00  4.0902E-005  
  374.50  3.8713E-005  
  375.00  4.0310E-005  
  375.50  1.1079E-005  
  376.00  0.0000E+000  
  376.50  0.0000E+000  
  377.00  0.0000E+000  
  377.50  0.0000E+000  
  378.00  0.0000E+000  
  378.50  0.0000E+000  
  379.00  0.0000E+000  
  379.50  1.1276E-005  
  380.00  7.9650E-006  
  380.50  2.2711E-005  
  381.00  4.2352E-005  
  381.50  5.3999E-005  
  382.00  4.7803E-005  
  382.50  3.6872E-005  
  383.00  5.1456E-005  
  383.50  6.9999E-005  
  384.00  1.0555E-004  
  384.50  7.9341E-005  
  385.00  7.2178E-006  
  385.50  0.0000E+000  
  386.00  0.0000E+000  
  386.50  1.9215E-006  
  387.00  3.1909E-005  
  387.50  2.2495E-005  
  388.00  3.1251E-007  
  388.50  1.5474E-006  
  389.00  1.3112E-005  
  389.50  4.0590E-005  
  390.00  3.8151E-005  
  390.50  4.0714E-005  
  391.00  4.3778E-005  
  391.50  4.2680E-005  
  392.00  2.6972E-005  
  392.50  1.3581E-005  
  393.00  1.3659E-006  
  393.50  0.0000E+000  
  394.00  0.0000E+000  
  394.50  0.0000E+000  
  395.00  0.0000E+000  
  395.50  0.0000E+000  
  396.00  2.0430E-006  
  396.50  1.9855E-005  
  397.00  1.2728E-005  
  397.50  1.6722E-005  
  398.00  1.1856E-005  
  398.50  5.1887E-006  
  399.00  1.1675E-005  
  399.50  2.4470E-005  
  400.00  2.3188E-005  
  400.50  1.3737E-005  
  401.00  4.7925E-006  
  401.50  3.8335E-006  
  402.00  4.8295E-006  
  402.50  7.0682E-005  
  403.00  2.5517E-004  
  403.50  6.1947E-004  
  404.00  1.0047E-003  
  404.50  1.1753E-003  
  405.00  1.0698E-003  
  405.50  7.2923E-004  
  406.00  4.0631E-004  
  406.50  2.1522E-004  
  407.00  1.4123E-004  
  407.50  1.1008E-004  
  408.00  9.6974E-005  
  408.50  9.4429E-005  
  409.00  1.1267E-004  
  409.50  1.3447E-004  
  410.00  1.4728E-004  
  410.50  1.3010E-004  
  411.00  1.0689E-004  
  411.50  8.3291E-005  
  412.00  7.2261E-005  
  412.50  5.3324E-005  
  413.00  5.3220E-005  
  413.50  7.3884E-005  
  414.00  8.0369E-005  
  414.50  9.8443E-005  
  415.00  9.1207E-005  
  415.50  1.1253E-004  
  416.00  1.3544E-004  
  416.50  1.4295E-004  
  417.00  1.5171E-004  
  417.50  1.7532E-004  
  418.00  2.3129E-004  
  418.50  2.6652E-004  
  419.00  3.0283E-004  
  419.50  2.9474E-004  
  420.00  2.6340E-004  
  420.50  2.2678E-004  
  421.00  1.9258E-004  
  421.50  1.7593E-004  
  422.00  1.9019E-004  
  422.50  1.9965E-004  
  423.00  2.1169E-004  
  423.50  2.3029E-004  
  424.00  2.4244E-004  
  424.50  2.6781E-004  
  425.00  3.1423E-004  
  425.50  3.5052E-004  
  426.00  3.8248E-004  
  426.50  3.7515E-004  
  427.00  3.6275E-004  
  427.50  3.6295E-004  
  428.00  3.6997E-004  
  428.50  3.5765E-004  
  429.00  3.5618E-004  
  429.50  3.7139E-004  
  430.00  3.9039E-004  
  430.50  4.0930E-004  
  431.00  4.0317E-004  
  431.50  4.0155E-004  
  432.00  4.4981E-004  
  432.50  4.8517E-004  
  433.00  5.2505E-004  
  433.50  6.5483E-004  
  434.00  1.1241E-003  
  434.50  2.3258E-003  
  435.00  3.9107E-003  
  435.50  5.0405E-003  
  436.00  4.8760E-003  
  436.50  3.6635E-003  
  437.00  2.1691E-003  
  437.50  1.1327E-003  
  438.00  7.1893E-004  
  438.50  5.9528E-004  
  439.00  5.7709E-004  
  439.50  5.6140E-004  
  440.00  5.3355E-004  
  440.50  5.4526E-004  
  441.00  5.4897E-004  
  441.50  5.7019E-004  
  442.00  5.9798E-004  
  442.50  6.0485E-004  
  443.00  6.3105E-004  
  443.50  6.2799E-004  
  444.00  5.9727E-004  
  444.50  5.7180E-004  
  445.00  5.6992E-004  
  445.50  6.0509E-004  
  446.00  6.2947E-004  
  446.50  6.5678E-004  
  447.00  6.7284E-004  
  447.50  6.9663E-004  
  448.00  6.8596E-004  
  448.50  6.3880E-004  
  449.00  5.9128E-004  
  449.50  5.7360E-004  
  450.00  5.8739E-004  
  450.50  6.1775E-004  
  451.00  6.3289E-004  
  451.50  6.4116E-004  
  452.00  6.5882E-004  
  452.50  6.6841E-004  
  453.00  6.7119E-004  
  453.50  6.6419E-004  
  454.00  6.4886E-004  
  454.50  6.4287E-004  
  455.00  6.3854E-004  
  455.50  6.5037E-004  
  456.00  6.5104E-004  
  456.50  6.4359E-004  
  457.00  6.1288E-004  
  457.50  5.9495E-004  
  458.00  6.1904E-004  
  458.50  6.2219E-004  
  459.00  6.2227E-004  
  459.50  6.0127E-004  
  460.00  5.9821E-004  
  460.50  5.9613E-004  
  461.00  5.7349E-004  
  461.50  5.4705E-004  
  462.00  5.3835E-004  
  462.50  5.5459E-004  
  463.00  5.6622E-004  
  463.50  5.6827E-004  
  464.00  5.6600E-004  
  464.50  5.5580E-004  
  465.00  5.3498E-004  
  465.50  5.0586E-004  
  466.00  5.0454E-004  
  466.50  5.1221E-004  
  467.00  5.0317E-004  
  467.50  4.8437E-004  
  468.00  4.7932E-004  
  468.50  4.9350E-004  
  469.00  5.2075E-004  
  469.50  5.0079E-004  
  470.00  4.8248E-004  
  470.50  4.6141E-004  
  471.00  4.5580E-004  
  471.50  4.7036E-004  
  472.00  4.9393E-004  
  472.50  4.8102E-004  
  473.00  4.7260E-004  
  473.50  4.5584E-004  
  474.00  4.4197E-004  
  474.50  4.4908E-004  
  475.00  4.3381E-004  
  475.50  4.2760E-004  
  476.00  4.1569E-004  
  476.50  4.1122E-004  
  477.00  3.9297E-004  
  477.50  3.7790E-004  
  478.00  3.8326E-004  
  478.50  4.0106E-004  
  479.00  4.2223E-004  
  479.50  4.5132E-004  
  480.00  4.6294E-004  
  480.50  4.7373E-004  
  481.00  4.6639E-004  
  481.50  4.6046E-004  
  482.00  4.7614E-004  
  482.50  5.1067E-004  
  483.00  5.6974E-004  
  483.50  6.3331E-004  
  484.00  7.0987E-004  
  484.50  7.8166E-004  
  485.00  8.8161E-004  
  485.50  9.8400E-004  
  486.00  1.0659E-003  
  486.50  1.0997E-003  
  487.00  1.0886E-003  
  487.50  1.0672E-003  
  488.00  1.0332E-003  
  488.50  9.9433E-004  
  489.00  9.3436E-004  
  489.50  8.7642E-004  
  490.00  8.1710E-004  
  490.50  7.8108E-004  
  491.00  7.6673E-004  
  491.50  7.6007E-004  
  492.00  7.3454E-004  
  492.50  6.9866E-004  
  493.00  6.6117E-004  
  493.50  6.2556E-004  
  494.00  5.9947E-004  
  494.50  5.7674E-004  
  495.00  5.6846E-004  
  495.50  5.5648E-004  
  496.00  5.2632E-004  
  496.50  4.9909E-004  
  497.00  4.6447E-004  
  497.50  4.4790E-004  
  498.00  4.3159E-004  
  498.50  4.0353E-004  
  499.00  3.9114E-004  
  499.50  3.7339E-004  
  500.00  3.5555E-004  
  500.50  3.3495E-004  
  501.00  3.1601E-004  
  501.50  3.0702E-004  
  502.00  3.0238E-004  
  502.50  2.9139E-004  
  503.00  2.8102E-004  
  503.50  2.8639E-004  
  504.00  2.8964E-004  
  504.50  3.0137E-004  
  505.00  3.0929E-004  
  505.50  3.0800E-004  
  506.00  3.1161E-004  
  506.50  3.1371E-004  
  507.00  3.3401E-004  
  507.50  3.3964E-004  
  508.00  3.3002E-004  
  508.50  3.0549E-004  
  509.00  2.9809E-004  
  509.50  3.0675E-004  
  510.00  3.2556E-004  
  510.50  3.4187E-004  
  511.00  3.4511E-004  
  511.50  3.5104E-004  
  512.00  3.5946E-004  
  512.50  3.6460E-004  
  513.00  3.6534E-004  
  513.50  3.5013E-004  
  514.00  3.4276E-004  
  514.50  3.3628E-004  
  515.00  3.3756E-004  
  515.50  3.3702E-004  
  516.00  3.4275E-004  
  516.50  3.4902E-004  
  517.00  3.5070E-004  
  517.50  3.4520E-004  
  518.00  3.3001E-004  
  518.50  3.0826E-004  
  519.00  2.9437E-004  
  519.50  2.8779E-004  
  520.00  2.9798E-004  
  520.50  3.1058E-004  
  521.00  3.0916E-004  
  521.50  3.0009E-004  
  522.00  2.8438E-004  
  522.50  2.8763E-004  
  523.00  2.9402E-004  
  523.50  2.9696E-004  
  524.00  2.9383E-004  
  524.50  2.8366E-004  
  525.00  2.7605E-004  
  525.50  2.6499E-004  
  526.00  2.6618E-004  
  526.50  2.8288E-004  
  527.00  2.9154E-004  
  527.50  2.7644E-004  
  528.00  2.4720E-004  
  528.50  2.2785E-004  
  529.00  2.3188E-004  
  529.50  2.3849E-004  
  530.00  2.4455E-004  
  530.50  2.4395E-004  
  531.00  2.5223E-004  
  531.50  2.5629E-004  
  532.00  2.7528E-004  
  532.50  2.9530E-004  
  533.00  3.2382E-004  
  533.50  3.2468E-004  
  534.00  3.2147E-004  
  534.50  3.1460E-004  
  535.00  3.2274E-004  
  535.50  3.3985E-004  
  536.00  3.7674E-004  
  536.50  4.6351E-004  
  537.00  5.8619E-004  
  537.50  7.2908E-004  
  538.00  8.4975E-004  
  538.50  1.0021E-003  
  539.00  1.2542E-003  
  539.50  1.6694E-003  
  540.00  2.3268E-003  
  540.50  3.1848E-003  
  541.00  4.0506E-003  
  541.50  4.6306E-003  
  542.00  4.6973E-003  
  542.50  4.4075E-003  
  543.00  4.0459E-003  
  543.50  3.8249E-003  
  544.00  3.9123E-003  
  544.50  4.4310E-003  
  545.00  5.4885E-003  
  545.50  6.5674E-003  
  546.00  6.7929E-003  
  546.50  6.0557E-003  
  547.00  4.7188E-003  
  547.50  3.5616E-003  
  548.00  2.8850E-003  
  548.50  2.4600E-003  
  549.00  2.1524E-003  
  549.50  1.8939E-003  
  550.00  1.6619E-003  
  550.50  1.4213E-003  
  551.00  1.2186E-003  
  551.50  1.0579E-003  
  552.00  9.5038E-004  
  552.50  8.4743E-004  
  553.00  7.4080E-004  
  553.50  6.2898E-004  
  554.00  5.3363E-004  
  554.50  4.6239E-004  
  555.00  4.0814E-004  
  555.50  3.7023E-004  
  556.00  3.2547E-004  
  556.50  2.9030E-004  
  557.00  2.6155E-004  
  557.50  2.4432E-004  
  558.00  2.3023E-004  
  558.50  2.1549E-004  
  559.00  2.0250E-004  
  559.50  1.9027E-004  
  560.00  1.8270E-004  
  560.50  1.7798E-004  
  561.00  1.8126E-004  
  561.50  1.7901E-004  
  562.00  1.7455E-004  
  562.50  1.4671E-004  
  563.00  1.2407E-004  
  563.50  1.0814E-004  
  564.00  1.1924E-004  
  564.50  1.3052E-004  
  565.00  1.3385E-004  
  565.50  1.3289E-004  
  566.00  1.3861E-004  
  566.50  1.4484E-004  
  567.00  1.3692E-004  
  567.50  1.1726E-004  
  568.00  1.0154E-004  
  568.50  9.7202E-005  
  569.00  1.1392E-004  
  569.50  1.2159E-004  
  570.00  1.1511E-004  
  570.50  8.9225E-005  
  571.00  6.8001E-005  
  571.50  5.7492E-005  
  572.00  7.4822E-005  
  572.50  8.3999E-005  
  573.00  9.2081E-005  
  573.50  9.7041E-005  
  574.00  1.1241E-004  
  574.50  1.2979E-004  
  575.00  1.8659E-004  
  575.50  3.3338E-004  
  576.00  6.1512E-004  
  576.50  8.6767E-004  
  577.00  9.7457E-004  
  577.50  9.0843E-004  
  578.00  8.6691E-004  
  578.50  9.3749E-004  
  579.00  1.0007E-003  
  579.50  9.5460E-004  
  580.00  8.4437E-004  
  580.50  7.4514E-004  
  581.00  7.2199E-004  
  581.50  7.6196E-004  
  582.00  8.5484E-004  
  582.50  9.3998E-004  
  583.00  1.0045E-003  
  583.50  1.0068E-003  
  584.00  1.0020E-003  
  584.50  9.6726E-004  
  585.00  9.3080E-004  
  585.50  9.0429E-004  
  586.00  9.4694E-004  
  586.50  1.0857E-003  
  587.00  1.2004E-003  
  587.50  1.1942E-003  
  588.00  1.0264E-003  
  588.50  8.0991E-004  
  589.00  6.5571E-004  
  589.50  5.8588E-004  
  590.00  5.8962E-004  
  590.50  6.2393E-004  
  591.00  6.6964E-004  
  591.50  7.4989E-004  
  592.00  8.6690E-004  
  592.50  9.7974E-004  
  593.00  1.0449E-003  
  593.50  9.8151E-004  
  594.00  8.2198E-004  
  594.50  6.2064E-004  
  595.00  4.8257E-004  
  595.50  4.1829E-004  
  596.00  4.0120E-004  
  596.50  4.2253E-004  
  597.00  4.5089E-004  
  597.50  5.0368E-004  
  598.00  5.5576E-004  
  598.50  6.2058E-004  
  599.00  6.7670E-004  
  599.50  6.7913E-004  
  600.00  6.2966E-004  
  600.50  5.3470E-004  
  601.00  4.3927E-004  
  601.50  3.6362E-004  
  602.00  3.0921E-004  
  602.50  2.8404E-004  
  603.00  2.6498E-004  
  603.50  2.6404E-004  
  604.00  2.7218E-004  
  604.50  2.7479E-004  
  605.00  2.9089E-004  
  605.50  3.2503E-004  
  606.00  3.7707E-004  
  606.50  4.3910E-004  
  607.00  4.9254E-004  
  607.50  5.8960E-004  
  608.00  7.2289E-004  
  608.50  9.8518E-004  
  609.00  1.4561E-003  
  609.50  2.5036E-003  
  610.00  4.2766E-003  
  610.50  6.5441E-003  
  611.00  8.2574E-003  
  611.50  8.5685E-003  
  612.00  7.3368E-003  
  612.50  5.5991E-003  
  613.00  4.1953E-003  
  613.50  3.3787E-003  
  614.00  2.9292E-003  
  614.50  2.5989E-003  
  615.00  2.2451E-003  
  615.50  1.8425E-003  
  616.00  1.4621E-003  
  616.50  1.1450E-003  
  617.00  9.5284E-004  
  617.50  8.3822E-004  
  618.00  7.7736E-004  
  618.50  7.3942E-004  
  619.00  7.1885E-004  
  619.50  7.2077E-004  
  620.00  7.3895E-004  
  620.50  7.7107E-004  
  621.00  7.9688E-004  
  621.50  8.1073E-004  
  622.00  8.0867E-004  
  622.50  8.1547E-004  
  623.00  8.5004E-004  
  623.50  8.7678E-004  
  624.00  8.9925E-004  
  624.50  9.1333E-004  
  625.00  9.1866E-004  
  625.50  9.1448E-004  
  626.00  9.0676E-004  
  626.50  8.9418E-004  
  627.00  8.5440E-004  
  627.50  8.0257E-004  
  628.00  7.5563E-004  
  628.50  7.2249E-004  
  629.00  7.0987E-004  
  629.50  7.8470E-004  
  630.00  9.5816E-004  
  630.50  1.1379E-003  
  631.00  1.1842E-003  
  631.50  1.0290E-003  
  632.00  7.5787E-004  
  632.50  4.7887E-004  
  633.00  3.1145E-004  
  633.50  2.2459E-004  
  634.00  2.1348E-004  
  634.50  2.1257E-004  
  635.00  2.1557E-004  
  635.50  2.0407E-004  
  636.00  1.8355E-004  
  636.50  1.7371E-004  
  637.00  1.5655E-004  
  637.50  1.3055E-004  
  638.00  1.1210E-004  
  638.50  1.1952E-004  
  639.00  1.3103E-004  
  639.50  1.2879E-004  
  640.00  1.0835E-004  
  640.50  1.0274E-004  
  641.00  1.0054E-004  
  641.50  1.0729E-004  
  642.00  1.1927E-004  
  642.50  9.9726E-005  
  643.00  8.0899E-005  
  643.50  7.1633E-005  
  644.00  1.0448E-004  
  644.50  1.3545E-004  
  645.00  1.5362E-004  
  645.50  1.6081E-004  
  646.00  1.6613E-004  
  646.50  1.4929E-004  
  647.00  1.3182E-004  
  647.50  1.2372E-004  
  648.00  1.2123E-004  
  648.50  1.2566E-004  
  649.00  1.5621E-004  
  649.50  2.4862E-004  
  650.00  3.4238E-004  
  650.50  3.7688E-004  
  651.00  3.3768E-004  
  651.50  2.6655E-004  
  652.00  2.3581E-004  
  652.50  2.3622E-004  
  653.00  2.3326E-004  
  653.50  2.2044E-004  
  654.00  1.7794E-004  
  654.50  1.6282E-004  
  655.00  1.5154E-004  
  655.50  1.7970E-004  
  656.00  2.2907E-004  
  656.50  2.1414E-004  
  657.00  1.8327E-004  
  657.50  1.2479E-004  
  658.00  1.3024E-004  
  658.50  1.3473E-004  
  659.00  1.3190E-004  
  659.50  1.2272E-004  
  660.00  1.0322E-004  
  660.50  9.3865E-005  
  661.00  9.6264E-005  
  661.50  1.4404E-004  
  662.00  2.1207E-004  
  662.50  2.5700E-004  
  663.00  2.4223E-004  
  663.50  1.9104E-004  
  664.00  1.4995E-004  
  664.50  1.3452E-004  
  665.00  1.2966E-004  
  665.50  1.3080E-004  
  666.00  1.1413E-004  
  666.50  1.1346E-004  
  667.00  6.8255E-005  
  667.50  6.7073E-005  
  668.00  5.9978E-005  
  668.50  7.4609E-005  
  669.00  9.8749E-005  
  669.50  1.2275E-004  
  670.00  1.4498E-004  
  670.50  1.1034E-004  
  671.00  7.3085E-005  
  671.50  5.6162E-005  
  672.00  5.4542E-005  
  672.50  6.3439E-005  
  673.00  6.0270E-005  
  673.50  4.0189E-005  
  674.00  1.3717E-005  
  674.50  0.0000E+000  
  675.00  0.0000E+000  
  675.50  0.0000E+000  
  676.00  0.0000E+000  
  676.50  0.0000E+000  
  677.00  4.8476E-006  
  677.50  7.2752E-006  
  678.00  1.7173E-005  
  678.50  3.9479E-005  
  679.00  3.8007E-005  
  679.50  3.4332E-005  
  680.00  5.1714E-005  
  680.50  1.0987E-004  
  681.00  1.3126E-004  
  681.50  1.2822E-004  
  682.00  1.1512E-004  
  682.50  1.0812E-004  
  683.00  1.2247E-004  
  683.50  1.2023E-004  
  684.00  1.2988E-004  
  684.50  1.0572E-004  
  685.00  8.3667E-005  
  685.50  7.2632E-005  
  686.00  8.0408E-005  
  686.50  1.2350E-004  
  687.00  1.5208E-004  
  687.50  1.7595E-004  
  688.00  1.5783E-004  
  688.50  1.5757E-004  
  689.00  1.1933E-004  
  689.50  1.0023E-004  
  690.00  6.3934E-005  
  690.50  4.8245E-005  
  691.00  3.7624E-005  
  691.50  8.6759E-006  
  692.00  0.0000E+000  
  692.50  4.7114E-005  
  693.00  1.3722E-004  
  693.50  2.1085E-004  
  694.00  1.9720E-004  
  694.50  1.9090E-004  
  695.00  1.0942E-004  
  695.50  3.9033E-005  
  696.00  1.9677E-006  
  696.50  3.5240E-005  
  697.00  5.7863E-005  
  697.50  5.2398E-005  
  698.00  4.5169E-005  
  698.50  4.9694E-005  
  699.00  3.0861E-005  
  699.50  4.7692E-005  
  700.00  4.7842E-005  
  700.50  5.5189E-005  
  701.00  1.8213E-005  
  701.50  3.8755E-005  
  702.00  5.3583E-005  
  702.50  7.8130E-005  
  703.00  4.6819E-005  
  703.50  5.4068E-005  
  704.00  6.8880E-005  
  704.50  1.2154E-004  
  705.00  1.6672E-004  
  705.50  2.7011E-004  
  706.00  3.8336E-004  
  706.50  4.4549E-004  
  707.00  4.6396E-004  
  707.50  4.4635E-004  
  708.00  4.8610E-004  
  708.50  5.1734E-004  
  709.00  5.6935E-004  
  709.50  5.4742E-004  
  710.00  4.4844E-004  
  710.50  3.1055E-004  
  711.00  2.4896E-004  
  711.50  2.7444E-004  
  712.00  3.5979E-004  
  712.50  3.7742E-004  
  713.00  3.4648E-004  
  713.50  2.5465E-004  
  714.00  2.0968E-004  
  714.50  1.8958E-004  
  715.00  1.4334E-004  
  715.50  7.7832E-005  
  716.00  3.9229E-005  
  716.50  5.1130E-005  
  717.00  6.1769E-005  
  717.50  4.5264E-005  
  718.00  4.2896E-006  
  718.50  1.9739E-005  
  719.00  5.7524E-005  
  719.50  3.0207E-005  
  720.00  0.0000E+000  
  720.50  0.0000E+000  
  721.00  2.3329E-005  
  721.50  6.5383E-005  
  722.00  4.5807E-005  
  722.50  6.9111E-006  
  723.00  9.5526E-006  
  723.50  2.6085E-005  
  724.00  4.5653E-005  
  724.50  4.7410E-005  
  725.00  4.4754E-005  
  725.50  4.8094E-005  
  726.00  9.1289E-005  
  726.50  8.3414E-005  
  727.00  3.4947E-005  
  727.50  0.0000E+000  
  728.00  2.0598E-005  
  728.50  3.9772E-005  
  729.00  4.2837E-005  
  729.50  5.8860E-005  
  730.00  1.3281E-004  
  730.50  1.4257E-004  
  731.00  9.7370E-005  
  731.50  1.3297E-005  
  732.00  0.0000E+000  
  732.50  0.0000E+000  
  733.00  0.0000E+000  
  733.50  0.0000E+000  
  734.00  0.0000E+000  
  734.50  3.0142E-005  
  735.00  4.4589E-005  
  735.50  0.0000E+000  
  736.00  0.0000E+000  
  736.50  2.3663E-005  
  737.00  6.9671E-005  
  737.50  8.6523E-005  
  738.00  7.0785E-006  
  738.50  0.0000E+000  
  739.00  0.0000E+000  
  739.50  0.0000E+000  
  740.00  3.1479E-007  
  740.50  4.6262E-005  
  741.00  3.6048E-005  
  741.50  7.1419E-005  
  742.00  8.3729E-005  
  742.50  1.2041E-004  
  743.00  6.0674E-005  
  743.50  7.1039E-005  
  744.00  3.1009E-005  
  744.50  1.7280E-005  
  745.00  7.7630E-006  
  745.50  3.2281E-005  
  746.00  3.4018E-005  
  746.50  2.4601E-005  
  747.00  1.1209E-005  
  747.50  1.6331E-005  
  748.00  2.4595E-006  
  748.50  0.0000E+000  
  749.00  0.0000E+000  
  749.50  0.0000E+000  
  750.00  2.6902E-005  
  750.50  9.3028E-005  
  751.00  1.5132E-004  
  751.50  1.5871E-004  
  752.00  7.7444E-005  
  752.50  0.0000E+000  
  753.00  0.0000E+000  
  753.50  0.0000E+000  
  754.00  0.0000E+000  
  754.50  0.0000E+000  
  755.00  3.6797E-006  
  755.50  0.0000E+000  
  756.00  0.0000E+000  
  756.50  0.0000E+000  
  757.00  0.0000E+000  
  757.50  0.0000E+000  
  758.00  0.0000E+000  
  758.50  5.9908E-006  
  759.00  3.7170E-005  
  759.50  3.3610E-005  
  760.00  5.3010E-005  
  760.50  1.0459E-004  
  761.00  1.3470E-004  
  761.50  6.6270E-005  
  762.00  0.0000E+000  
  762.50  6.2899E-005  
  763.00  2.4329E-004  
  763.50  2.8478E-004  
  764.00  2.1208E-004  
  764.50  6.0361E-005  
  765.00  0.0000E+000  
  765.50  0.0000E+000  
  766.00  0.0000E+000  
  766.50  0.0000E+000  
  767.00  0.0000E+000  
  767.50  2.5611E-005  
  768.00  1.2534E-005  
  768.50  3.5707E-005  
  769.00  1.1511E-005  
  769.50  1.4279E-005  
  770.00  0.0000E+000  
  770.50  0.0000E+000  
  771.00  0.0000E+000  
  771.50  4.7881E-005  
  772.00  5.4175E-005  
  772.50  9.1129E-006  
  773.00  0.0000E+000  
  773.50  0.0000E+000  
  774.00  2.9220E-005  
  774.50  7.5889E-005  
  775.00  1.1298E-005  
  775.50  1.4713E-006  
  776.00  5.3331E-005  
  776.50  7.2486E-005  
  777.00  3.3286E-005  
  777.50  9.5197E-005  
  778.00  1.0878E-004  
  778.50  3.8835E-005  
  779.00  2.2816E-005  
  779.50  6.3983E-005  
  780.00  1.1976E-004  
  780.50  1.0202E-004  
  781.00  2.5332E-005  
  781.50  0.0000E+000  
  782.00  0.0000E+000  
  782.50  0.0000E+000  
  783.00  0.0000E+000  
  783.50  0.0000E+000  
  784.00  2.0127E-005  
  784.50  6.2388E-005  
  785.00  5.7108E-007  
  785.50  0.0000E+000  
  786.00  0.0000E+000  
  786.50  0.0000E+000  
  787.00  0.0000E+000  
  787.50  3.9911E-005  
  788.00  3.5300E-006  
  788.50  0.0000E+000  
  789.00  0.0000E+000  
  789.50  0.0000E+000  
  790.00  0.0000E+000  
  790.50  0.0000E+000  
  791.00  0.0000E+000  
  791.50  0.0000E+000  
  792.00  0.0000E+000  
  792.50  0.0000E+000  
  793.00  0.0000E+000  
  793.50  5.7563E-005  
  794.00  1.3801E-004  
  794.50  9.1475E-005  
  795.00  2.1487E-005  
  795.50  0.0000E+000  
  796.00  1.7060E-005  
  796.50  6.8898E-005  
  797.00  4.0768E-006  
  797.50  0.0000E+000  
  798.00  0.0000E+000  
  798.50  0.0000E+000  
  799.00  0.0000E+000  
  799.50  0.0000E+000  
  800.00  0.0000E+000  
  800.50  2.4299E-005  
  801.00  7.0921E-006  
  801.50  0.0000E+000  
  802.00  0.0000E+000  
  802.50  1.8397E-004  
  803.00  2.1265E-004  
  803.50  8.3342E-005  
  804.00  1.6480E-005  
  804.50  4.3002E-005  
  805.00  0.0000E+000  
  805.50  0.0000E+000  
  806.00  0.0000E+000  
  806.50  1.5981E-006  
  807.00  2.1087E-006  
  807.50  0.0000E+000  
  808.00  0.0000E+000  
  808.50  2.4784E-005  
  809.00  5.8245E-005  
  809.50  1.3044E-004  
  810.00  1.5391E-004  
  810.50  1.4903E-004  
  811.00  1.7810E-004  
  811.50  3.0787E-004  
  812.00  4.5459E-004  
  812.50  2.4167E-004  
  813.00  2.6770E-005  
  813.50  0.0000E+000  
  814.00  0.0000E+000  
  814.50  7.9382E-006  
  815.00  0.0000E+000  
  815.50  0.0000E+000  
  816.00  0.0000E+000  
  816.50  1.9876E-006  
  817.00  5.0637E-005  
  817.50  1.3711E-004  
  818.00  0.0000E+000  
  818.50  0.0000E+000  
  819.00  0.0000E+000  
  819.50  0.0000E+000  
  820.00  0.0000E+000  
  820.50  0.0000E+000  
  821.00  0.0000E+000  
  821.50  0.0000E+000  
  822.00  0.0000E+000  
  822.50  4.4878E-005  
  823.00  1.2421E-004  
  823.50  1.8267E-005  
  824.00  2.5312E-006  
  824.50  8.5693E-005  
  825.00  2.4445E-004  
  825.50  2.4882E-004  
  826.00  2.1187E-004  
  826.50  9.3823E-005  
  827.00  0.0000E+000  
  827.50  6.9799E-006  
  828.00  0.0000E+000  
  828.50  0.0000E+000  
  829.00  0.0000E+000  
  829.50  5.9678E-005  
  830.00  2.2348E-004  
  830.50  1.9150E-004  
  831.00  8.6018E-005  
  831.50  6.1797E-006  
  832.00  0.0000E+000  
  832.50  0.0000E+000  
  833.00  0.0000E+000  
  833.50  4.9930E-005  
  834.00  2.6411E-004  
  834.50  2.8642E-004  
  835.00  2.2467E-004  
  835.50  1.2587E-004  
  836.00  2.7301E-006  
  836.50  0.0000E+000  
  837.00  0.0000E+000  
  837.50  0.0000E+000  
  838.00  0.0000E+000  
  838.50  0.0000E+000  
  839.00  3.2065E-005  
  839.50  1.5605E-005  
  840.00  1.3230E-004  
  840.50  1.9431E-004  
  841.00  0.0000E+000  
  841.50  1.7490E-007  
  842.00  1.1722E-004  
  842.50  2.5695E-004  
  843.00  6.7782E-005  
  843.50  0.0000E+000  
  844.00  2.1382E-005  
  844.50  0.0000E+000  
  845.00  0.0000E+000  
  845.50  1.8770E-005  
  846.00  1.3440E-004  
  846.50  2.0515E-004  
  847.00  7.2093E-005  
  847.50  0.0000E+000  
  848.00  0.0000E+000  
  848.50  0.0000E+000  
  849.00  1.2555E-004  
  849.50  4.5653E-005  
  850.00  0.0000E+000  
  850.50  0.0000E+000  
  851.00  0.0000E+000  
  851.50  0.0000E+000  
  852.00  0.0000E+000  
  852.50  0.0000E+000  
  853.00  0.0000E+000  
  853.50  0.0000E+000  
  854.00  6.4927E-005  
  854.50  7.1365E-005  
  855.00  1.5205E-004  
  855.50  1.5509E-004  
  856.00  1.5036E-004  
  856.50  4.8768E-005  
  857.00  5.8087E-007  
  857.50  6.4087E-006  
  858.00  9.9985E-005  
  858.50  1.6345E-004  
  859.00  2.3454E-004  
  859.50  7.8482E-005  
  860.00  1.2814E-005  
  860.50  2.4554E-005  
  861.00  3.1799E-005  
  861.50  0.0000E+000  
  862.00  3.3079E-006  
  862.50  8.9778E-007  
  863.00  0.0000E+000  
  863.50  0.0000E+000  
  864.00  1.2785E-006  
  864.50  1.3604E-004  
  865.00  2.4838E-004  
  865.50  0.0000E+000  
  866.00  0.0000E+000  
  866.50  0.0000E+000  
  867.00  0.0000E+000  
  867.50  0.0000E+000  
  868.00  0.0000E+000  
  868.50  1.5328E-004  
  869.00  1.7007E-005  
  869.50  0.0000E+000  
  870.00  1.0150E-005  
  870.50  2.2134E-005  
  871.00  0.0000E+000  
  871.50  0.0000E+000  
  872.00  0.0000E+000  
  872.50  0.0000E+000  
  873.00  9.4224E-005  
  873.50  1.8053E-005  
  874.00  4.0863E-005  
  874.50  3.5107E-004  
  875.00  2.7381E-004  
  875.50  4.8760E-005  
  876.00  8.4881E-005  
  876.50  1.4177E-004  
  877.00  1.2918E-004  
  877.50  4.3044E-005  
  878.00  9.6725E-005  
  878.50  0.0000E+000  
  879.00  0.0000E+000  
  879.50  0.0000E+000  
  880.00  0.0000E+000  
  880.50  0.0000E+000  
  881.00  0.0000E+000  
  881.50  0.0000E+000  
  882.00  0.0000E+000  
  882.50  0.0000E+000  
  883.00  9.8278E-005  
  883.50  2.8881E-005  
  884.00  0.0000E+000  
  884.50  0.0000E+000  
  885.00  0.0000E+000  
  885.50  0.0000E+000  
  886.00  0.0000E+000  
  886.50  1.0397E-007  
  887.00  0.0000E+000  
  887.50  0.0000E+000  
  888.00  0.0000E+000  
  888.50  1.2537E-004  
  889.00  1.3916E-004  
  889.50  1.4683E-004  
  890.00  5.6209E-004  
  890.50  4.2583E-004  
  891.00  7.0773E-005  
  891.50  1.0638E-005  
  892.00  0.0000E+000  
  892.50  0.0000E+000  
  893.00  0.0000E+000  
  893.50  0.0000E+000  
  894.00  0.0000E+000  
  894.50  0.0000E+000  
  895.00  5.0834E-004  
  895.50  7.4222E-004  
  896.00  2.4268E-004  
  896.50  0.0000E+000  
  897.00  0.0000E+000  
  897.50  0.0000E+000  
  898.00  0.0000E+000  
  898.50  0.0000E+000  
  899.00  7.7773E-005  
  899.50  1.2962E-005  
