
# From lspdd.org
# 
# Name: DEL Philips Blue-Golite-P1-Apollo 1750Lux Luminothérapie
# Indice spectral Valeur 
# MSI 8.36 
# SLI 6.64 
# IPI 4.97 
# Pourcentage de bleu 99.4 
# Caractéristique Valeur 
# CCT calculée (K) 100000000000 
# CCT du fabricant (K) ND 
# Tension (V) ND 
# Puissance (W) ND 
# Efficacité lumineuse (Lum/W) ND 
#
# Image: '/app/system/img_2s/2489/medium_image2.JPG?1413485903'
# Image: '/app/system/img_1s/2489/medium_image1.JPG?1413485907'
# 

  273.00  0.0000E+000  
  273.50  0.0000E+000  
  274.00  0.0000E+000  
  274.50  0.0000E+000  
  275.00  0.0000E+000  
  275.50  0.0000E+000  
  276.00  0.0000E+000  
  276.50  0.0000E+000  
  277.00  0.0000E+000  
  277.50  0.0000E+000  
  278.00  0.0000E+000  
  278.50  0.0000E+000  
  279.00  0.0000E+000  
  279.50  0.0000E+000  
  280.00  0.0000E+000  
  280.50  0.0000E+000  
  281.00  0.0000E+000  
  281.50  0.0000E+000  
  282.00  0.0000E+000  
  282.50  0.0000E+000  
  283.00  0.0000E+000  
  283.50  0.0000E+000  
  284.00  0.0000E+000  
  284.50  0.0000E+000  
  285.00  0.0000E+000  
  285.50  0.0000E+000  
  286.00  0.0000E+000  
  286.50  0.0000E+000  
  287.00  0.0000E+000  
  287.50  0.0000E+000  
  288.00  0.0000E+000  
  288.50  0.0000E+000  
  289.00  0.0000E+000  
  289.50  0.0000E+000  
  290.00  0.0000E+000  
  290.50  0.0000E+000  
  291.00  0.0000E+000  
  291.50  0.0000E+000  
  292.00  0.0000E+000  
  292.50  0.0000E+000  
  293.00  0.0000E+000  
  293.50  0.0000E+000  
  294.00  0.0000E+000  
  294.50  0.0000E+000  
  295.00  0.0000E+000  
  295.50  0.0000E+000  
  296.00  0.0000E+000  
  296.50  0.0000E+000  
  297.00  0.0000E+000  
  297.50  0.0000E+000  
  298.00  0.0000E+000  
  298.50  0.0000E+000  
  299.00  0.0000E+000  
  299.50  0.0000E+000  
  300.00  3.6855E-005  
  300.50  5.6400E-005  
  301.00  1.0039E-006  
  301.50  0.0000E+000  
  302.00  0.0000E+000  
  302.50  0.0000E+000  
  303.00  8.7893E-005  
  303.50  1.8659E-004  
  304.00  2.6319E-004  
  304.50  2.4575E-004  
  305.00  1.2521E-004  
  305.50  4.7157E-005  
  306.00  6.3521E-005  
  306.50  9.8197E-005  
  307.00  2.1276E-004  
  307.50  3.0148E-004  
  308.00  2.0211E-004  
  308.50  6.2599E-005  
  309.00  0.0000E+000  
  309.50  0.0000E+000  
  310.00  0.0000E+000  
  310.50  8.8142E-006  
  311.00  0.0000E+000  
  311.50  1.1753E-005  
  312.00  9.0270E-005  
  312.50  1.3945E-004  
  313.00  1.8580E-004  
  313.50  1.9921E-004  
  314.00  7.8882E-005  
  314.50  1.3258E-004  
  315.00  1.8097E-004  
  315.50  2.3612E-004  
  316.00  2.9806E-004  
  316.50  2.7450E-004  
  317.00  2.8772E-004  
  317.50  3.2975E-004  
  318.00  3.7005E-004  
  318.50  4.5414E-004  
  319.00  3.7573E-004  
  319.50  2.8994E-004  
  320.00  2.4455E-004  
  320.50  1.7493E-004  
  321.00  2.4706E-004  
  321.50  2.2631E-004  
  322.00  1.9485E-004  
  322.50  1.4701E-004  
  323.00  4.2477E-005  
  323.50  6.3280E-006  
  324.00  0.0000E+000  
  324.50  1.5043E-005  
  325.00  1.7741E-005  
  325.50  0.0000E+000  
  326.00  0.0000E+000  
  326.50  0.0000E+000  
  327.00  6.8933E-005  
  327.50  2.0153E-004  
  328.00  2.7268E-004  
  328.50  2.3743E-004  
  329.00  2.1361E-004  
  329.50  2.0251E-004  
  330.00  1.5764E-004  
  330.50  1.7800E-004  
  331.00  1.3526E-004  
  331.50  7.7209E-005  
  332.00  2.3029E-005  
  332.50  0.0000E+000  
  333.00  0.0000E+000  
  333.50  0.0000E+000  
  334.00  0.0000E+000  
  334.50  1.2292E-004  
  335.00  1.8087E-004  
  335.50  2.1430E-004  
  336.00  1.9293E-004  
  336.50  6.3301E-005  
  337.00  4.0051E-005  
  337.50  7.1028E-007  
  338.00  6.7562E-006  
  338.50  9.6419E-005  
  339.00  1.9431E-004  
  339.50  2.8241E-004  
  340.00  2.6392E-004  
  340.50  3.0655E-004  
  341.00  3.5157E-004  
  341.50  3.3118E-004  
  342.00  2.3295E-004  
  342.50  4.3693E-005  
  343.00  3.8282E-006  
  343.50  4.8942E-005  
  344.00  1.2176E-004  
  344.50  1.9172E-004  
  345.00  1.4386E-004  
  345.50  1.3974E-004  
  346.00  2.0108E-004  
  346.50  1.8041E-004  
  347.00  1.8536E-004  
  347.50  1.8202E-004  
  348.00  2.2117E-004  
  348.50  2.5655E-004  
  349.00  2.3155E-004  
  349.50  1.4361E-004  
  350.00  0.0000E+000  
  350.50  0.0000E+000  
  351.00  0.0000E+000  
  351.50  0.0000E+000  
  352.00  0.0000E+000  
  352.50  6.3872E-006  
  353.00  1.8877E-004  
  353.50  3.2178E-004  
  354.00  4.0968E-004  
  354.50  3.4828E-004  
  355.00  3.1368E-004  
  355.50  2.8981E-004  
  356.00  3.2486E-004  
  356.50  3.5057E-004  
  357.00  3.9853E-004  
  357.50  4.8218E-004  
  358.00  5.3017E-004  
  358.50  5.1723E-004  
  359.00  4.2213E-004  
  359.50  3.5013E-004  
  360.00  3.2374E-004  
  360.50  3.7363E-004  
  361.00  3.5979E-004  
  361.50  3.5354E-004  
  362.00  3.4132E-004  
  362.50  3.3959E-004  
  363.00  2.8488E-004  
  363.50  1.7551E-004  
  364.00  1.0816E-004  
  364.50  5.6055E-005  
  365.00  1.5673E-005  
  365.50  0.0000E+000  
  366.00  8.8553E-006  
  366.50  1.4429E-005  
  367.00  1.1443E-004  
  367.50  2.1736E-004  
  368.00  2.8761E-004  
  368.50  4.2810E-004  
  369.00  3.8012E-004  
  369.50  2.8072E-004  
  370.00  1.5951E-004  
  370.50  1.6663E-004  
  371.00  1.7627E-004  
  371.50  1.8206E-004  
  372.00  2.3838E-004  
  372.50  1.0565E-004  
  373.00  9.8704E-005  
  373.50  8.3370E-005  
  374.00  5.4963E-005  
  374.50  1.4780E-004  
  375.00  1.9412E-004  
  375.50  1.4456E-004  
  376.00  1.2498E-004  
  376.50  1.1531E-004  
  377.00  1.0884E-004  
  377.50  1.2726E-004  
  378.00  1.1614E-004  
  378.50  1.1618E-004  
  379.00  1.4588E-004  
  379.50  1.9868E-004  
  380.00  2.3286E-004  
  380.50  1.9398E-004  
  381.00  1.6636E-004  
  381.50  2.2599E-004  
  382.00  3.0969E-004  
  382.50  3.1918E-004  
  383.00  3.0325E-004  
  383.50  2.5036E-004  
  384.00  1.9572E-004  
  384.50  2.4354E-004  
  385.00  2.7421E-004  
  385.50  3.2291E-004  
  386.00  3.1585E-004  
  386.50  3.8264E-004  
  387.00  3.8196E-004  
  387.50  4.0528E-004  
  388.00  3.8877E-004  
  388.50  3.2102E-004  
  389.00  2.4035E-004  
  389.50  2.2969E-004  
  390.00  2.2296E-004  
  390.50  3.1740E-004  
  391.00  3.9826E-004  
  391.50  5.1611E-004  
  392.00  5.7342E-004  
  392.50  5.7054E-004  
  393.00  4.9897E-004  
  393.50  4.9949E-004  
  394.00  5.1686E-004  
  394.50  4.9771E-004  
  395.00  5.7178E-004  
  395.50  5.4418E-004  
  396.00  5.2887E-004  
  396.50  4.7377E-004  
  397.00  4.4441E-004  
  397.50  4.3731E-004  
  398.00  4.1918E-004  
  398.50  5.0360E-004  
  399.00  5.3129E-004  
  399.50  5.6971E-004  
  400.00  5.7240E-004  
  400.50  5.7283E-004  
  401.00  5.3341E-004  
  401.50  5.5063E-004  
  402.00  5.5509E-004  
  402.50  4.7754E-004  
  403.00  5.1637E-004  
  403.50  5.7426E-004  
  404.00  7.1834E-004  
  404.50  8.3119E-004  
  405.00  7.9922E-004  
  405.50  7.4166E-004  
  406.00  7.7290E-004  
  406.50  9.0148E-004  
  407.00  1.0316E-003  
  407.50  1.0224E-003  
  408.00  9.3375E-004  
  408.50  8.4074E-004  
  409.00  7.7249E-004  
  409.50  7.3550E-004  
  410.00  7.4730E-004  
  410.50  7.2706E-004  
  411.00  7.1581E-004  
  411.50  6.8665E-004  
  412.00  6.9771E-004  
  412.50  7.6993E-004  
  413.00  8.1340E-004  
  413.50  8.7647E-004  
  414.00  9.2125E-004  
  414.50  9.8627E-004  
  415.00  1.0559E-003  
  415.50  1.1001E-003  
  416.00  1.1212E-003  
  416.50  1.1946E-003  
  417.00  1.2906E-003  
  417.50  1.4231E-003  
  418.00  1.4666E-003  
  418.50  1.4677E-003  
  419.00  1.5110E-003  
  419.50  1.5401E-003  
  420.00  1.5454E-003  
  420.50  1.5628E-003  
  421.00  1.5746E-003  
  421.50  1.6911E-003  
  422.00  1.8611E-003  
  422.50  2.0108E-003  
  423.00  2.1510E-003  
  423.50  2.2729E-003  
  424.00  2.5121E-003  
  424.50  2.7257E-003  
  425.00  2.9452E-003  
  425.50  3.0776E-003  
  426.00  3.1911E-003  
  426.50  3.3583E-003  
  427.00  3.6428E-003  
  427.50  3.9541E-003  
  428.00  4.2386E-003  
  428.50  4.5977E-003  
  429.00  4.7980E-003  
  429.50  5.1379E-003  
  430.00  5.4755E-003  
  430.50  5.8821E-003  
  431.00  6.3491E-003  
  431.50  6.7908E-003  
  432.00  7.3454E-003  
  432.50  7.8515E-003  
  433.00  8.4408E-003  
  433.50  8.9551E-003  
  434.00  9.4427E-003  
  434.50  1.0133E-002  
  435.00  1.0927E-002  
  435.50  1.1792E-002  
  436.00  1.2743E-002  
  436.50  1.3659E-002  
  437.00  1.4741E-002  
  437.50  1.5952E-002  
  438.00  1.7258E-002  
  438.50  1.8481E-002  
  439.00  1.9766E-002  
  439.50  2.1283E-002  
  440.00  2.3002E-002  
  440.50  2.4970E-002  
  441.00  2.7063E-002  
  441.50  2.9267E-002  
  442.00  3.1656E-002  
  442.50  3.4075E-002  
  443.00  3.6690E-002  
  443.50  3.9532E-002  
  444.00  4.2546E-002  
  444.50  4.5894E-002  
  445.00  4.9443E-002  
  445.50  5.3262E-002  
  446.00  5.7465E-002  
  446.50  6.1872E-002  
  447.00  6.6574E-002  
  447.50  7.1783E-002  
  448.00  7.7224E-002  
  448.50  8.3055E-002  
  449.00  8.9187E-002  
  449.50  9.5664E-002  
  450.00  1.0282E-001  
  450.50  1.1017E-001  
  451.00  1.1787E-001  
  451.50  1.2557E-001  
  452.00  1.3367E-001  
  452.50  1.4246E-001  
  453.00  1.5135E-001  
  453.50  1.6034E-001  
  454.00  1.6943E-001  
  454.50  1.7899E-001  
  455.00  1.8940E-001  
  455.50  1.9972E-001  
  456.00  2.0981E-001  
  456.50  2.1991E-001  
  457.00  2.2982E-001  
  457.50  2.3940E-001  
  458.00  2.4819E-001  
  458.50  2.5553E-001  
  459.00  2.6255E-001  
  459.50  2.6851E-001  
  460.00  2.7369E-001  
  460.50  2.7850E-001  
  461.00  2.8223E-001  
  461.50  2.8462E-001  
  462.00  2.8588E-001  
  462.50  2.8603E-001  
  463.00  2.8532E-001  
  463.50  2.8342E-001  
  464.00  2.7972E-001  
  464.50  2.7458E-001  
  465.00  2.6909E-001  
  465.50  2.6309E-001  
  466.00  2.5609E-001  
  466.50  2.4804E-001  
  467.00  2.3898E-001  
  467.50  2.3020E-001  
  468.00  2.2162E-001  
  468.50  2.1326E-001  
  469.00  2.0472E-001  
  469.50  1.9606E-001  
  470.00  1.8773E-001  
  470.50  1.7992E-001  
  471.00  1.7252E-001  
  471.50  1.6518E-001  
  472.00  1.5787E-001  
  472.50  1.5090E-001  
  473.00  1.4443E-001  
  473.50  1.3884E-001  
  474.00  1.3359E-001  
  474.50  1.2838E-001  
  475.00  1.2296E-001  
  475.50  1.1757E-001  
  476.00  1.1248E-001  
  476.50  1.0819E-001  
  477.00  1.0438E-001  
  477.50  1.0061E-001  
  478.00  9.6847E-002  
  478.50  9.3378E-002  
  479.00  8.9994E-002  
  479.50  8.6668E-002  
  480.00  8.3078E-002  
  480.50  7.9299E-002  
  481.00  7.5702E-002  
  481.50  7.2275E-002  
  482.00  6.9041E-002  
  482.50  6.5895E-002  
  483.00  6.3017E-002  
  483.50  6.0271E-002  
  484.00  5.7541E-002  
  484.50  5.4763E-002  
  485.00  5.1915E-002  
  485.50  4.9293E-002  
  486.00  4.6729E-002  
  486.50  4.4523E-002  
  487.00  4.2485E-002  
  487.50  4.0613E-002  
  488.00  3.8872E-002  
  488.50  3.6982E-002  
  489.00  3.5135E-002  
  489.50  3.3313E-002  
  490.00  3.1711E-002  
  490.50  3.0261E-002  
  491.00  2.8966E-002  
  491.50  2.7702E-002  
  492.00  2.6496E-002  
  492.50  2.5293E-002  
  493.00  2.4087E-002  
  493.50  2.2953E-002  
  494.00  2.1923E-002  
  494.50  2.1043E-002  
  495.00  2.0203E-002  
  495.50  1.9401E-002  
  496.00  1.8614E-002  
  496.50  1.7806E-002  
  497.00  1.7021E-002  
  497.50  1.6315E-002  
  498.00  1.5613E-002  
  498.50  1.4992E-002  
  499.00  1.4347E-002  
  499.50  1.3762E-002  
  500.00  1.3204E-002  
  500.50  1.2625E-002  
  501.00  1.2054E-002  
  501.50  1.1449E-002  
  502.00  1.0849E-002  
  502.50  1.0325E-002  
  503.00  9.9084E-003  
  503.50  9.6347E-003  
  504.00  9.3204E-003  
  504.50  8.9631E-003  
  505.00  8.5908E-003  
  505.50  8.2406E-003  
  506.00  7.9444E-003  
  506.50  7.5822E-003  
  507.00  7.1919E-003  
  507.50  6.7934E-003  
  508.00  6.4943E-003  
  508.50  6.2553E-003  
  509.00  6.0651E-003  
  509.50  5.8390E-003  
  510.00  5.5791E-003  
  510.50  5.2940E-003  
  511.00  5.0332E-003  
  511.50  4.8030E-003  
  512.00  4.6032E-003  
  512.50  4.3889E-003  
  513.00  4.1965E-003  
  513.50  4.0241E-003  
  514.00  3.9244E-003  
  514.50  3.8542E-003  
  515.00  3.6922E-003  
  515.50  3.5205E-003  
  516.00  3.3780E-003  
  516.50  3.2945E-003  
  517.00  3.2072E-003  
  517.50  3.0787E-003  
  518.00  2.9018E-003  
  518.50  2.7539E-003  
  519.00  2.6132E-003  
  519.50  2.5260E-003  
  520.00  2.4892E-003  
  520.50  2.4214E-003  
  521.00  2.3369E-003  
  521.50  2.2325E-003  
  522.00  2.1205E-003  
  522.50  2.0344E-003  
  523.00  1.9953E-003  
  523.50  1.9399E-003  
  524.00  1.8965E-003  
  524.50  1.7980E-003  
  525.00  1.7324E-003  
  525.50  1.6710E-003  
  526.00  1.6159E-003  
  526.50  1.5534E-003  
  527.00  1.4720E-003  
  527.50  1.4247E-003  
  528.00  1.3842E-003  
  528.50  1.3574E-003  
  529.00  1.3655E-003  
  529.50  1.3435E-003  
  530.00  1.2858E-003  
  530.50  1.2010E-003  
  531.00  1.1627E-003  
  531.50  1.1676E-003  
  532.00  1.1942E-003  
  532.50  1.1115E-003  
  533.00  1.0089E-003  
  533.50  9.0465E-004  
  534.00  8.6248E-004  
  534.50  8.5727E-004  
  535.00  8.4413E-004  
  535.50  8.0788E-004  
  536.00  7.5102E-004  
  536.50  6.9683E-004  
  537.00  6.6251E-004  
  537.50  6.5980E-004  
  538.00  6.8534E-004  
  538.50  7.6635E-004  
  539.00  8.5148E-004  
  539.50  8.8098E-004  
  540.00  8.3234E-004  
  540.50  7.7043E-004  
  541.00  7.0276E-004  
  541.50  6.9142E-004  
  542.00  6.3407E-004  
  542.50  5.8905E-004  
  543.00  5.3877E-004  
  543.50  4.7257E-004  
  544.00  4.1971E-004  
  544.50  3.9771E-004  
  545.00  4.5914E-004  
  545.50  5.1106E-004  
  546.00  5.1898E-004  
  546.50  4.4703E-004  
  547.00  4.2229E-004  
  547.50  4.3829E-004  
  548.00  4.8122E-004  
  548.50  4.6774E-004  
  549.00  4.3496E-004  
  549.50  3.7518E-004  
  550.00  4.0898E-004  
  550.50  4.5822E-004  
  551.00  4.8641E-004  
  551.50  4.3813E-004  
  552.00  3.7336E-004  
  552.50  2.7609E-004  
  553.00  2.0909E-004  
  553.50  2.3305E-004  
  554.00  2.5075E-004  
  554.50  2.8177E-004  
  555.00  3.1451E-004  
  555.50  2.6316E-004  
  556.00  2.7272E-004  
  556.50  2.5634E-004  
  557.00  2.6867E-004  
  557.50  3.2581E-004  
  558.00  3.0753E-004  
  558.50  2.6526E-004  
  559.00  2.2110E-004  
  559.50  2.5205E-004  
  560.00  2.9287E-004  
  560.50  3.3383E-004  
  561.00  3.3708E-004  
  561.50  3.5314E-004  
  562.00  3.0353E-004  
  562.50  2.2256E-004  
  563.00  1.6022E-004  
  563.50  1.6005E-004  
  564.00  2.0818E-004  
  564.50  2.8859E-004  
  565.00  3.7217E-004  
  565.50  4.1659E-004  
  566.00  3.6218E-004  
  566.50  2.8251E-004  
  567.00  2.2956E-004  
  567.50  2.7600E-004  
  568.00  3.3259E-004  
  568.50  3.8876E-004  
  569.00  4.1034E-004  
  569.50  3.2477E-004  
  570.00  2.1446E-004  
  570.50  1.2107E-004  
  571.00  1.1117E-004  
  571.50  9.4256E-005  
  572.00  1.0298E-004  
  572.50  6.2934E-005  
  573.00  6.7389E-005  
  573.50  1.7420E-005  
  574.00  2.8412E-005  
  574.50  1.1826E-004  
  575.00  1.9280E-004  
  575.50  2.1669E-004  
  576.00  1.2812E-004  
  576.50  8.8109E-005  
  577.00  9.9869E-005  
  577.50  1.3780E-004  
  578.00  1.4187E-004  
  578.50  9.5068E-005  
  579.00  6.7037E-005  
  579.50  8.5560E-005  
  580.00  7.8485E-005  
  580.50  4.2294E-005  
  581.00  6.0918E-005  
  581.50  1.0221E-004  
  582.00  1.4874E-004  
  582.50  1.5512E-004  
  583.00  1.8200E-004  
  583.50  2.1174E-004  
  584.00  2.3021E-004  
  584.50  1.7265E-004  
  585.00  1.1618E-004  
  585.50  1.1736E-004  
  586.00  9.1308E-005  
  586.50  7.5554E-005  
  587.00  2.9382E-005  
  587.50  2.8344E-005  
  588.00  6.6176E-005  
  588.50  1.0529E-004  
  589.00  1.2353E-004  
  589.50  1.7521E-004  
  590.00  1.9793E-004  
  590.50  2.1240E-004  
  591.00  1.7777E-004  
  591.50  1.5944E-004  
  592.00  1.4314E-004  
  592.50  7.3295E-005  
  593.00  6.7013E-005  
  593.50  9.8697E-005  
  594.00  1.8440E-004  
  594.50  1.9396E-004  
  595.00  1.4169E-004  
  595.50  6.9937E-005  
  596.00  5.6335E-005  
  596.50  4.2759E-005  
  597.00  5.9305E-005  
  597.50  1.0042E-004  
  598.00  1.2226E-004  
  598.50  1.7803E-004  
  599.00  1.2893E-004  
  599.50  1.5128E-005  
  600.00  0.0000E+000  
  600.50  0.0000E+000  
  601.00  6.5488E-005  
  601.50  1.8266E-004  
  602.00  1.9490E-004  
  602.50  2.1232E-004  
  603.00  1.4461E-004  
  603.50  1.6472E-004  
  604.00  1.4584E-004  
  604.50  1.2545E-004  
  605.00  6.8598E-005  
  605.50  3.4868E-005  
  606.00  1.1946E-004  
  606.50  2.2796E-004  
  607.00  2.6993E-004  
  607.50  2.5878E-004  
  608.00  1.2602E-004  
  608.50  8.5457E-005  
  609.00  3.3653E-005  
  609.50  4.0418E-005  
  610.00  5.8741E-005  
  610.50  9.2490E-005  
  611.00  1.8720E-004  
  611.50  1.9068E-004  
  612.00  1.1387E-004  
  612.50  4.4839E-005  
  613.00  6.7143E-005  
  613.50  1.5291E-004  
  614.00  1.5086E-004  
  614.50  1.1416E-004  
  615.00  8.4013E-005  
  615.50  3.1279E-005  
  616.00  2.1748E-005  
  616.50  1.0836E-006  
  617.00  2.3503E-005  
  617.50  3.6000E-005  
  618.00  6.8196E-005  
  618.50  4.3643E-005  
  619.00  6.3808E-005  
  619.50  6.0275E-005  
  620.00  6.8397E-005  
  620.50  1.0241E-004  
  621.00  7.3573E-005  
  621.50  1.2176E-004  
  622.00  1.3063E-004  
  622.50  1.4857E-004  
  623.00  8.1265E-005  
  623.50  7.0105E-005  
  624.00  2.6956E-005  
  624.50  5.7710E-005  
  625.00  1.3678E-005  
  625.50  3.8328E-005  
  626.00  4.0001E-005  
  626.50  9.4938E-005  
  627.00  1.5466E-004  
  627.50  2.1383E-004  
  628.00  2.4457E-004  
  628.50  1.1027E-004  
  629.00  0.0000E+000  
  629.50  0.0000E+000  
  630.00  0.0000E+000  
  630.50  0.0000E+000  
  631.00  0.0000E+000  
  631.50  0.0000E+000  
  632.00  0.0000E+000  
  632.50  0.0000E+000  
  633.00  0.0000E+000  
  633.50  0.0000E+000  
  634.00  0.0000E+000  
  634.50  3.2740E-005  
  635.00  1.5809E-004  
  635.50  2.1788E-004  
  636.00  3.1313E-004  
  636.50  3.0265E-004  
  637.00  1.4145E-004  
  637.50  4.7713E-006  
  638.00  0.0000E+000  
  638.50  1.0367E-004  
  639.00  2.0530E-004  
  639.50  2.0679E-004  
  640.00  1.8452E-004  
  640.50  1.2778E-004  
  641.00  4.8690E-005  
  641.50  0.0000E+000  
  642.00  0.0000E+000  
  642.50  2.3117E-005  
  643.00  6.0703E-005  
  643.50  8.2227E-005  
  644.00  1.5279E-004  
  644.50  1.2965E-004  
  645.00  2.3063E-005  
  645.50  0.0000E+000  
  646.00  0.0000E+000  
  646.50  0.0000E+000  
  647.00  0.0000E+000  
  647.50  6.1727E-005  
  648.00  2.1027E-005  
  648.50  0.0000E+000  
  649.00  0.0000E+000  
  649.50  2.3623E-005  
  650.00  9.0716E-005  
  650.50  1.3401E-004  
  651.00  3.5471E-005  
  651.50  1.9945E-005  
  652.00  5.1272E-005  
  652.50  1.6608E-004  
  653.00  1.3165E-004  
  653.50  4.6821E-005  
  654.00  0.0000E+000  
  654.50  0.0000E+000  
  655.00  0.0000E+000  
  655.50  0.0000E+000  
  656.00  0.0000E+000  
  656.50  0.0000E+000  
  657.00  0.0000E+000  
  657.50  4.0658E-006  
  658.00  3.9994E-005  
  658.50  1.0949E-004  
  659.00  4.2264E-005  
  659.50  3.1942E-005  
  660.00  4.9476E-006  
  660.50  0.0000E+000  
  661.00  0.0000E+000  
  661.50  0.0000E+000  
  662.00  3.8395E-005  
  662.50  9.0955E-005  
  663.00  1.0538E-005  
  663.50  0.0000E+000  
  664.00  0.0000E+000  
  664.50  8.0022E-005  
  665.00  9.5662E-005  
  665.50  3.4024E-005  
  666.00  8.4610E-005  
  666.50  2.0163E-005  
  667.00  6.2484E-007  
  667.50  0.0000E+000  
  668.00  0.0000E+000  
  668.50  0.0000E+000  
  669.00  0.0000E+000  
  669.50  0.0000E+000  
  670.00  3.7731E-007  
  670.50  1.7848E-005  
  671.00  1.9243E-005  
  671.50  0.0000E+000  
  672.00  0.0000E+000  
  672.50  2.8041E-005  
  673.00  9.3905E-005  
  673.50  1.3592E-004  
  674.00  1.8977E-004  
  674.50  1.0686E-004  
  675.00  2.2484E-005  
  675.50  5.7263E-006  
  676.00  4.2643E-005  
  676.50  1.1928E-005  
  677.00  0.0000E+000  
  677.50  0.0000E+000  
  678.00  0.0000E+000  
  678.50  0.0000E+000  
  679.00  0.0000E+000  
  679.50  1.3859E-005  
  680.00  0.0000E+000  
  680.50  7.8183E-005  
  681.00  1.7624E-004  
  681.50  2.2390E-004  
  682.00  1.1944E-004  
  682.50  2.5426E-005  
  683.00  6.9481E-005  
  683.50  1.6525E-004  
  684.00  1.6669E-004  
  684.50  1.6367E-004  
  685.00  1.3202E-004  
  685.50  8.0013E-005  
  686.00  5.2781E-005  
  686.50  5.2645E-005  
  687.00  9.2581E-005  
  687.50  1.0821E-004  
  688.00  1.4790E-004  
  688.50  1.7001E-004  
  689.00  4.2918E-005  
  689.50  0.0000E+000  
  690.00  0.0000E+000  
  690.50  0.0000E+000  
  691.00  1.8377E-005  
  691.50  1.4722E-005  
  692.00  0.0000E+000  
  692.50  1.6523E-005  
  693.00  7.1211E-005  
  693.50  1.1104E-004  
  694.00  6.2048E-006  
  694.50  0.0000E+000  
  695.00  0.0000E+000  
  695.50  0.0000E+000  
  696.00  0.0000E+000  
  696.50  0.0000E+000  
  697.00  0.0000E+000  
  697.50  0.0000E+000  
  698.00  0.0000E+000  
  698.50  1.2006E-004  
  699.00  1.1138E-004  
  699.50  1.3087E-005  
  700.00  0.0000E+000  
  700.50  8.6684E-006  
  701.00  8.0300E-005  
  701.50  1.3128E-004  
  702.00  1.6738E-004  
  702.50  1.6994E-004  
  703.00  1.4782E-004  
  703.50  3.5479E-005  
  704.00  0.0000E+000  
  704.50  0.0000E+000  
  705.00  0.0000E+000  
  705.50  8.9183E-005  
  706.00  1.1667E-004  
  706.50  1.0967E-004  
  707.00  8.2096E-005  
  707.50  1.8493E-005  
  708.00  5.6737E-006  
  708.50  5.5692E-005  
  709.00  4.9967E-005  
  709.50  2.8216E-005  
  710.00  5.1068E-006  
  710.50  0.0000E+000  
  711.00  0.0000E+000  
  711.50  0.0000E+000  
  712.00  0.0000E+000  
  712.50  2.9156E-005  
  713.00  0.0000E+000  
  713.50  0.0000E+000  
  714.00  0.0000E+000  
  714.50  4.6383E-006  
  715.00  3.0623E-005  
  715.50  4.5258E-005  
  716.00  0.0000E+000  
  716.50  0.0000E+000  
  717.00  0.0000E+000  
  717.50  0.0000E+000  
  718.00  0.0000E+000  
  718.50  0.0000E+000  
  719.00  0.0000E+000  
  719.50  0.0000E+000  
  720.00  8.8034E-005  
  720.50  2.3573E-004  
  721.00  6.5105E-005  
  721.50  0.0000E+000  
  722.00  0.0000E+000  
  722.50  4.4110E-005  
  723.00  1.3508E-004  
  723.50  9.6434E-006  
  724.00  0.0000E+000  
  724.50  0.0000E+000  
  725.00  0.0000E+000  
  725.50  0.0000E+000  
  726.00  0.0000E+000  
  726.50  0.0000E+000  
  727.00  0.0000E+000  
  727.50  0.0000E+000  
  728.00  0.0000E+000  
  728.50  0.0000E+000  
  729.00  2.4420E-005  
  729.50  0.0000E+000  
  730.00  0.0000E+000  
  730.50  0.0000E+000  
  731.00  0.0000E+000  
  731.50  0.0000E+000  
  732.00  0.0000E+000  
  732.50  2.1749E-005  
  733.00  0.0000E+000  
  733.50  0.0000E+000  
  734.00  0.0000E+000  
  734.50  0.0000E+000  
  735.00  1.7611E-006  
  735.50  1.6518E-004  
  736.00  1.8653E-004  
  736.50  2.2974E-004  
  737.00  2.2721E-004  
  737.50  1.4892E-004  
  738.00  0.0000E+000  
  738.50  0.0000E+000  
  739.00  0.0000E+000  
  739.50  0.0000E+000  
  740.00  0.0000E+000  
  740.50  0.0000E+000  
  741.00  2.9619E-005  
  741.50  1.2174E-004  
  742.00  1.0130E-004  
  742.50  0.0000E+000  
  743.00  0.0000E+000  
  743.50  0.0000E+000  
  744.00  0.0000E+000  
  744.50  0.0000E+000  
  745.00  0.0000E+000  
  745.50  0.0000E+000  
  746.00  0.0000E+000  
  746.50  0.0000E+000  
  747.00  4.6495E-005  
  747.50  2.2446E-004  
  748.00  1.0492E-004  
  748.50  0.0000E+000  
  749.00  0.0000E+000  
  749.50  0.0000E+000  
  750.00  3.5213E-005  
  750.50  7.6841E-005  
  751.00  0.0000E+000  
  751.50  0.0000E+000  
  752.00  2.7185E-006  
  752.50  1.7212E-005  
  753.00  0.0000E+000  
  753.50  0.0000E+000  
  754.00  0.0000E+000  
  754.50  0.0000E+000  
  755.00  0.0000E+000  
  755.50  0.0000E+000  
  756.00  1.6815E-004  
  756.50  2.8457E-004  
  757.00  3.3154E-004  
  757.50  1.9726E-004  
  758.00  1.3528E-004  
  758.50  3.9229E-005  
  759.00  0.0000E+000  
  759.50  0.0000E+000  
  760.00  0.0000E+000  
  760.50  7.3125E-005  
  761.00  0.0000E+000  
  761.50  0.0000E+000  
  762.00  0.0000E+000  
  762.50  0.0000E+000  
  763.00  0.0000E+000  
  763.50  0.0000E+000  
  764.00  0.0000E+000  
  764.50  0.0000E+000  
  765.00  0.0000E+000  
  765.50  0.0000E+000  
  766.00  2.1420E-004  
  766.50  2.8098E-004  
  767.00  1.7206E-004  
  767.50  9.7149E-005  
  768.00  1.8580E-004  
  768.50  4.5423E-005  
  769.00  0.0000E+000  
  769.50  0.0000E+000  
  770.00  0.0000E+000  
  770.50  0.0000E+000  
  771.00  0.0000E+000  
  771.50  1.6214E-004  
  772.00  4.3428E-004  
  772.50  2.1622E-004  
  773.00  3.1636E-005  
  773.50  2.4437E-004  
  774.00  1.8508E-004  
  774.50  3.4780E-006  
  775.00  0.0000E+000  
  775.50  0.0000E+000  
  776.00  0.0000E+000  
  776.50  1.3728E-004  
  777.00  1.0756E-004  
  777.50  2.1952E-004  
  778.00  7.6050E-005  
  778.50  0.0000E+000  
  779.00  0.0000E+000  
  779.50  0.0000E+000  
  780.00  0.0000E+000  
  780.50  0.0000E+000  
  781.00  0.0000E+000  
  781.50  0.0000E+000  
  782.00  0.0000E+000  
  782.50  0.0000E+000  
  783.00  0.0000E+000  
  783.50  0.0000E+000  
  784.00  0.0000E+000  
  784.50  0.0000E+000  
  785.00  0.0000E+000  
  785.50  0.0000E+000  
  786.00  2.2464E-006  
  786.50  0.0000E+000  
  787.00  0.0000E+000  
  787.50  1.1018E-005  
  788.00  1.8514E-004  
  788.50  0.0000E+000  
  789.00  0.0000E+000  
  789.50  0.0000E+000  
  790.00  0.0000E+000  
  790.50  0.0000E+000  
  791.00  0.0000E+000  
  791.50  0.0000E+000  
  792.00  0.0000E+000  
  792.50  0.0000E+000  
  793.00  0.0000E+000  
  793.50  0.0000E+000  
  794.00  0.0000E+000  
  794.50  0.0000E+000  
  795.00  0.0000E+000  
  795.50  0.0000E+000  
  796.00  0.0000E+000  
  796.50  0.0000E+000  
  797.00  0.0000E+000  
  797.50  0.0000E+000  
  798.00  0.0000E+000  
  798.50  0.0000E+000  
  799.00  0.0000E+000  
  799.50  0.0000E+000  
  800.00  0.0000E+000  
  800.50  0.0000E+000  
  801.00  0.0000E+000  
  801.50  0.0000E+000  
  802.00  0.0000E+000  
  802.50  6.8968E-005  
  803.00  1.5028E-004  
  803.50  1.4975E-004  
  804.00  0.0000E+000  
  804.50  3.4940E-004  
  805.00  8.5751E-004  
  805.50  6.7877E-004  
  806.00  0.0000E+000  
  806.50  0.0000E+000  
  807.00  0.0000E+000  
  807.50  3.3506E-004  
  808.00  9.4705E-006  
  808.50  0.0000E+000  
  809.00  0.0000E+000  
  809.50  0.0000E+000  
  810.00  0.0000E+000  
  810.50  0.0000E+000  
  811.00  0.0000E+000  
  811.50  3.5552E-005  
  812.00  6.5675E-004  
  812.50  1.0484E-003  
  813.00  4.9715E-004  
  813.50  0.0000E+000  
  814.00  0.0000E+000  
  814.50  1.4001E-005  
  815.00  0.0000E+000  
  815.50  0.0000E+000  
  816.00  0.0000E+000  
  816.50  0.0000E+000  
  817.00  8.3144E-006  
  817.50  3.7844E-005  
  818.00  0.0000E+000  
  818.50  0.0000E+000  
  819.00  0.0000E+000  
  819.50  0.0000E+000  
  820.00  0.0000E+000  
  820.50  1.2502E-004  
  821.00  4.7194E-004  
  821.50  4.2874E-005  
  822.00  0.0000E+000  
  822.50  0.0000E+000  
  823.00  1.6602E-005  
  823.50  0.0000E+000  
  824.00  0.0000E+000  
  824.50  0.0000E+000  
  825.00  3.2384E-004  
  825.50  2.2471E-004  
  826.00  0.0000E+000  
  826.50  0.0000E+000  
  827.00  0.0000E+000  
  827.50  3.4759E-004  
  828.00  4.9380E-004  
  828.50  2.6288E-004  
  829.00  8.8536E-005  
  829.50  0.0000E+000  
  830.00  0.0000E+000  
  830.50  0.0000E+000  
  831.00  0.0000E+000  
  831.50  0.0000E+000  
  832.00  0.0000E+000  
  832.50  0.0000E+000  
  833.00  0.0000E+000  
  833.50  0.0000E+000  
  834.00  0.0000E+000  
  834.50  0.0000E+000  
  835.00  0.0000E+000  
  835.50  0.0000E+000  
  836.00  0.0000E+000  
  836.50  0.0000E+000  
  837.00  0.0000E+000  
  837.50  2.8819E-004  
  838.00  8.3858E-004  
  838.50  4.6615E-004  
  839.00  0.0000E+000  
  839.50  0.0000E+000  
  840.00  0.0000E+000  
  840.50  0.0000E+000  
  841.00  0.0000E+000  
  841.50  7.5715E-005  
  842.00  7.4291E-004  
  842.50  8.4226E-004  
  843.00  3.9127E-004  
  843.50  1.6976E-004  
  844.00  0.0000E+000  
  844.50  0.0000E+000  
  845.00  0.0000E+000  
  845.50  0.0000E+000  
  846.00  0.0000E+000  
  846.50  0.0000E+000  
  847.00  0.0000E+000  
  847.50  0.0000E+000  
  848.00  1.5859E-004  
  848.50  5.4933E-004  
  849.00  5.7788E-004  
  849.50  1.2051E-005  
  850.00  0.0000E+000  
  850.50  3.3066E-006  
  851.00  1.0519E-004  
  851.50  0.0000E+000  
  852.00  0.0000E+000  
  852.50  0.0000E+000  
  853.00  0.0000E+000  
  853.50  0.0000E+000  
  854.00  0.0000E+000  
  854.50  0.0000E+000  
  855.00  0.0000E+000  
  855.50  0.0000E+000  
  856.00  0.0000E+000  
  856.50  0.0000E+000  
  857.00  0.0000E+000  
  857.50  5.2614E-004  
  858.00  1.2223E-003  
  858.50  1.4598E-003  
  859.00  6.5982E-004  
  859.50  0.0000E+000  
  860.00  0.0000E+000  
  860.50  0.0000E+000  
  861.00  4.8402E-004  
  861.50  0.0000E+000  
  862.00  0.0000E+000  
  862.50  0.0000E+000  
  863.00  0.0000E+000  
  863.50  6.6928E-004  
  864.00  1.8967E-004  
  864.50  0.0000E+000  
  865.00  0.0000E+000  
  865.50  0.0000E+000  
  866.00  0.0000E+000  
  866.50  0.0000E+000  
  867.00  0.0000E+000  
  867.50  0.0000E+000  
  868.00  5.5781E-004  
  868.50  9.2535E-004  
  869.00  0.0000E+000  
  869.50  2.4259E-005  
  870.00  2.4978E-004  
  870.50  2.7712E-004  
  871.00  2.6465E-005  
  871.50  0.0000E+000  
  872.00  0.0000E+000  
  872.50  0.0000E+000  
  873.00  5.8273E-006  
  873.50  1.0578E-003  
  874.00  8.8963E-004  
  874.50  1.0912E-004  
  875.00  5.2803E-004  
  875.50  6.4812E-004  
  876.00  6.2942E-004  
  876.50  0.0000E+000  
  877.00  3.5489E-004  
  877.50  1.7150E-004  
  878.00  4.8338E-004  
  878.50  5.3808E-004  
  879.00  6.6786E-005  
  879.50  0.0000E+000  
  880.00  3.4534E-004  
  880.50  9.2880E-004  
  881.00  6.6330E-004  
  881.50  0.0000E+000  
  882.00  0.0000E+000  
  882.50  2.6838E-004  
  883.00  6.6378E-004  
  883.50  0.0000E+000  
  884.00  3.9057E-004  
  884.50  5.1752E-004  
  885.00  5.7210E-004  
  885.50  0.0000E+000  
  886.00  0.0000E+000  
  886.50  0.0000E+000  
  887.00  0.0000E+000  
  887.50  5.8493E-004  
  888.00  2.5195E-003  
  888.50  2.1906E-003  
  889.00  9.3592E-004  
  889.50  1.7083E-003  
  890.00  1.3592E-003  
  890.50  3.4878E-004  
  891.00  9.2225E-004  
  891.50  1.3023E-003  
  892.00  9.3489E-004  
  892.50  1.0799E-004  
  893.00  1.2806E-003  
  893.50  6.8555E-004  
  894.00  1.4513E-004  
  894.50  7.9374E-004  
  895.00  1.8168E-005  
  895.50  2.1073E-004  
  896.00  1.4923E-003  
  896.50  8.9497E-004  
  897.00  4.0140E-004  
  897.50  1.7098E-003  
  898.00  2.3299E-003  
  898.50  1.0758E-003  
  899.00  7.1580E-004  
  899.50  1.9353E-005  
