
# From lspdd.org
# 
# Name: DEL EnergySmart PAR20 Black Bulb Body Domestique
# Indice spectral Valeur 
# MSI 0.29 
# SLI 0.49 
# IPI 0.65 
# Pourcentage de bleu 18.5 
# Caractéristique Valeur 
# CCT calculée (K) 2885 
# CCT du fabricant (K) 3000 
# Tension (V) ND 
# Puissance (W) 7.0 
# Efficacité lumineuse (Lum/W) 47.1 
#
# Image: '/app/system/img_2s/2490/medium_image2.JPG?1413485910'
# Image: '/app/system/img_1s/2490/medium_image1.JPG?1413485914'
# 

  273.00  0.0000E+000  
  273.50  0.0000E+000  
  274.00  0.0000E+000  
  274.50  0.0000E+000  
  275.00  0.0000E+000  
  275.50  0.0000E+000  
  276.00  0.0000E+000  
  276.50  0.0000E+000  
  277.00  0.0000E+000  
  277.50  0.0000E+000  
  278.00  0.0000E+000  
  278.50  0.0000E+000  
  279.00  0.0000E+000  
  279.50  0.0000E+000  
  280.00  0.0000E+000  
  280.50  0.0000E+000  
  281.00  0.0000E+000  
  281.50  0.0000E+000  
  282.00  0.0000E+000  
  282.50  0.0000E+000  
  283.00  0.0000E+000  
  283.50  0.0000E+000  
  284.00  0.0000E+000  
  284.50  0.0000E+000  
  285.00  0.0000E+000  
  285.50  0.0000E+000  
  286.00  0.0000E+000  
  286.50  0.0000E+000  
  287.00  0.0000E+000  
  287.50  0.0000E+000  
  288.00  0.0000E+000  
  288.50  0.0000E+000  
  289.00  0.0000E+000  
  289.50  0.0000E+000  
  290.00  0.0000E+000  
  290.50  0.0000E+000  
  291.00  0.0000E+000  
  291.50  0.0000E+000  
  292.00  0.0000E+000  
  292.50  0.0000E+000  
  293.00  0.0000E+000  
  293.50  0.0000E+000  
  294.00  0.0000E+000  
  294.50  0.0000E+000  
  295.00  0.0000E+000  
  295.50  0.0000E+000  
  296.00  0.0000E+000  
  296.50  0.0000E+000  
  297.00  0.0000E+000  
  297.50  0.0000E+000  
  298.00  0.0000E+000  
  298.50  0.0000E+000  
  299.00  0.0000E+000  
  299.50  0.0000E+000  
  300.00  0.0000E+000  
  300.50  3.6118E-005  
  301.00  9.4956E-005  
  301.50  1.1383E-004  
  302.00  6.5527E-005  
  302.50  4.6869E-006  
  303.00  8.9335E-006  
  303.50  6.0363E-005  
  304.00  1.1866E-004  
  304.50  9.2394E-005  
  305.00  3.7256E-005  
  305.50  8.0848E-006  
  306.00  2.6289E-008  
  306.50  1.5693E-005  
  307.00  5.4707E-005  
  307.50  1.1411E-004  
  308.00  1.0714E-004  
  308.50  4.3014E-005  
  309.00  4.0340E-006  
  309.50  0.0000E+000  
  310.00  0.0000E+000  
  310.50  0.0000E+000  
  311.00  1.1778E-006  
  311.50  2.5943E-005  
  312.00  7.5077E-005  
  312.50  8.1190E-005  
  313.00  1.0075E-004  
  313.50  1.1567E-004  
  314.00  5.3731E-005  
  314.50  2.0836E-005  
  315.00  5.2128E-006  
  315.50  1.0947E-006  
  316.00  4.6472E-006  
  316.50  2.7647E-005  
  317.00  5.6192E-006  
  317.50  4.5051E-005  
  318.00  2.7141E-005  
  318.50  0.0000E+000  
  319.00  0.0000E+000  
  319.50  0.0000E+000  
  320.00  0.0000E+000  
  320.50  0.0000E+000  
  321.00  0.0000E+000  
  321.50  0.0000E+000  
  322.00  3.2089E-005  
  322.50  2.2543E-005  
  323.00  2.7512E-005  
  323.50  2.1442E-006  
  324.00  0.0000E+000  
  324.50  0.0000E+000  
  325.00  0.0000E+000  
  325.50  1.6978E-005  
  326.00  0.0000E+000  
  326.50  0.0000E+000  
  327.00  0.0000E+000  
  327.50  2.2014E-005  
  328.00  6.4832E-005  
  328.50  7.2014E-005  
  329.00  6.9040E-005  
  329.50  4.1955E-005  
  330.00  4.3559E-005  
  330.50  3.7171E-005  
  331.00  1.6087E-005  
  331.50  1.1590E-005  
  332.00  4.5010E-005  
  332.50  5.7139E-005  
  333.00  9.9488E-005  
  333.50  1.2162E-004  
  334.00  1.1277E-004  
  334.50  1.1033E-004  
  335.00  4.2673E-005  
  335.50  3.1738E-007  
  336.00  6.7287E-009  
  336.50  1.6317E-005  
  337.00  5.7918E-005  
  337.50  9.2064E-005  
  338.00  7.6517E-005  
  338.50  5.9637E-005  
  339.00  8.1944E-005  
  339.50  1.5601E-004  
  340.00  1.8885E-004  
  340.50  2.2051E-004  
  341.00  1.8039E-004  
  341.50  1.5327E-004  
  342.00  1.3670E-004  
  342.50  9.8460E-005  
  343.00  2.5775E-005  
  343.50  0.0000E+000  
  344.00  0.0000E+000  
  344.50  0.0000E+000  
  345.00  4.6296E-005  
  345.50  1.1906E-004  
  346.00  1.3339E-004  
  346.50  1.3853E-004  
  347.00  7.8783E-005  
  347.50  3.2636E-005  
  348.00  8.3649E-005  
  348.50  1.3333E-004  
  349.00  1.4427E-004  
  349.50  1.4257E-004  
  350.00  9.5608E-005  
  350.50  9.1526E-005  
  351.00  1.1230E-004  
  351.50  1.1734E-004  
  352.00  1.2360E-004  
  352.50  1.3510E-004  
  353.00  1.4430E-004  
  353.50  1.3647E-004  
  354.00  1.6964E-004  
  354.50  1.6709E-004  
  355.00  1.3648E-004  
  355.50  1.1837E-004  
  356.00  3.1025E-005  
  356.50  5.1118E-007  
  357.00  4.7353E-007  
  357.50  2.4695E-005  
  358.00  9.9862E-005  
  358.50  1.7870E-004  
  359.00  2.1256E-004  
  359.50  2.2536E-004  
  360.00  2.2284E-004  
  360.50  2.2568E-004  
  361.00  2.4369E-004  
  361.50  2.0424E-004  
  362.00  2.2971E-004  
  362.50  2.3248E-004  
  363.00  2.3178E-004  
  363.50  2.3844E-004  
  364.00  2.1334E-004  
  364.50  1.6324E-004  
  365.00  9.6306E-005  
  365.50  2.7408E-005  
  366.00  1.1653E-005  
  366.50  7.2406E-005  
  367.00  1.4838E-004  
  367.50  1.7984E-004  
  368.00  1.6570E-004  
  368.50  1.9048E-004  
  369.00  2.1395E-004  
  369.50  2.6627E-004  
  370.00  2.5656E-004  
  370.50  2.3685E-004  
  371.00  2.0944E-004  
  371.50  1.9735E-004  
  372.00  2.0922E-004  
  372.50  2.1856E-004  
  373.00  2.1320E-004  
  373.50  1.5361E-004  
  374.00  1.0174E-004  
  374.50  6.7134E-005  
  375.00  9.9439E-005  
  375.50  1.7232E-004  
  376.00  2.5040E-004  
  376.50  2.9605E-004  
  377.00  2.9862E-004  
  377.50  2.6942E-004  
  378.00  2.2129E-004  
  378.50  1.8487E-004  
  379.00  1.5057E-004  
  379.50  1.7535E-004  
  380.00  2.1041E-004  
  380.50  2.6709E-004  
  381.00  3.0893E-004  
  381.50  2.7132E-004  
  382.00  2.1175E-004  
  382.50  1.7476E-004  
  383.00  1.7377E-004  
  383.50  1.8516E-004  
  384.00  2.4936E-004  
  384.50  3.0250E-004  
  385.00  3.4633E-004  
  385.50  4.0484E-004  
  386.00  4.0488E-004  
  386.50  3.8710E-004  
  387.00  3.8743E-004  
  387.50  3.7415E-004  
  388.00  3.4553E-004  
  388.50  3.2913E-004  
  389.00  2.7274E-004  
  389.50  2.3905E-004  
  390.00  2.2505E-004  
  390.50  2.0320E-004  
  391.00  2.6068E-004  
  391.50  3.1812E-004  
  392.00  3.6058E-004  
  392.50  4.0073E-004  
  393.00  4.2294E-004  
  393.50  4.0946E-004  
  394.00  3.9699E-004  
  394.50  3.6905E-004  
  395.00  3.1329E-004  
  395.50  2.8382E-004  
  396.00  2.6406E-004  
  396.50  2.8654E-004  
  397.00  3.0731E-004  
  397.50  3.5843E-004  
  398.00  3.7292E-004  
  398.50  3.7934E-004  
  399.00  4.0061E-004  
  399.50  4.2631E-004  
  400.00  4.8312E-004  
  400.50  4.7772E-004  
  401.00  4.4721E-004  
  401.50  4.1784E-004  
  402.00  4.0720E-004  
  402.50  4.2847E-004  
  403.00  4.5292E-004  
  403.50  4.5877E-004  
  404.00  4.9029E-004  
  404.50  5.1866E-004  
  405.00  5.6272E-004  
  405.50  5.6529E-004  
  406.00  5.9360E-004  
  406.50  6.1406E-004  
  407.00  6.5359E-004  
  407.50  6.6641E-004  
  408.00  6.9784E-004  
  408.50  6.9463E-004  
  409.00  7.1853E-004  
  409.50  7.7426E-004  
  410.00  8.4712E-004  
  410.50  9.2889E-004  
  411.00  1.0045E-003  
  411.50  1.0693E-003  
  412.00  1.1930E-003  
  412.50  1.2544E-003  
  413.00  1.2901E-003  
  413.50  1.2963E-003  
  414.00  1.2743E-003  
  414.50  1.3676E-003  
  415.00  1.4887E-003  
  415.50  1.6380E-003  
  416.00  1.8625E-003  
  416.50  2.0327E-003  
  417.00  2.1835E-003  
  417.50  2.3165E-003  
  418.00  2.4456E-003  
  418.50  2.5673E-003  
  419.00  2.7089E-003  
  419.50  2.8681E-003  
  420.00  3.1796E-003  
  420.50  3.5532E-003  
  421.00  3.9015E-003  
  421.50  4.1774E-003  
  422.00  4.4002E-003  
  422.50  4.6684E-003  
  423.00  4.9634E-003  
  423.50  5.2352E-003  
  424.00  5.5529E-003  
  424.50  5.8863E-003  
  425.00  6.3092E-003  
  425.50  6.7730E-003  
  426.00  7.3110E-003  
  426.50  7.8352E-003  
  427.00  8.3681E-003  
  427.50  8.8915E-003  
  428.00  9.4458E-003  
  428.50  1.0074E-002  
  429.00  1.0760E-002  
  429.50  1.1458E-002  
  430.00  1.2217E-002  
  430.50  1.2975E-002  
  431.00  1.3689E-002  
  431.50  1.4412E-002  
  432.00  1.5187E-002  
  432.50  1.5989E-002  
  433.00  1.6832E-002  
  433.50  1.7670E-002  
  434.00  1.8565E-002  
  434.50  1.9574E-002  
  435.00  2.0686E-002  
  435.50  2.1815E-002  
  436.00  2.3029E-002  
  436.50  2.4168E-002  
  437.00  2.5281E-002  
  437.50  2.6421E-002  
  438.00  2.7597E-002  
  438.50  2.8837E-002  
  439.00  3.0119E-002  
  439.50  3.1523E-002  
  440.00  3.3052E-002  
  440.50  3.4783E-002  
  441.00  3.6475E-002  
  441.50  3.8194E-002  
  442.00  3.9968E-002  
  442.50  4.1701E-002  
  443.00  4.3673E-002  
  443.50  4.5635E-002  
  444.00  4.7721E-002  
  444.50  4.9930E-002  
  445.00  5.2071E-002  
  445.50  5.4302E-002  
  446.00  5.6549E-002  
  446.50  5.8823E-002  
  447.00  6.1148E-002  
  447.50  6.3383E-002  
  448.00  6.5478E-002  
  448.50  6.7465E-002  
  449.00  6.9363E-002  
  449.50  7.1183E-002  
  450.00  7.2860E-002  
  450.50  7.4249E-002  
  451.00  7.5462E-002  
  451.50  7.6342E-002  
  452.00  7.7166E-002  
  452.50  7.7683E-002  
  453.00  7.7810E-002  
  453.50  7.7589E-002  
  454.00  7.6975E-002  
  454.50  7.6149E-002  
  455.00  7.5317E-002  
  455.50  7.4182E-002  
  456.00  7.2808E-002  
  456.50  7.1356E-002  
  457.00  6.9749E-002  
  457.50  6.8137E-002  
  458.00  6.6384E-002  
  458.50  6.4207E-002  
  459.00  6.2028E-002  
  459.50  5.9855E-002  
  460.00  5.7862E-002  
  460.50  5.6062E-002  
  461.00  5.4328E-002  
  461.50  5.2580E-002  
  462.00  5.0868E-002  
  462.50  4.9151E-002  
  463.00  4.7626E-002  
  463.50  4.6186E-002  
  464.00  4.4889E-002  
  464.50  4.3669E-002  
  465.00  4.2581E-002  
  465.50  4.1590E-002  
  466.00  4.0629E-002  
  466.50  3.9659E-002  
  467.00  3.8681E-002  
  467.50  3.7840E-002  
  468.00  3.7050E-002  
  468.50  3.6344E-002  
  469.00  3.5725E-002  
  469.50  3.5067E-002  
  470.00  3.4460E-002  
  470.50  3.3891E-002  
  471.00  3.3225E-002  
  471.50  3.2561E-002  
  472.00  3.1842E-002  
  472.50  3.1199E-002  
  473.00  3.0638E-002  
  473.50  3.0137E-002  
  474.00  2.9581E-002  
  474.50  2.8974E-002  
  475.00  2.8300E-002  
  475.50  2.7698E-002  
  476.00  2.7146E-002  
  476.50  2.6673E-002  
  477.00  2.6231E-002  
  477.50  2.5738E-002  
  478.00  2.5212E-002  
  478.50  2.4752E-002  
  479.00  2.4371E-002  
  479.50  2.4058E-002  
  480.00  2.3751E-002  
  480.50  2.3412E-002  
  481.00  2.3135E-002  
  481.50  2.2853E-002  
  482.00  2.2632E-002  
  482.50  2.2390E-002  
  483.00  2.2202E-002  
  483.50  2.2149E-002  
  484.00  2.2130E-002  
  484.50  2.2068E-002  
  485.00  2.1971E-002  
  485.50  2.1853E-002  
  486.00  2.1781E-002  
  486.50  2.1776E-002  
  487.00  2.1751E-002  
  487.50  2.1699E-002  
  488.00  2.1708E-002  
  488.50  2.1749E-002  
  489.00  2.1907E-002  
  489.50  2.2062E-002  
  490.00  2.2229E-002  
  490.50  2.2402E-002  
  491.00  2.2595E-002  
  491.50  2.2806E-002  
  492.00  2.2995E-002  
  492.50  2.3193E-002  
  493.00  2.3446E-002  
  493.50  2.3749E-002  
  494.00  2.4079E-002  
  494.50  2.4443E-002  
  495.00  2.4788E-002  
  495.50  2.5148E-002  
  496.00  2.5520E-002  
  496.50  2.5944E-002  
  497.00  2.6416E-002  
  497.50  2.6923E-002  
  498.00  2.7446E-002  
  498.50  2.7993E-002  
  499.00  2.8612E-002  
  499.50  2.9223E-002  
  500.00  2.9851E-002  
  500.50  3.0464E-002  
  501.00  3.1099E-002  
  501.50  3.1786E-002  
  502.00  3.2494E-002  
  502.50  3.3226E-002  
  503.00  3.3972E-002  
  503.50  3.4744E-002  
  504.00  3.5575E-002  
  504.50  3.6460E-002  
  505.00  3.7399E-002  
  505.50  3.8292E-002  
  506.00  3.9103E-002  
  506.50  3.9880E-002  
  507.00  4.0660E-002  
  507.50  4.1515E-002  
  508.00  4.2431E-002  
  508.50  4.3420E-002  
  509.00  4.4461E-002  
  509.50  4.5483E-002  
  510.00  4.6524E-002  
  510.50  4.7474E-002  
  511.00  4.8429E-002  
  511.50  4.9339E-002  
  512.00  5.0310E-002  
  512.50  5.1312E-002  
  513.00  5.2328E-002  
  513.50  5.3257E-002  
  514.00  5.4201E-002  
  514.50  5.5151E-002  
  515.00  5.6094E-002  
  515.50  5.7076E-002  
  516.00  5.8097E-002  
  516.50  5.9116E-002  
  517.00  6.0147E-002  
  517.50  6.1107E-002  
  518.00  6.2016E-002  
  518.50  6.2960E-002  
  519.00  6.3946E-002  
  519.50  6.4905E-002  
  520.00  6.5877E-002  
  520.50  6.6800E-002  
  521.00  6.7627E-002  
  521.50  6.8547E-002  
  522.00  6.9420E-002  
  522.50  7.0430E-002  
  523.00  7.1411E-002  
  523.50  7.2331E-002  
  524.00  7.3223E-002  
  524.50  7.4062E-002  
  525.00  7.4862E-002  
  525.50  7.5776E-002  
  526.00  7.6650E-002  
  526.50  7.7570E-002  
  527.00  7.8451E-002  
  527.50  7.9259E-002  
  528.00  8.0085E-002  
  528.50  8.0793E-002  
  529.00  8.1482E-002  
  529.50  8.2252E-002  
  530.00  8.3097E-002  
  530.50  8.3924E-002  
  531.00  8.4763E-002  
  531.50  8.5421E-002  
  532.00  8.6239E-002  
  532.50  8.6986E-002  
  533.00  8.7806E-002  
  533.50  8.8623E-002  
  534.00  8.9312E-002  
  534.50  9.0008E-002  
  535.00  9.0600E-002  
  535.50  9.1252E-002  
  536.00  9.1916E-002  
  536.50  9.2605E-002  
  537.00  9.3357E-002  
  537.50  9.4051E-002  
  538.00  9.4680E-002  
  538.50  9.5216E-002  
  539.00  9.5821E-002  
  539.50  9.6439E-002  
  540.00  9.7127E-002  
  540.50  9.7779E-002  
  541.00  9.8520E-002  
  541.50  9.9237E-002  
  542.00  9.9880E-002  
  542.50  1.0050E-001  
  543.00  1.0113E-001  
  543.50  1.0178E-001  
  544.00  1.0251E-001  
  544.50  1.0316E-001  
  545.00  1.0387E-001  
  545.50  1.0449E-001  
  546.00  1.0509E-001  
  546.50  1.0576E-001  
  547.00  1.0640E-001  
  547.50  1.0704E-001  
  548.00  1.0758E-001  
  548.50  1.0818E-001  
  549.00  1.0884E-001  
  549.50  1.0944E-001  
  550.00  1.0994E-001  
  550.50  1.1051E-001  
  551.00  1.1109E-001  
  551.50  1.1178E-001  
  552.00  1.1240E-001  
  552.50  1.1311E-001  
  553.00  1.1392E-001  
  553.50  1.1466E-001  
  554.00  1.1530E-001  
  554.50  1.1583E-001  
  555.00  1.1634E-001  
  555.50  1.1695E-001  
  556.00  1.1764E-001  
  556.50  1.1829E-001  
  557.00  1.1898E-001  
  557.50  1.1964E-001  
  558.00  1.2029E-001  
  558.50  1.2104E-001  
  559.00  1.2187E-001  
  559.50  1.2262E-001  
  560.00  1.2324E-001  
  560.50  1.2365E-001  
  561.00  1.2427E-001  
  561.50  1.2495E-001  
  562.00  1.2572E-001  
  562.50  1.2639E-001  
  563.00  1.2695E-001  
  563.50  1.2748E-001  
  564.00  1.2792E-001  
  564.50  1.2839E-001  
  565.00  1.2895E-001  
  565.50  1.2964E-001  
  566.00  1.3031E-001  
  566.50  1.3090E-001  
  567.00  1.3135E-001  
  567.50  1.3187E-001  
  568.00  1.3243E-001  
  568.50  1.3308E-001  
  569.00  1.3368E-001  
  569.50  1.3428E-001  
  570.00  1.3489E-001  
  570.50  1.3554E-001  
  571.00  1.3624E-001  
  571.50  1.3682E-001  
  572.00  1.3738E-001  
  572.50  1.3785E-001  
  573.00  1.3835E-001  
  573.50  1.3892E-001  
  574.00  1.3958E-001  
  574.50  1.4020E-001  
  575.00  1.4084E-001  
  575.50  1.4139E-001  
  576.00  1.4194E-001  
  576.50  1.4243E-001  
  577.00  1.4294E-001  
  577.50  1.4342E-001  
  578.00  1.4399E-001  
  578.50  1.4464E-001  
  579.00  1.4536E-001  
  579.50  1.4596E-001  
  580.00  1.4640E-001  
  580.50  1.4680E-001  
  581.00  1.4717E-001  
  581.50  1.4762E-001  
  582.00  1.4811E-001  
  582.50  1.4860E-001  
  583.00  1.4907E-001  
  583.50  1.4958E-001  
  584.00  1.5007E-001  
  584.50  1.5056E-001  
  585.00  1.5091E-001  
  585.50  1.5129E-001  
  586.00  1.5180E-001  
  586.50  1.5232E-001  
  587.00  1.5280E-001  
  587.50  1.5317E-001  
  588.00  1.5366E-001  
  588.50  1.5406E-001  
  589.00  1.5446E-001  
  589.50  1.5477E-001  
  590.00  1.5516E-001  
  590.50  1.5552E-001  
  591.00  1.5585E-001  
  591.50  1.5620E-001  
  592.00  1.5656E-001  
  592.50  1.5688E-001  
  593.00  1.5724E-001  
  593.50  1.5753E-001  
  594.00  1.5787E-001  
  594.50  1.5813E-001  
  595.00  1.5845E-001  
  595.50  1.5866E-001  
  596.00  1.5880E-001  
  596.50  1.5898E-001  
  597.00  1.5929E-001  
  597.50  1.5958E-001  
  598.00  1.5982E-001  
  598.50  1.5994E-001  
  599.00  1.6011E-001  
  599.50  1.6025E-001  
  600.00  1.6038E-001  
  600.50  1.6046E-001  
  601.00  1.6059E-001  
  601.50  1.6069E-001  
  602.00  1.6084E-001  
  602.50  1.6102E-001  
  603.00  1.6108E-001  
  603.50  1.6101E-001  
  604.00  1.6082E-001  
  604.50  1.6078E-001  
  605.00  1.6082E-001  
  605.50  1.6094E-001  
  606.00  1.6099E-001  
  606.50  1.6108E-001  
  607.00  1.6106E-001  
  607.50  1.6089E-001  
  608.00  1.6076E-001  
  608.50  1.6072E-001  
  609.00  1.6087E-001  
  609.50  1.6104E-001  
  610.00  1.6111E-001  
  610.50  1.6100E-001  
  611.00  1.6064E-001  
  611.50  1.6026E-001  
  612.00  1.5998E-001  
  612.50  1.5985E-001  
  613.00  1.5976E-001  
  613.50  1.5962E-001  
  614.00  1.5944E-001  
  614.50  1.5905E-001  
  615.00  1.5864E-001  
  615.50  1.5816E-001  
  616.00  1.5770E-001  
  616.50  1.5725E-001  
  617.00  1.5682E-001  
  617.50  1.5643E-001  
  618.00  1.5611E-001  
  618.50  1.5567E-001  
  619.00  1.5507E-001  
  619.50  1.5439E-001  
  620.00  1.5381E-001  
  620.50  1.5339E-001  
  621.00  1.5294E-001  
  621.50  1.5238E-001  
  622.00  1.5172E-001  
  622.50  1.5102E-001  
  623.00  1.5028E-001  
  623.50  1.4980E-001  
  624.00  1.4933E-001  
  624.50  1.4884E-001  
  625.00  1.4815E-001  
  625.50  1.4750E-001  
  626.00  1.4679E-001  
  626.50  1.4603E-001  
  627.00  1.4513E-001  
  627.50  1.4427E-001  
  628.00  1.4334E-001  
  628.50  1.4240E-001  
  629.00  1.4167E-001  
  629.50  1.4099E-001  
  630.00  1.4048E-001  
  630.50  1.3974E-001  
  631.00  1.3901E-001  
  631.50  1.3809E-001  
  632.00  1.3713E-001  
  632.50  1.3612E-001  
  633.00  1.3526E-001  
  633.50  1.3456E-001  
  634.00  1.3380E-001  
  634.50  1.3283E-001  
  635.00  1.3184E-001  
  635.50  1.3080E-001  
  636.00  1.2990E-001  
  636.50  1.2883E-001  
  637.00  1.2789E-001  
  637.50  1.2696E-001  
  638.00  1.2609E-001  
  638.50  1.2532E-001  
  639.00  1.2461E-001  
  639.50  1.2383E-001  
  640.00  1.2295E-001  
  640.50  1.2174E-001  
  641.00  1.2048E-001  
  641.50  1.1936E-001  
  642.00  1.1841E-001  
  642.50  1.1759E-001  
  643.00  1.1656E-001  
  643.50  1.1552E-001  
  644.00  1.1451E-001  
  644.50  1.1360E-001  
  645.00  1.1271E-001  
  645.50  1.1179E-001  
  646.00  1.1072E-001  
  646.50  1.0967E-001  
  647.00  1.0870E-001  
  647.50  1.0787E-001  
  648.00  1.0685E-001  
  648.50  1.0578E-001  
  649.00  1.0474E-001  
  649.50  1.0372E-001  
  650.00  1.0261E-001  
  650.50  1.0147E-001  
  651.00  1.0057E-001  
  651.50  9.9596E-002  
  652.00  9.8633E-002  
  652.50  9.7635E-002  
  653.00  9.6678E-002  
  653.50  9.5630E-002  
  654.00  9.4545E-002  
  654.50  9.3405E-002  
  655.00  9.2365E-002  
  655.50  9.1386E-002  
  656.00  9.0692E-002  
  656.50  8.9943E-002  
  657.00  8.9024E-002  
  657.50  8.8089E-002  
  658.00  8.7065E-002  
  658.50  8.6058E-002  
  659.00  8.4992E-002  
  659.50  8.4090E-002  
  660.00  8.3137E-002  
  660.50  8.2063E-002  
  661.00  8.1039E-002  
  661.50  8.0172E-002  
  662.00  7.9282E-002  
  662.50  7.8427E-002  
  663.00  7.7515E-002  
  663.50  7.6570E-002  
  664.00  7.5407E-002  
  664.50  7.4268E-002  
  665.00  7.3355E-002  
  665.50  7.2570E-002  
  666.00  7.1857E-002  
  666.50  7.1128E-002  
  667.00  7.0323E-002  
  667.50  6.9484E-002  
  668.00  6.8554E-002  
  668.50  6.7810E-002  
  669.00  6.7062E-002  
  669.50  6.6241E-002  
  670.00  6.5167E-002  
  670.50  6.4063E-002  
  671.00  6.3064E-002  
  671.50  6.2320E-002  
  672.00  6.1608E-002  
  672.50  6.0933E-002  
  673.00  6.0187E-002  
  673.50  5.9422E-002  
  674.00  5.8662E-002  
  674.50  5.7903E-002  
  675.00  5.7179E-002  
  675.50  5.6520E-002  
  676.00  5.5860E-002  
  676.50  5.5216E-002  
  677.00  5.4529E-002  
  677.50  5.3905E-002  
  678.00  5.3235E-002  
  678.50  5.2382E-002  
  679.00  5.1540E-002  
  679.50  5.0840E-002  
  680.00  5.0253E-002  
  680.50  4.9599E-002  
  681.00  4.8809E-002  
  681.50  4.8104E-002  
  682.00  4.7434E-002  
  682.50  4.6861E-002  
  683.00  4.6388E-002  
  683.50  4.5820E-002  
  684.00  4.5204E-002  
  684.50  4.4361E-002  
  685.00  4.3596E-002  
  685.50  4.2927E-002  
  686.00  4.2438E-002  
  686.50  4.1953E-002  
  687.00  4.1491E-002  
  687.50  4.0990E-002  
  688.00  4.0454E-002  
  688.50  3.9852E-002  
  689.00  3.9151E-002  
  689.50  3.8496E-002  
  690.00  3.7925E-002  
  690.50  3.7449E-002  
  691.00  3.6983E-002  
  691.50  3.6473E-002  
  692.00  3.6059E-002  
  692.50  3.5588E-002  
  693.00  3.5097E-002  
  693.50  3.4470E-002  
  694.00  3.3890E-002  
  694.50  3.3371E-002  
  695.00  3.2963E-002  
  695.50  3.2558E-002  
  696.00  3.2068E-002  
  696.50  3.1652E-002  
  697.00  3.1133E-002  
  697.50  3.0773E-002  
  698.00  3.0328E-002  
  698.50  2.9956E-002  
  699.00  2.9566E-002  
  699.50  2.9210E-002  
  700.00  2.8781E-002  
  700.50  2.8208E-002  
  701.00  2.7664E-002  
  701.50  2.7244E-002  
  702.00  2.6792E-002  
  702.50  2.6436E-002  
  703.00  2.6007E-002  
  703.50  2.5669E-002  
  704.00  2.5269E-002  
  704.50  2.4925E-002  
  705.00  2.4636E-002  
  705.50  2.4182E-002  
  706.00  2.3773E-002  
  706.50  2.3346E-002  
  707.00  2.2992E-002  
  707.50  2.2619E-002  
  708.00  2.2246E-002  
  708.50  2.1950E-002  
  709.00  2.1638E-002  
  709.50  2.1392E-002  
  710.00  2.1126E-002  
  710.50  2.0774E-002  
  711.00  2.0399E-002  
  711.50  2.0096E-002  
  712.00  1.9880E-002  
  712.50  1.9672E-002  
  713.00  1.9330E-002  
  713.50  1.9002E-002  
  714.00  1.8699E-002  
  714.50  1.8510E-002  
  715.00  1.8270E-002  
  715.50  1.7957E-002  
  716.00  1.7627E-002  
  716.50  1.7358E-002  
  717.00  1.7085E-002  
  717.50  1.6834E-002  
  718.00  1.6618E-002  
  718.50  1.6454E-002  
  719.00  1.6253E-002  
  719.50  1.6093E-002  
  720.00  1.5832E-002  
  720.50  1.5519E-002  
  721.00  1.5184E-002  
  721.50  1.4986E-002  
  722.00  1.4738E-002  
  722.50  1.4422E-002  
  723.00  1.4173E-002  
  723.50  1.3951E-002  
  724.00  1.3720E-002  
  724.50  1.3430E-002  
  725.00  1.3330E-002  
  725.50  1.3224E-002  
  726.00  1.3062E-002  
  726.50  1.2762E-002  
  727.00  1.2625E-002  
  727.50  1.2496E-002  
  728.00  1.2370E-002  
  728.50  1.2217E-002  
  729.00  1.2040E-002  
  729.50  1.1877E-002  
  730.00  1.1859E-002  
  730.50  1.1805E-002  
  731.00  1.1424E-002  
  731.50  1.0948E-002  
  732.00  1.0647E-002  
  732.50  1.0554E-002  
  733.00  1.0349E-002  
  733.50  1.0128E-002  
  734.00  1.0025E-002  
  734.50  9.9965E-003  
  735.00  1.0033E-002  
  735.50  9.9280E-003  
  736.00  9.7193E-003  
  736.50  9.4600E-003  
  737.00  9.2283E-003  
  737.50  9.1346E-003  
  738.00  9.0223E-003  
  738.50  8.9029E-003  
  739.00  8.7765E-003  
  739.50  8.6963E-003  
  740.00  8.7519E-003  
  740.50  8.7541E-003  
  741.00  8.6390E-003  
  741.50  8.3039E-003  
  742.00  8.1271E-003  
  742.50  7.9654E-003  
  743.00  7.8920E-003  
  743.50  7.6813E-003  
  744.00  7.4965E-003  
  744.50  7.1604E-003  
  745.00  6.9484E-003  
  745.50  6.9469E-003  
  746.00  7.0367E-003  
  746.50  7.0032E-003  
  747.00  6.8830E-003  
  747.50  6.7027E-003  
  748.00  6.5456E-003  
  748.50  6.4461E-003  
  749.00  6.4915E-003  
  749.50  6.5283E-003  
  750.00  6.5118E-003  
  750.50  6.3905E-003  
  751.00  6.2785E-003  
  751.50  6.1677E-003  
  752.00  5.9726E-003  
  752.50  5.8410E-003  
  753.00  5.6921E-003  
  753.50  5.6771E-003  
  754.00  5.6585E-003  
  754.50  5.7032E-003  
  755.00  5.5759E-003  
  755.50  5.2763E-003  
  756.00  5.1241E-003  
  756.50  5.1557E-003  
  757.00  5.1992E-003  
  757.50  5.1152E-003  
  758.00  5.0300E-003  
  758.50  4.9629E-003  
  759.00  4.8289E-003  
  759.50  4.6321E-003  
  760.00  4.4354E-003  
  760.50  4.3868E-003  
  761.00  4.4925E-003  
  761.50  4.6342E-003  
  762.00  4.6508E-003  
  762.50  4.5056E-003  
  763.00  4.3951E-003  
  763.50  4.3342E-003  
  764.00  4.2026E-003  
  764.50  3.9826E-003  
  765.00  3.9789E-003  
  765.50  4.0425E-003  
  766.00  3.9425E-003  
  766.50  3.7352E-003  
  767.00  3.4653E-003  
  767.50  3.3286E-003  
  768.00  3.2971E-003  
  768.50  3.4049E-003  
  769.00  3.4503E-003  
  769.50  3.3297E-003  
  770.00  3.2519E-003  
  770.50  3.2525E-003  
  771.00  3.2874E-003  
  771.50  3.0137E-003  
  772.00  2.8263E-003  
  772.50  2.7813E-003  
  773.00  2.8957E-003  
  773.50  3.0353E-003  
  774.00  3.0931E-003  
  774.50  3.0013E-003  
  775.00  2.8535E-003  
  775.50  2.8619E-003  
  776.00  2.9423E-003  
  776.50  2.7942E-003  
  777.00  2.6438E-003  
  777.50  2.6423E-003  
  778.00  2.7267E-003  
  778.50  2.7268E-003  
  779.00  2.4715E-003  
  779.50  2.2784E-003  
  780.00  2.2403E-003  
  780.50  2.2308E-003  
  781.00  2.2574E-003  
  781.50  2.4187E-003  
  782.00  2.5952E-003  
  782.50  2.6725E-003  
  783.00  2.5380E-003  
  783.50  2.2175E-003  
  784.00  2.0221E-003  
  784.50  1.9477E-003  
  785.00  1.9653E-003  
  785.50  1.9438E-003  
  786.00  1.9760E-003  
  786.50  1.9738E-003  
  787.00  1.9237E-003  
  787.50  1.9035E-003  
  788.00  1.7993E-003  
  788.50  1.7145E-003  
  789.00  1.5029E-003  
  789.50  1.4882E-003  
  790.00  1.5042E-003  
  790.50  1.6234E-003  
  791.00  1.5774E-003  
  791.50  1.5611E-003  
  792.00  1.5561E-003  
  792.50  1.4909E-003  
  793.00  1.4305E-003  
  793.50  1.2653E-003  
  794.00  1.3803E-003  
  794.50  1.4859E-003  
  795.00  1.6520E-003  
  795.50  1.5739E-003  
  796.00  1.4819E-003  
  796.50  1.3433E-003  
  797.00  1.2202E-003  
  797.50  1.0552E-003  
  798.00  1.0857E-003  
  798.50  1.0848E-003  
  799.00  1.2569E-003  
  799.50  1.3744E-003  
  800.00  1.5190E-003  
  800.50  1.6367E-003  
  801.00  1.5111E-003  
  801.50  1.3016E-003  
  802.00  1.0746E-003  
  802.50  9.7777E-004  
  803.00  1.0691E-003  
  803.50  1.0218E-003  
  804.00  8.1492E-004  
  804.50  7.2601E-004  
  805.00  8.1312E-004  
  805.50  1.1055E-003  
  806.00  1.3178E-003  
  806.50  1.2818E-003  
  807.00  1.1475E-003  
  807.50  8.1166E-004  
  808.00  4.6936E-004  
  808.50  5.1669E-004  
  809.00  8.7249E-004  
  809.50  7.3966E-004  
  810.00  4.8433E-004  
  810.50  4.1018E-004  
  811.00  5.4045E-004  
  811.50  6.1352E-004  
  812.00  6.3635E-004  
  812.50  6.7283E-004  
  813.00  6.5855E-004  
  813.50  7.8108E-004  
  814.00  6.9725E-004  
  814.50  6.9044E-004  
  815.00  7.5580E-004  
  815.50  7.1089E-004  
  816.00  4.8062E-004  
  816.50  4.7802E-004  
  817.00  7.2413E-004  
  817.50  6.7340E-004  
  818.00  7.8704E-004  
  818.50  7.3474E-004  
  819.00  8.1915E-004  
  819.50  5.6506E-004  
  820.00  5.4798E-004  
  820.50  5.0133E-004  
  821.00  5.4248E-004  
  821.50  2.7642E-004  
  822.00  2.1320E-004  
  822.50  5.6944E-004  
  823.00  7.9124E-004  
  823.50  5.2600E-004  
  824.00  1.5092E-004  
  824.50  1.0066E-004  
  825.00  1.8262E-004  
  825.50  3.1142E-004  
  826.00  3.5671E-004  
  826.50  3.4303E-004  
  827.00  4.3063E-004  
  827.50  4.5793E-004  
  828.00  2.4145E-004  
  828.50  3.9718E-004  
  829.00  6.7220E-004  
  829.50  3.6601E-004  
  830.00  1.5099E-005  
  830.50  0.0000E+000  
  831.00  0.0000E+000  
  831.50  7.1188E-005  
  832.00  1.6176E-004  
  832.50  3.0050E-004  
  833.00  3.7487E-004  
  833.50  5.4076E-004  
  834.00  7.3034E-004  
  834.50  6.6020E-004  
  835.00  4.0806E-004  
  835.50  3.2151E-004  
  836.00  2.8082E-004  
  836.50  1.8936E-004  
  837.00  9.5679E-006  
  837.50  0.0000E+000  
  838.00  0.0000E+000  
  838.50  4.3486E-007  
  839.00  2.2112E-004  
  839.50  1.1783E-004  
  840.00  0.0000E+000  
  840.50  0.0000E+000  
  841.00  0.0000E+000  
  841.50  0.0000E+000  
  842.00  0.0000E+000  
  842.50  4.0584E-006  
  843.00  2.2729E-004  
  843.50  3.3535E-004  
  844.00  9.8554E-005  
  844.50  0.0000E+000  
  845.00  0.0000E+000  
  845.50  0.0000E+000  
  846.00  1.9950E-004  
  846.50  5.8942E-004  
  847.00  7.7817E-004  
  847.50  4.5158E-004  
  848.00  2.0982E-005  
  848.50  0.0000E+000  
  849.00  1.7246E-004  
  849.50  2.2240E-004  
  850.00  0.0000E+000  
  850.50  0.0000E+000  
  851.00  0.0000E+000  
  851.50  0.0000E+000  
  852.00  8.8737E-006  
  852.50  0.0000E+000  
  853.00  0.0000E+000  
  853.50  0.0000E+000  
  854.00  0.0000E+000  
  854.50  0.0000E+000  
  855.00  0.0000E+000  
  855.50  1.3472E-004  
  856.00  8.3668E-004  
  856.50  6.2552E-004  
  857.00  2.9731E-004  
  857.50  8.6046E-005  
  858.00  9.0332E-005  
  858.50  0.0000E+000  
  859.00  0.0000E+000  
  859.50  0.0000E+000  
  860.00  0.0000E+000  
  860.50  0.0000E+000  
  861.00  0.0000E+000  
  861.50  0.0000E+000  
  862.00  0.0000E+000  
  862.50  0.0000E+000  
  863.00  0.0000E+000  
  863.50  1.2217E-004  
  864.00  0.0000E+000  
  864.50  0.0000E+000  
  865.00  2.6749E-005  
  865.50  5.0558E-004  
  866.00  6.5257E-004  
  866.50  2.2550E-004  
  867.00  0.0000E+000  
  867.50  0.0000E+000  
  868.00  3.4306E-004  
  868.50  6.2454E-004  
  869.00  5.6806E-004  
  869.50  1.7596E-004  
  870.00  1.6996E-004  
  870.50  4.8024E-004  
  871.00  6.5217E-005  
  871.50  0.0000E+000  
  872.00  0.0000E+000  
  872.50  0.0000E+000  
  873.00  0.0000E+000  
  873.50  0.0000E+000  
  874.00  0.0000E+000  
  874.50  0.0000E+000  
  875.00  0.0000E+000  
  875.50  0.0000E+000  
  876.00  0.0000E+000  
  876.50  0.0000E+000  
  877.00  6.3983E-005  
  877.50  0.0000E+000  
  878.00  0.0000E+000  
  878.50  0.0000E+000  
  879.00  1.4934E-004  
  879.50  3.5272E-004  
  880.00  0.0000E+000  
  880.50  0.0000E+000  
  881.00  0.0000E+000  
  881.50  0.0000E+000  
  882.00  0.0000E+000  
  882.50  0.0000E+000  
  883.00  1.2922E-004  
  883.50  0.0000E+000  
  884.00  0.0000E+000  
  884.50  0.0000E+000  
  885.00  5.1330E-004  
  885.50  2.5485E-004  
  886.00  1.7618E-005  
  886.50  5.7127E-006  
  887.00  7.2729E-004  
  887.50  9.6618E-004  
  888.00  6.4242E-004  
  888.50  8.1140E-004  
  889.00  1.1789E-003  
  889.50  1.0899E-003  
  890.00  1.5510E-003  
  890.50  1.5016E-003  
  891.00  6.5065E-004  
  891.50  1.7732E-004  
  892.00  0.0000E+000  
  892.50  5.2709E-005  
  893.00  5.9519E-004  
  893.50  3.0649E-004  
  894.00  1.7103E-006  
  894.50  7.4805E-004  
  895.00  1.2904E-003  
  895.50  1.2972E-003  
  896.00  1.1344E-003  
  896.50  3.9779E-004  
  897.00  0.0000E+000  
  897.50  0.0000E+000  
  898.00  0.0000E+000  
  898.50  0.0000E+000  
  899.00  0.0000E+000  
  899.50  0.0000E+000  
