
# From lspdd.org
# 
# Name: DEL EnergySmart BR30 Domestique
# Indice spectral Valeur 
# MSI 0.29 
# SLI 0.49 
# IPI 0.66 
# Pourcentage de bleu 18.6 
# Caractéristique Valeur 
# CCT calculée (K) 2882 
# CCT du fabricant (K) 3000 
# Tension (V) 120 
# Puissance (W) 10.0 
# Efficacité lumineuse (Lum/W) 70.0 
#
# Image: '/app/system/img_2s/2492/medium_image2.jpg?1413485926'
# Image: '/app/system/img_1s/2492/medium_image1.jpg?1413485928'
# 

  273.00  0.0000E+000  
  273.50  0.0000E+000  
  274.00  0.0000E+000  
  274.50  0.0000E+000  
  275.00  0.0000E+000  
  275.50  0.0000E+000  
  276.00  0.0000E+000  
  276.50  0.0000E+000  
  277.00  0.0000E+000  
  277.50  0.0000E+000  
  278.00  0.0000E+000  
  278.50  0.0000E+000  
  279.00  0.0000E+000  
  279.50  0.0000E+000  
  280.00  0.0000E+000  
  280.50  0.0000E+000  
  281.00  0.0000E+000  
  281.50  0.0000E+000  
  282.00  0.0000E+000  
  282.50  0.0000E+000  
  283.00  0.0000E+000  
  283.50  0.0000E+000  
  284.00  0.0000E+000  
  284.50  0.0000E+000  
  285.00  0.0000E+000  
  285.50  0.0000E+000  
  286.00  0.0000E+000  
  286.50  0.0000E+000  
  287.00  0.0000E+000  
  287.50  0.0000E+000  
  288.00  0.0000E+000  
  288.50  0.0000E+000  
  289.00  0.0000E+000  
  289.50  0.0000E+000  
  290.00  0.0000E+000  
  290.50  0.0000E+000  
  291.00  0.0000E+000  
  291.50  0.0000E+000  
  292.00  0.0000E+000  
  292.50  0.0000E+000  
  293.00  0.0000E+000  
  293.50  0.0000E+000  
  294.00  0.0000E+000  
  294.50  0.0000E+000  
  295.00  0.0000E+000  
  295.50  0.0000E+000  
  296.00  0.0000E+000  
  296.50  0.0000E+000  
  297.00  0.0000E+000  
  297.50  0.0000E+000  
  298.00  0.0000E+000  
  298.50  0.0000E+000  
  299.00  0.0000E+000  
  299.50  0.0000E+000  
  300.00  0.0000E+000  
  300.50  0.0000E+000  
  301.00  0.0000E+000  
  301.50  0.0000E+000  
  302.00  0.0000E+000  
  302.50  0.0000E+000  
  303.00  1.1388E-005  
  303.50  6.0536E-005  
  304.00  1.2261E-004  
  304.50  1.1292E-004  
  305.00  4.9878E-005  
  305.50  6.3601E-006  
  306.00  0.0000E+000  
  306.50  0.0000E+000  
  307.00  0.0000E+000  
  307.50  0.0000E+000  
  308.00  0.0000E+000  
  308.50  2.8609E-005  
  309.00  8.5124E-005  
  309.50  1.2300E-004  
  310.00  1.0978E-004  
  310.50  1.0120E-004  
  311.00  7.7349E-005  
  311.50  2.1079E-005  
  312.00  1.1936E-005  
  312.50  9.7769E-008  
  313.00  1.2330E-005  
  313.50  1.8844E-005  
  314.00  9.4802E-007  
  314.50  4.1295E-006  
  315.00  4.1144E-005  
  315.50  5.4349E-005  
  316.00  6.3862E-005  
  316.50  6.6740E-005  
  317.00  6.9249E-005  
  317.50  6.3244E-005  
  318.00  1.7709E-005  
  318.50  0.0000E+000  
  319.00  0.0000E+000  
  319.50  0.0000E+000  
  320.00  1.9648E-005  
  320.50  3.5180E-005  
  321.00  1.9703E-005  
  321.50  1.6445E-005  
  322.00  2.6790E-005  
  322.50  6.0467E-006  
  323.00  0.0000E+000  
  323.50  0.0000E+000  
  324.00  5.2221E-006  
  324.50  1.5365E-005  
  325.00  1.2578E-006  
  325.50  0.0000E+000  
  326.00  0.0000E+000  
  326.50  0.0000E+000  
  327.00  0.0000E+000  
  327.50  0.0000E+000  
  328.00  0.0000E+000  
  328.50  0.0000E+000  
  329.00  0.0000E+000  
  329.50  3.2090E-005  
  330.00  1.0594E-004  
  330.50  1.2522E-004  
  331.00  1.0903E-004  
  331.50  5.8264E-005  
  332.00  2.6914E-005  
  332.50  3.2124E-005  
  333.00  5.2911E-005  
  333.50  1.0784E-004  
  334.00  1.3516E-004  
  334.50  9.5472E-005  
  335.00  2.8295E-005  
  335.50  0.0000E+000  
  336.00  0.0000E+000  
  336.50  4.9125E-006  
  337.00  2.5129E-005  
  337.50  4.5806E-005  
  338.00  1.2199E-005  
  338.50  1.7917E-006  
  339.00  0.0000E+000  
  339.50  1.8095E-006  
  340.00  5.3510E-006  
  340.50  6.7510E-005  
  341.00  9.6191E-005  
  341.50  1.2122E-004  
  342.00  1.5379E-004  
  342.50  1.2652E-004  
  343.00  7.3369E-005  
  343.50  7.8933E-006  
  344.00  0.0000E+000  
  344.50  0.0000E+000  
  345.00  0.0000E+000  
  345.50  1.4827E-005  
  346.00  3.4809E-005  
  346.50  6.0678E-005  
  347.00  2.5134E-005  
  347.50  1.4758E-005  
  348.00  3.9015E-007  
  348.50  0.0000E+000  
  349.00  0.0000E+000  
  349.50  0.0000E+000  
  350.00  6.4902E-006  
  350.50  1.0775E-005  
  351.00  2.0826E-005  
  351.50  2.4376E-005  
  352.00  1.9256E-005  
  352.50  4.1489E-005  
  353.00  6.0342E-005  
  353.50  5.0962E-005  
  354.00  7.5593E-005  
  354.50  4.6246E-005  
  355.00  6.5305E-006  
  355.50  9.6503E-006  
  356.00  0.0000E+000  
  356.50  0.0000E+000  
  357.00  1.4357E-005  
  357.50  1.5332E-006  
  358.00  2.9572E-005  
  358.50  7.9233E-005  
  359.00  8.5015E-005  
  359.50  1.3309E-004  
  360.00  1.3621E-004  
  360.50  1.2822E-004  
  361.00  1.4710E-004  
  361.50  8.5873E-005  
  362.00  6.4861E-005  
  362.50  4.2859E-005  
  363.00  0.0000E+000  
  363.50  1.1166E-005  
  364.00  2.8100E-005  
  364.50  4.8059E-005  
  365.00  4.2463E-005  
  365.50  3.5058E-008  
  366.00  0.0000E+000  
  366.50  0.0000E+000  
  367.00  0.0000E+000  
  367.50  0.0000E+000  
  368.00  0.0000E+000  
  368.50  2.9689E-005  
  369.00  3.3374E-005  
  369.50  1.0773E-005  
  370.00  0.0000E+000  
  370.50  3.3568E-006  
  371.00  7.8254E-007  
  371.50  2.0532E-005  
  372.00  6.4467E-005  
  372.50  6.0979E-005  
  373.00  5.4730E-005  
  373.50  4.1524E-005  
  374.00  1.6521E-005  
  374.50  0.0000E+000  
  375.00  0.0000E+000  
  375.50  2.3971E-006  
  376.00  3.5696E-005  
  376.50  5.2578E-005  
  377.00  5.9035E-005  
  377.50  1.1540E-005  
  378.00  0.0000E+000  
  378.50  1.4071E-005  
  379.00  2.6002E-005  
  379.50  8.3110E-005  
  380.00  1.2696E-004  
  380.50  1.6636E-004  
  381.00  2.1339E-004  
  381.50  1.3444E-004  
  382.00  9.3334E-005  
  382.50  5.6666E-005  
  383.00  5.4933E-005  
  383.50  8.8710E-005  
  384.00  6.4344E-005  
  384.50  6.5456E-005  
  385.00  9.8127E-005  
  385.50  1.5759E-004  
  386.00  1.3960E-004  
  386.50  1.3397E-004  
  387.00  1.2629E-004  
  387.50  1.3019E-004  
  388.00  1.1512E-004  
  388.50  8.9672E-005  
  389.00  4.4627E-005  
  389.50  3.8575E-005  
  390.00  4.0191E-005  
  390.50  2.8431E-005  
  391.00  5.1061E-005  
  391.50  9.3440E-005  
  392.00  1.3770E-004  
  392.50  1.5201E-004  
  393.00  1.6185E-004  
  393.50  1.4139E-004  
  394.00  1.1313E-004  
  394.50  6.2210E-005  
  395.00  3.8294E-006  
  395.50  0.0000E+000  
  396.00  0.0000E+000  
  396.50  0.0000E+000  
  397.00  7.0094E-005  
  397.50  1.1380E-004  
  398.00  1.2023E-004  
  398.50  1.2857E-004  
  399.00  6.9722E-005  
  399.50  7.3727E-005  
  400.00  9.5791E-005  
  400.50  1.0155E-004  
  401.00  1.3319E-004  
  401.50  1.4069E-004  
  402.00  1.2773E-004  
  402.50  1.3512E-004  
  403.00  1.2965E-004  
  403.50  1.0283E-004  
  404.00  1.2812E-004  
  404.50  1.2278E-004  
  405.00  1.6508E-004  
  405.50  1.7211E-004  
  406.00  1.8445E-004  
  406.50  2.2152E-004  
  407.00  2.5753E-004  
  407.50  2.7542E-004  
  408.00  2.3084E-004  
  408.50  1.4286E-004  
  409.00  8.4806E-005  
  409.50  1.0538E-004  
  410.00  1.3827E-004  
  410.50  2.3859E-004  
  411.00  2.6860E-004  
  411.50  3.0373E-004  
  412.00  3.4075E-004  
  412.50  3.0861E-004  
  413.00  2.7326E-004  
  413.50  2.3832E-004  
  414.00  2.2817E-004  
  414.50  3.0384E-004  
  415.00  3.9934E-004  
  415.50  4.9642E-004  
  416.00  5.8861E-004  
  416.50  6.3063E-004  
  417.00  6.9523E-004  
  417.50  7.4357E-004  
  418.00  8.1686E-004  
  418.50  8.6686E-004  
  419.00  9.0818E-004  
  419.50  9.6727E-004  
  420.00  1.0536E-003  
  420.50  1.1741E-003  
  421.00  1.2338E-003  
  421.50  1.2775E-003  
  422.00  1.3539E-003  
  422.50  1.4608E-003  
  423.00  1.5561E-003  
  423.50  1.6717E-003  
  424.00  1.7294E-003  
  424.50  1.8223E-003  
  425.00  1.9906E-003  
  425.50  2.1414E-003  
  426.00  2.3301E-003  
  426.50  2.4561E-003  
  427.00  2.5526E-003  
  427.50  2.6513E-003  
  428.00  2.7500E-003  
  428.50  2.8400E-003  
  429.00  2.9512E-003  
  429.50  3.0540E-003  
  430.00  3.1560E-003  
  430.50  3.2707E-003  
  431.00  3.3504E-003  
  431.50  3.5115E-003  
  432.00  3.7041E-003  
  432.50  3.9142E-003  
  433.00  4.0666E-003  
  433.50  4.2436E-003  
  434.00  4.4447E-003  
  434.50  4.6812E-003  
  435.00  4.9224E-003  
  435.50  5.1717E-003  
  436.00  5.4490E-003  
  436.50  5.7744E-003  
  437.00  6.0719E-003  
  437.50  6.3124E-003  
  438.00  6.5582E-003  
  438.50  6.7740E-003  
  439.00  6.9990E-003  
  439.50  7.2460E-003  
  440.00  7.4958E-003  
  440.50  7.8291E-003  
  441.00  8.1893E-003  
  441.50  8.5365E-003  
  442.00  8.8248E-003  
  442.50  8.9755E-003  
  443.00  9.1630E-003  
  443.50  9.3563E-003  
  444.00  9.5816E-003  
  444.50  9.7564E-003  
  445.00  9.8747E-003  
  445.50  9.9459E-003  
  446.00  9.9619E-003  
  446.50  9.8986E-003  
  447.00  9.7758E-003  
  447.50  9.6435E-003  
  448.00  9.5264E-003  
  448.50  9.3717E-003  
  449.00  9.1889E-003  
  449.50  8.9452E-003  
  450.00  8.6411E-003  
  450.50  8.3279E-003  
  451.00  8.0231E-003  
  451.50  7.7774E-003  
  452.00  7.5274E-003  
  452.50  7.2506E-003  
  453.00  6.9526E-003  
  453.50  6.6774E-003  
  454.00  6.4530E-003  
  454.50  6.2543E-003  
  455.00  6.1048E-003  
  455.50  5.9284E-003  
  456.00  5.6863E-003  
  456.50  5.4550E-003  
  457.00  5.2760E-003  
  457.50  5.1921E-003  
  458.00  5.1653E-003  
  458.50  5.0865E-003  
  459.00  5.0035E-003  
  459.50  4.8916E-003  
  460.00  4.8017E-003  
  460.50  4.6550E-003  
  461.00  4.4994E-003  
  461.50  4.3800E-003  
  462.00  4.3209E-003  
  462.50  4.2553E-003  
  463.00  4.1396E-003  
  463.50  3.9911E-003  
  464.00  3.8517E-003  
  464.50  3.8166E-003  
  465.00  3.7670E-003  
  465.50  3.7186E-003  
  466.00  3.6267E-003  
  466.50  3.5367E-003  
  467.00  3.4451E-003  
  467.50  3.3473E-003  
  468.00  3.2718E-003  
  468.50  3.1954E-003  
  469.00  3.1459E-003  
  469.50  3.1136E-003  
  470.00  3.0297E-003  
  470.50  2.9674E-003  
  471.00  2.9042E-003  
  471.50  2.8442E-003  
  472.00  2.8335E-003  
  472.50  2.8551E-003  
  473.00  2.8726E-003  
  473.50  2.9040E-003  
  474.00  2.9110E-003  
  474.50  2.9057E-003  
  475.00  2.8886E-003  
  475.50  2.9050E-003  
  476.00  2.9181E-003  
  476.50  2.9405E-003  
  477.00  2.9670E-003  
  477.50  2.9664E-003  
  478.00  2.9335E-003  
  478.50  2.9365E-003  
  479.00  2.9582E-003  
  479.50  3.0095E-003  
  480.00  3.0766E-003  
  480.50  3.1075E-003  
  481.00  3.1272E-003  
  481.50  3.1819E-003  
  482.00  3.2370E-003  
  482.50  3.2936E-003  
  483.00  3.3386E-003  
  483.50  3.3908E-003  
  484.00  3.4457E-003  
  484.50  3.5043E-003  
  485.00  3.5628E-003  
  485.50  3.6302E-003  
  486.00  3.6752E-003  
  486.50  3.7410E-003  
  487.00  3.7699E-003  
  487.50  3.8121E-003  
  488.00  3.8780E-003  
  488.50  3.9527E-003  
  489.00  4.0566E-003  
  489.50  4.1317E-003  
  490.00  4.1907E-003  
  490.50  4.2707E-003  
  491.00  4.3738E-003  
  491.50  4.4699E-003  
  492.00  4.5811E-003  
  492.50  4.6623E-003  
  493.00  4.7731E-003  
  493.50  4.8634E-003  
  494.00  4.9553E-003  
  494.50  5.0508E-003  
  495.00  5.1251E-003  
  495.50  5.2141E-003  
  496.00  5.2758E-003  
  496.50  5.4034E-003  
  497.00  5.5003E-003  
  497.50  5.6178E-003  
  498.00  5.6932E-003  
  498.50  5.7578E-003  
  499.00  5.8409E-003  
  499.50  5.9393E-003  
  500.00  6.0560E-003  
  500.50  6.1420E-003  
  501.00  6.1990E-003  
  501.50  6.2726E-003  
  502.00  6.3620E-003  
  502.50  6.4771E-003  
  503.00  6.5710E-003  
  503.50  6.6542E-003  
  504.00  6.7380E-003  
  504.50  6.8174E-003  
  505.00  6.8983E-003  
  505.50  7.0077E-003  
  506.00  7.1209E-003  
  506.50  7.2391E-003  
  507.00  7.3029E-003  
  507.50  7.3598E-003  
  508.00  7.4336E-003  
  508.50  7.5125E-003  
  509.00  7.6041E-003  
  509.50  7.7010E-003  
  510.00  7.8309E-003  
  510.50  7.9629E-003  
  511.00  8.0592E-003  
  511.50  8.1038E-003  
  512.00  8.1745E-003  
  512.50  8.2743E-003  
  513.00  8.3809E-003  
  513.50  8.4379E-003  
  514.00  8.4840E-003  
  514.50  8.5448E-003  
  515.00  8.6395E-003  
  515.50  8.7422E-003  
  516.00  8.8297E-003  
  516.50  8.9041E-003  
  517.00  8.9999E-003  
  517.50  9.0685E-003  
  518.00  9.1484E-003  
  518.50  9.1889E-003  
  519.00  9.2565E-003  
  519.50  9.3593E-003  
  520.00  9.4679E-003  
  520.50  9.5680E-003  
  521.00  9.6485E-003  
  521.50  9.7170E-003  
  522.00  9.8066E-003  
  522.50  9.9015E-003  
  523.00  9.9887E-003  
  523.50  1.0104E-002  
  524.00  1.0208E-002  
  524.50  1.0293E-002  
  525.00  1.0390E-002  
  525.50  1.0458E-002  
  526.00  1.0519E-002  
  526.50  1.0625E-002  
  527.00  1.0735E-002  
  527.50  1.0863E-002  
  528.00  1.0961E-002  
  528.50  1.1028E-002  
  529.00  1.1116E-002  
  529.50  1.1179E-002  
  530.00  1.1250E-002  
  530.50  1.1313E-002  
  531.00  1.1402E-002  
  531.50  1.1504E-002  
  532.00  1.1603E-002  
  532.50  1.1699E-002  
  533.00  1.1850E-002  
  533.50  1.2010E-002  
  534.00  1.2125E-002  
  534.50  1.2221E-002  
  535.00  1.2287E-002  
  535.50  1.2404E-002  
  536.00  1.2523E-002  
  536.50  1.2613E-002  
  537.00  1.2692E-002  
  537.50  1.2781E-002  
  538.00  1.2922E-002  
  538.50  1.3084E-002  
  539.00  1.3214E-002  
  539.50  1.3308E-002  
  540.00  1.3387E-002  
  540.50  1.3468E-002  
  541.00  1.3573E-002  
  541.50  1.3676E-002  
  542.00  1.3771E-002  
  542.50  1.3907E-002  
  543.00  1.4017E-002  
  543.50  1.4110E-002  
  544.00  1.4219E-002  
  544.50  1.4296E-002  
  545.00  1.4423E-002  
  545.50  1.4516E-002  
  546.00  1.4595E-002  
  546.50  1.4732E-002  
  547.00  1.4872E-002  
  547.50  1.4988E-002  
  548.00  1.5069E-002  
  548.50  1.5137E-002  
  549.00  1.5250E-002  
  549.50  1.5389E-002  
  550.00  1.5480E-002  
  550.50  1.5601E-002  
  551.00  1.5720E-002  
  551.50  1.5857E-002  
  552.00  1.6004E-002  
  552.50  1.6093E-002  
  553.00  1.6200E-002  
  553.50  1.6271E-002  
  554.00  1.6336E-002  
  554.50  1.6416E-002  
  555.00  1.6528E-002  
  555.50  1.6698E-002  
  556.00  1.6865E-002  
  556.50  1.6977E-002  
  557.00  1.7073E-002  
  557.50  1.7140E-002  
  558.00  1.7211E-002  
  558.50  1.7335E-002  
  559.00  1.7447E-002  
  559.50  1.7585E-002  
  560.00  1.7702E-002  
  560.50  1.7797E-002  
  561.00  1.7907E-002  
  561.50  1.8001E-002  
  562.00  1.8126E-002  
  562.50  1.8205E-002  
  563.00  1.8265E-002  
  563.50  1.8313E-002  
  564.00  1.8415E-002  
  564.50  1.8478E-002  
  565.00  1.8539E-002  
  565.50  1.8549E-002  
  566.00  1.8635E-002  
  566.50  1.8758E-002  
  567.00  1.8884E-002  
  567.50  1.9046E-002  
  568.00  1.9189E-002  
  568.50  1.9318E-002  
  569.00  1.9408E-002  
  569.50  1.9437E-002  
  570.00  1.9515E-002  
  570.50  1.9597E-002  
  571.00  1.9688E-002  
  571.50  1.9759E-002  
  572.00  1.9881E-002  
  572.50  1.9956E-002  
  573.00  2.0003E-002  
  573.50  2.0036E-002  
  574.00  2.0122E-002  
  574.50  2.0218E-002  
  575.00  2.0284E-002  
  575.50  2.0338E-002  
  576.00  2.0420E-002  
  576.50  2.0520E-002  
  577.00  2.0557E-002  
  577.50  2.0652E-002  
  578.00  2.0682E-002  
  578.50  2.0764E-002  
  579.00  2.0817E-002  
  579.50  2.0881E-002  
  580.00  2.0971E-002  
  580.50  2.1027E-002  
  581.00  2.1106E-002  
  581.50  2.1157E-002  
  582.00  2.1223E-002  
  582.50  2.1294E-002  
  583.00  2.1381E-002  
  583.50  2.1497E-002  
  584.00  2.1573E-002  
  584.50  2.1624E-002  
  585.00  2.1667E-002  
  585.50  2.1735E-002  
  586.00  2.1805E-002  
  586.50  2.1814E-002  
  587.00  2.1844E-002  
  587.50  2.1887E-002  
  588.00  2.1969E-002  
  588.50  2.2024E-002  
  589.00  2.2082E-002  
  589.50  2.2142E-002  
  590.00  2.2209E-002  
  590.50  2.2249E-002  
  591.00  2.2302E-002  
  591.50  2.2353E-002  
  592.00  2.2433E-002  
  592.50  2.2457E-002  
  593.00  2.2478E-002  
  593.50  2.2468E-002  
  594.00  2.2503E-002  
  594.50  2.2546E-002  
  595.00  2.2607E-002  
  595.50  2.2611E-002  
  596.00  2.2613E-002  
  596.50  2.2597E-002  
  597.00  2.2629E-002  
  597.50  2.2683E-002  
  598.00  2.2788E-002  
  598.50  2.2889E-002  
  599.00  2.2891E-002  
  599.50  2.2827E-002  
  600.00  2.2800E-002  
  600.50  2.2811E-002  
  601.00  2.2860E-002  
  601.50  2.2835E-002  
  602.00  2.2835E-002  
  602.50  2.2830E-002  
  603.00  2.2891E-002  
  603.50  2.2933E-002  
  604.00  2.2927E-002  
  604.50  2.2859E-002  
  605.00  2.2764E-002  
  605.50  2.2751E-002  
  606.00  2.2725E-002  
  606.50  2.2752E-002  
  607.00  2.2730E-002  
  607.50  2.2742E-002  
  608.00  2.2737E-002  
  608.50  2.2697E-002  
  609.00  2.2652E-002  
  609.50  2.2647E-002  
  610.00  2.2681E-002  
  610.50  2.2687E-002  
  611.00  2.2652E-002  
  611.50  2.2653E-002  
  612.00  2.2644E-002  
  612.50  2.2578E-002  
  613.00  2.2420E-002  
  613.50  2.2286E-002  
  614.00  2.2208E-002  
  614.50  2.2180E-002  
  615.00  2.2158E-002  
  615.50  2.2091E-002  
  616.00  2.2072E-002  
  616.50  2.2107E-002  
  617.00  2.2152E-002  
  617.50  2.2099E-002  
  618.00  2.1915E-002  
  618.50  2.1779E-002  
  619.00  2.1704E-002  
  619.50  2.1669E-002  
  620.00  2.1610E-002  
  620.50  2.1591E-002  
  621.00  2.1621E-002  
  621.50  2.1627E-002  
  622.00  2.1513E-002  
  622.50  2.1385E-002  
  623.00  2.1234E-002  
  623.50  2.1146E-002  
  624.00  2.1043E-002  
  624.50  2.1027E-002  
  625.00  2.0972E-002  
  625.50  2.0867E-002  
  626.00  2.0708E-002  
  626.50  2.0530E-002  
  627.00  2.0391E-002  
  627.50  2.0266E-002  
  628.00  2.0191E-002  
  628.50  2.0215E-002  
  629.00  2.0102E-002  
  629.50  1.9963E-002  
  630.00  1.9816E-002  
  630.50  1.9739E-002  
  631.00  1.9618E-002  
  631.50  1.9464E-002  
  632.00  1.9292E-002  
  632.50  1.9256E-002  
  633.00  1.9204E-002  
  633.50  1.9135E-002  
  634.00  1.9083E-002  
  634.50  1.9002E-002  
  635.00  1.8942E-002  
  635.50  1.8718E-002  
  636.00  1.8509E-002  
  636.50  1.8298E-002  
  637.00  1.8227E-002  
  637.50  1.8183E-002  
  638.00  1.8122E-002  
  638.50  1.7986E-002  
  639.00  1.7893E-002  
  639.50  1.7755E-002  
  640.00  1.7640E-002  
  640.50  1.7421E-002  
  641.00  1.7314E-002  
  641.50  1.7190E-002  
  642.00  1.7079E-002  
  642.50  1.6860E-002  
  643.00  1.6711E-002  
  643.50  1.6596E-002  
  644.00  1.6538E-002  
  644.50  1.6407E-002  
  645.00  1.6278E-002  
  645.50  1.6132E-002  
  646.00  1.6043E-002  
  646.50  1.5909E-002  
  647.00  1.5789E-002  
  647.50  1.5652E-002  
  648.00  1.5513E-002  
  648.50  1.5406E-002  
  649.00  1.5320E-002  
  649.50  1.5239E-002  
  650.00  1.5088E-002  
  650.50  1.4868E-002  
  651.00  1.4675E-002  
  651.50  1.4506E-002  
  652.00  1.4403E-002  
  652.50  1.4329E-002  
  653.00  1.4228E-002  
  653.50  1.4132E-002  
  654.00  1.3977E-002  
  654.50  1.3797E-002  
  655.00  1.3622E-002  
  655.50  1.3478E-002  
  656.00  1.3448E-002  
  656.50  1.3379E-002  
  657.00  1.3305E-002  
  657.50  1.3155E-002  
  658.00  1.3005E-002  
  658.50  1.2824E-002  
  659.00  1.2670E-002  
  659.50  1.2498E-002  
  660.00  1.2308E-002  
  660.50  1.2133E-002  
  661.00  1.1987E-002  
  661.50  1.1901E-002  
  662.00  1.1791E-002  
  662.50  1.1661E-002  
  663.00  1.1576E-002  
  663.50  1.1501E-002  
  664.00  1.1442E-002  
  664.50  1.1276E-002  
  665.00  1.1132E-002  
  665.50  1.0963E-002  
  666.00  1.0790E-002  
  666.50  1.0688E-002  
  667.00  1.0573E-002  
  667.50  1.0507E-002  
  668.00  1.0363E-002  
  668.50  1.0215E-002  
  669.00  1.0102E-002  
  669.50  9.9996E-003  
  670.00  9.9542E-003  
  670.50  9.8618E-003  
  671.00  9.7685E-003  
  671.50  9.6559E-003  
  672.00  9.5538E-003  
  672.50  9.4675E-003  
  673.00  9.3592E-003  
  673.50  9.2337E-003  
  674.00  9.1547E-003  
  674.50  9.1141E-003  
  675.00  8.9937E-003  
  675.50  8.8399E-003  
  676.00  8.7102E-003  
  676.50  8.6470E-003  
  677.00  8.6028E-003  
  677.50  8.5313E-003  
  678.00  8.4427E-003  
  678.50  8.2161E-003  
  679.00  8.0383E-003  
  679.50  7.8717E-003  
  680.00  7.7765E-003  
  680.50  7.7192E-003  
  681.00  7.6840E-003  
  681.50  7.6374E-003  
  682.00  7.4472E-003  
  682.50  7.2896E-003  
  683.00  7.2428E-003  
  683.50  7.2362E-003  
  684.00  7.2042E-003  
  684.50  7.0863E-003  
  685.00  6.9449E-003  
  685.50  6.8369E-003  
  686.00  6.8033E-003  
  686.50  6.7830E-003  
  687.00  6.7243E-003  
  687.50  6.6600E-003  
  688.00  6.6067E-003  
  688.50  6.5190E-003  
  689.00  6.3418E-003  
  689.50  6.2492E-003  
  690.00  6.1882E-003  
  690.50  6.1525E-003  
  691.00  6.0775E-003  
  691.50  6.0586E-003  
  692.00  6.0940E-003  
  692.50  6.0644E-003  
  693.00  5.9280E-003  
  693.50  5.7490E-003  
  694.00  5.6097E-003  
  694.50  5.4992E-003  
  695.00  5.4726E-003  
  695.50  5.4518E-003  
  696.00  5.3368E-003  
  696.50  5.1460E-003  
  697.00  5.0519E-003  
  697.50  5.0587E-003  
  698.00  5.0503E-003  
  698.50  4.9900E-003  
  699.00  4.9345E-003  
  699.50  4.9551E-003  
  700.00  4.9166E-003  
  700.50  4.8351E-003  
  701.00  4.6616E-003  
  701.50  4.5136E-003  
  702.00  4.3884E-003  
  702.50  4.3302E-003  
  703.00  4.2493E-003  
  703.50  4.2226E-003  
  704.00  4.1646E-003  
  704.50  4.1332E-003  
  705.00  4.0734E-003  
  705.50  4.0309E-003  
  706.00  3.9689E-003  
  706.50  3.9442E-003  
  707.00  3.8757E-003  
  707.50  3.9069E-003  
  708.00  3.8408E-003  
  708.50  3.8012E-003  
  709.00  3.6666E-003  
  709.50  3.6191E-003  
  710.00  3.5030E-003  
  710.50  3.4438E-003  
  711.00  3.3881E-003  
  711.50  3.3953E-003  
  712.00  3.3741E-003  
  712.50  3.3938E-003  
  713.00  3.4304E-003  
  713.50  3.4363E-003  
  714.00  3.3806E-003  
  714.50  3.3244E-003  
  715.00  3.2035E-003  
  715.50  3.0886E-003  
  716.00  2.9700E-003  
  716.50  2.9018E-003  
  717.00  2.8472E-003  
  717.50  2.8547E-003  
  718.00  2.8757E-003  
  718.50  2.8740E-003  
  719.00  2.9262E-003  
  719.50  2.9361E-003  
  720.00  2.9121E-003  
  720.50  2.8005E-003  
  721.00  2.7038E-003  
  721.50  2.6509E-003  
  722.00  2.5851E-003  
  722.50  2.5415E-003  
  723.00  2.5055E-003  
  723.50  2.4558E-003  
  724.00  2.4321E-003  
  724.50  2.4236E-003  
  725.00  2.4489E-003  
  725.50  2.3856E-003  
  726.00  2.3851E-003  
  726.50  2.2981E-003  
  727.00  2.2479E-003  
  727.50  2.1865E-003  
  728.00  2.2683E-003  
  728.50  2.3633E-003  
  729.00  2.3744E-003  
  729.50  2.3479E-003  
  730.00  2.3474E-003  
  730.50  2.3482E-003  
  731.00  2.1942E-003  
  731.50  1.9967E-003  
  732.00  1.9239E-003  
  732.50  1.9784E-003  
  733.00  2.0993E-003  
  733.50  2.1611E-003  
  734.00  2.1517E-003  
  734.50  2.0607E-003  
  735.00  1.9418E-003  
  735.50  1.8451E-003  
  736.00  1.7793E-003  
  736.50  1.7415E-003  
  737.00  1.6371E-003  
  737.50  1.5874E-003  
  738.00  1.5353E-003  
  738.50  1.5036E-003  
  739.00  1.4296E-003  
  739.50  1.4252E-003  
  740.00  1.5536E-003  
  740.50  1.6870E-003  
  741.00  1.6675E-003  
  741.50  1.5346E-003  
  742.00  1.4913E-003  
  742.50  1.5709E-003  
  743.00  1.6069E-003  
  743.50  1.5035E-003  
  744.00  1.3573E-003  
  744.50  1.2362E-003  
  745.00  1.2799E-003  
  745.50  1.3678E-003  
  746.00  1.3317E-003  
  746.50  1.2159E-003  
  747.00  1.2130E-003  
  747.50  1.2138E-003  
  748.00  1.1329E-003  
  748.50  1.0356E-003  
  749.00  1.1127E-003  
  749.50  1.2984E-003  
  750.00  1.4083E-003  
  750.50  1.3520E-003  
  751.00  1.3455E-003  
  751.50  1.3916E-003  
  752.00  1.2791E-003  
  752.50  1.1103E-003  
  753.00  9.1502E-004  
  753.50  9.5748E-004  
  754.00  9.9758E-004  
  754.50  1.0987E-003  
  755.00  1.1401E-003  
  755.50  1.0959E-003  
  756.00  1.0828E-003  
  756.50  1.1790E-003  
  757.00  1.2097E-003  
  757.50  1.1558E-003  
  758.00  1.0406E-003  
  758.50  1.0639E-003  
  759.00  1.0391E-003  
  759.50  9.3294E-004  
  760.00  7.2981E-004  
  760.50  6.1187E-004  
  761.00  7.1107E-004  
  761.50  9.3944E-004  
  762.00  1.0142E-003  
  762.50  8.6055E-004  
  763.00  8.0485E-004  
  763.50  8.9964E-004  
  764.00  8.6754E-004  
  764.50  7.0325E-004  
  765.00  6.3238E-004  
  765.50  7.9643E-004  
  766.00  9.4979E-004  
  766.50  1.0371E-003  
  767.00  9.5449E-004  
  767.50  8.7029E-004  
  768.00  7.0660E-004  
  768.50  5.7793E-004  
  769.00  5.4345E-004  
  769.50  5.9511E-004  
  770.00  6.7166E-004  
  770.50  7.4042E-004  
  771.00  7.0726E-004  
  771.50  4.9899E-004  
  772.00  3.2384E-004  
  772.50  3.3374E-004  
  773.00  5.8157E-004  
  773.50  6.7450E-004  
  774.00  7.2308E-004  
  774.50  6.5561E-004  
  775.00  5.9050E-004  
  775.50  5.3287E-004  
  776.00  4.8600E-004  
  776.50  3.7230E-004  
  777.00  4.3716E-004  
  777.50  4.5706E-004  
  778.00  4.5931E-004  
  778.50  5.1478E-004  
  779.00  5.4210E-004  
  779.50  4.7935E-004  
  780.00  5.5895E-004  
  780.50  6.3820E-004  
  781.00  7.6518E-004  
  781.50  7.2720E-004  
  782.00  7.8155E-004  
  782.50  7.3859E-004  
  783.00  5.6670E-004  
  783.50  2.7464E-004  
  784.00  1.1792E-004  
  784.50  1.8766E-004  
  785.00  3.0691E-004  
  785.50  4.3065E-004  
  786.00  4.8151E-004  
  786.50  4.9852E-004  
  787.00  4.9410E-004  
  787.50  4.9499E-004  
  788.00  2.2273E-004  
  788.50  3.6055E-005  
  789.00  1.0758E-004  
  789.50  2.6533E-004  
  790.00  2.6006E-004  
  790.50  1.5165E-004  
  791.00  1.4823E-004  
  791.50  2.9275E-004  
  792.00  3.7986E-004  
  792.50  2.9414E-004  
  793.00  3.0596E-004  
  793.50  1.9071E-004  
  794.00  3.3278E-004  
  794.50  4.5477E-004  
  795.00  5.0487E-004  
  795.50  4.3566E-004  
  796.00  4.4875E-004  
  796.50  3.6710E-004  
  797.00  2.9885E-004  
  797.50  2.4245E-004  
  798.00  3.7188E-004  
  798.50  2.9196E-004  
  799.00  3.9437E-004  
  799.50  4.4062E-004  
  800.00  4.5446E-004  
  800.50  3.5977E-004  
  801.00  2.2114E-004  
  801.50  1.1813E-004  
  802.00  0.0000E+000  
  802.50  1.3443E-004  
  803.00  4.1342E-004  
  803.50  4.3813E-004  
  804.00  2.3418E-004  
  804.50  3.1269E-005  
  805.00  1.3653E-004  
  805.50  1.6946E-004  
  806.00  2.8475E-004  
  806.50  2.1564E-004  
  807.00  1.7853E-004  
  807.50  2.6976E-005  
  808.00  0.0000E+000  
  808.50  1.1671E-004  
  809.00  4.6610E-004  
  809.50  3.9023E-004  
  810.00  9.1669E-005  
  810.50  0.0000E+000  
  811.00  0.0000E+000  
  811.50  0.0000E+000  
  812.00  5.4455E-005  
  812.50  3.5524E-004  
  813.00  5.8348E-004  
  813.50  5.7513E-004  
  814.00  4.6031E-004  
  814.50  3.3578E-004  
  815.00  4.5483E-004  
  815.50  4.5446E-004  
  816.00  3.5019E-004  
  816.50  5.0736E-004  
  817.00  7.9098E-004  
  817.50  4.4483E-004  
  818.00  3.0444E-004  
  818.50  2.8902E-004  
  819.00  4.3964E-004  
  819.50  5.6352E-004  
  820.00  4.8245E-004  
  820.50  3.1027E-004  
  821.00  2.2014E-004  
  821.50  8.6835E-006  
  822.00  0.0000E+000  
  822.50  2.1289E-004  
  823.00  3.7843E-004  
  823.50  2.2888E-004  
  824.00  1.1462E-004  
  824.50  2.0491E-004  
  825.00  3.7832E-004  
  825.50  5.1161E-004  
  826.00  5.3189E-004  
  826.50  2.2054E-004  
  827.00  2.0980E-005  
  827.50  0.0000E+000  
  828.00  0.0000E+000  
  828.50  8.0141E-005  
  829.00  3.0151E-004  
  829.50  1.0897E-004  
  830.00  0.0000E+000  
  830.50  0.0000E+000  
  831.00  1.6107E-005  
  831.50  0.0000E+000  
  832.00  0.0000E+000  
  832.50  5.8469E-007  
  833.00  5.0670E-005  
  833.50  0.0000E+000  
  834.00  0.0000E+000  
  834.50  0.0000E+000  
  835.00  3.1426E-004  
  835.50  5.7764E-004  
  836.00  6.3155E-004  
  836.50  2.6393E-004  
  837.00  1.3717E-004  
  837.50  1.9551E-004  
  838.00  3.1568E-006  
  838.50  0.0000E+000  
  839.00  0.0000E+000  
  839.50  0.0000E+000  
  840.00  0.0000E+000  
  840.50  0.0000E+000  
  841.00  0.0000E+000  
  841.50  0.0000E+000  
  842.00  0.0000E+000  
  842.50  0.0000E+000  
  843.00  4.9272E-005  
  843.50  5.0644E-004  
  844.00  6.4021E-004  
  844.50  3.9281E-004  
  845.00  3.1967E-004  
  845.50  1.7704E-004  
  846.00  1.1254E-004  
  846.50  4.5260E-004  
  847.00  3.8708E-004  
  847.50  1.3321E-004  
  848.00  1.2427E-004  
  848.50  4.2554E-004  
  849.00  1.9925E-004  
  849.50  1.1185E-004  
  850.00  0.0000E+000  
  850.50  3.8762E-004  
  851.00  2.8206E-004  
  851.50  8.5535E-005  
  852.00  2.6688E-004  
  852.50  0.0000E+000  
  853.00  0.0000E+000  
  853.50  3.9409E-005  
  854.00  2.2513E-004  
  854.50  2.5871E-004  
  855.00  2.0201E-004  
  855.50  3.3623E-004  
  856.00  6.2179E-004  
  856.50  7.7410E-004  
  857.00  2.9999E-004  
  857.50  9.8013E-006  
  858.00  1.6721E-004  
  858.50  0.0000E+000  
  859.00  4.5204E-005  
  859.50  6.0589E-004  
  860.00  5.0134E-004  
  860.50  0.0000E+000  
  861.00  0.0000E+000  
  861.50  0.0000E+000  
  862.00  0.0000E+000  
  862.50  3.5468E-004  
  863.00  2.2798E-004  
  863.50  3.0097E-004  
  864.00  2.0592E-004  
  864.50  1.7807E-004  
  865.00  3.2155E-004  
  865.50  7.4037E-004  
  866.00  1.2673E-003  
  866.50  8.8341E-004  
  867.00  7.0113E-004  
  867.50  5.0081E-004  
  868.00  4.3098E-005  
  868.50  3.7422E-006  
  869.00  6.8225E-004  
  869.50  1.0386E-003  
  870.00  6.9124E-004  
  870.50  8.5611E-004  
  871.00  1.0218E-003  
  871.50  5.3746E-004  
  872.00  8.6836E-006  
  872.50  0.0000E+000  
  873.00  4.8859E-005  
  873.50  0.0000E+000  
  874.00  0.0000E+000  
  874.50  5.4560E-005  
  875.00  0.0000E+000  
  875.50  0.0000E+000  
  876.00  0.0000E+000  
  876.50  3.3015E-005  
  877.00  5.9245E-005  
  877.50  0.0000E+000  
  878.00  0.0000E+000  
  878.50  0.0000E+000  
  879.00  7.0047E-004  
  879.50  8.6031E-004  
  880.00  2.8132E-004  
  880.50  0.0000E+000  
  881.00  0.0000E+000  
  881.50  0.0000E+000  
  882.00  0.0000E+000  
  882.50  3.2552E-004  
  883.00  1.4924E-005  
  883.50  0.0000E+000  
  884.00  0.0000E+000  
  884.50  8.5852E-005  
  885.00  7.3504E-004  
  885.50  7.6150E-004  
  886.00  3.5764E-004  
  886.50  1.2810E-005  
  887.00  7.4768E-004  
  887.50  1.1025E-003  
  888.00  1.0979E-003  
  888.50  1.0000E-003  
  889.00  4.7239E-004  
  889.50  0.0000E+000  
  890.00  7.1930E-005  
  890.50  4.7748E-004  
  891.00  2.3764E-004  
  891.50  1.6639E-004  
  892.00  3.8486E-004  
  892.50  6.1128E-004  
  893.00  6.0522E-004  
  893.50  5.5289E-004  
  894.00  6.2192E-004  
  894.50  1.2461E-003  
  895.00  1.4748E-003  
  895.50  1.5418E-003  
  896.00  1.0496E-003  
  896.50  8.9601E-005  
  897.00  0.0000E+000  
  897.50  0.0000E+000  
  898.00  0.0000E+000  
  898.50  0.0000E+000  
  899.00  5.4229E-004  
  899.50  2.4155E-005  
