
# From lspdd.org
# 
# Name: INC Sylvania A19 Domestique
# Indice spectral Valeur 
# MSI 0.24 
# SLI 0.45 
# IPI 1.01 
# Pourcentage de bleu 9.7 
# Caractéristique Valeur 
# CCT calculée (K) 2400 
# CCT du fabricant (K) 2403 
# Tension (V) 120 
# Puissance (W) 25.0 
# Efficacité lumineuse (Lum/W) 7.6 
#
# Image: '/app/system/img_2s/2493/medium_image2.JPG?1413485931'
# Image: '/app/system/img_1s/2493/medium_image1.JPG?1413485932'
# 

  273.00  0.0000E+000  
  273.50  0.0000E+000  
  274.00  0.0000E+000  
  274.50  0.0000E+000  
  275.00  0.0000E+000  
  275.50  0.0000E+000  
  276.00  0.0000E+000  
  276.50  0.0000E+000  
  277.00  0.0000E+000  
  277.50  0.0000E+000  
  278.00  0.0000E+000  
  278.50  0.0000E+000  
  279.00  0.0000E+000  
  279.50  0.0000E+000  
  280.00  0.0000E+000  
  280.50  0.0000E+000  
  281.00  0.0000E+000  
  281.50  0.0000E+000  
  282.00  0.0000E+000  
  282.50  0.0000E+000  
  283.00  0.0000E+000  
  283.50  0.0000E+000  
  284.00  0.0000E+000  
  284.50  0.0000E+000  
  285.00  0.0000E+000  
  285.50  0.0000E+000  
  286.00  0.0000E+000  
  286.50  0.0000E+000  
  287.00  0.0000E+000  
  287.50  0.0000E+000  
  288.00  0.0000E+000  
  288.50  0.0000E+000  
  289.00  0.0000E+000  
  289.50  0.0000E+000  
  290.00  0.0000E+000  
  290.50  0.0000E+000  
  291.00  0.0000E+000  
  291.50  0.0000E+000  
  292.00  0.0000E+000  
  292.50  0.0000E+000  
  293.00  0.0000E+000  
  293.50  0.0000E+000  
  294.00  0.0000E+000  
  294.50  0.0000E+000  
  295.00  0.0000E+000  
  295.50  0.0000E+000  
  296.00  0.0000E+000  
  296.50  0.0000E+000  
  297.00  0.0000E+000  
  297.50  0.0000E+000  
  298.00  0.0000E+000  
  298.50  0.0000E+000  
  299.00  0.0000E+000  
  299.50  0.0000E+000  
  300.00  0.0000E+000  
  300.50  0.0000E+000  
  301.00  0.0000E+000  
  301.50  0.0000E+000  
  302.00  0.0000E+000  
  302.50  0.0000E+000  
  303.00  0.0000E+000  
  303.50  0.0000E+000  
  304.00  0.0000E+000  
  304.50  0.0000E+000  
  305.00  0.0000E+000  
  305.50  0.0000E+000  
  306.00  0.0000E+000  
  306.50  0.0000E+000  
  307.00  6.4694E-007  
  307.50  4.3294E-005  
  308.00  5.7829E-005  
  308.50  6.2553E-005  
  309.00  1.4283E-004  
  309.50  1.8686E-004  
  310.00  1.7878E-004  
  310.50  1.4729E-004  
  311.00  3.5495E-005  
  311.50  0.0000E+000  
  312.00  0.0000E+000  
  312.50  0.0000E+000  
  313.00  0.0000E+000  
  313.50  3.6345E-006  
  314.00  1.0381E-005  
  314.50  1.8183E-006  
  315.00  1.1135E-005  
  315.50  1.7951E-006  
  316.00  0.0000E+000  
  316.50  0.0000E+000  
  317.00  0.0000E+000  
  317.50  0.0000E+000  
  318.00  0.0000E+000  
  318.50  1.6651E-005  
  319.00  5.3556E-005  
  319.50  3.9476E-005  
  320.00  4.4282E-005  
  320.50  5.6044E-005  
  321.00  8.9935E-005  
  321.50  1.2621E-004  
  322.00  7.3965E-005  
  322.50  5.3606E-005  
  323.00  2.1129E-005  
  323.50  5.6549E-007  
  324.00  2.0218E-005  
  324.50  4.3420E-005  
  325.00  7.0626E-005  
  325.50  1.4892E-004  
  326.00  1.5080E-004  
  326.50  1.2018E-004  
  327.00  8.2070E-005  
  327.50  4.3636E-005  
  328.00  4.9763E-005  
  328.50  3.7961E-005  
  329.00  9.7364E-006  
  329.50  6.6516E-007  
  330.00  0.0000E+000  
  330.50  0.0000E+000  
  331.00  0.0000E+000  
  331.50  5.6685E-006  
  332.00  3.9758E-005  
  332.50  7.3476E-005  
  333.00  8.2446E-005  
  333.50  1.1364E-004  
  334.00  1.1169E-004  
  334.50  6.2192E-005  
  335.00  2.0210E-005  
  335.50  0.0000E+000  
  336.00  0.0000E+000  
  336.50  0.0000E+000  
  337.00  8.7938E-006  
  337.50  2.8672E-005  
  338.00  6.6830E-005  
  338.50  4.8151E-005  
  339.00  4.0870E-005  
  339.50  0.0000E+000  
  340.00  0.0000E+000  
  340.50  0.0000E+000  
  341.00  2.1470E-005  
  341.50  1.1810E-004  
  342.00  1.5978E-004  
  342.50  1.5398E-004  
  343.00  1.2318E-004  
  343.50  8.4738E-005  
  344.00  7.2407E-005  
  344.50  6.2760E-005  
  345.00  7.7895E-005  
  345.50  5.8926E-005  
  346.00  5.8139E-005  
  346.50  6.3187E-005  
  347.00  4.8030E-005  
  347.50  6.6988E-005  
  348.00  6.1114E-005  
  348.50  3.6748E-005  
  349.00  3.3754E-006  
  349.50  4.3569E-005  
  350.00  7.9315E-005  
  350.50  1.2278E-004  
  351.00  1.4740E-004  
  351.50  1.0452E-004  
  352.00  1.1997E-004  
  352.50  1.6678E-004  
  353.00  2.0291E-004  
  353.50  1.6084E-004  
  354.00  1.3626E-004  
  354.50  7.9459E-005  
  355.00  5.6864E-005  
  355.50  1.1267E-004  
  356.00  1.0720E-004  
  356.50  1.3443E-004  
  357.00  1.7500E-004  
  357.50  1.8824E-004  
  358.00  1.9988E-004  
  358.50  1.9275E-004  
  359.00  1.8654E-004  
  359.50  1.4724E-004  
  360.00  1.4334E-004  
  360.50  1.7318E-004  
  361.00  2.0431E-004  
  361.50  2.3457E-004  
  362.00  2.6211E-004  
  362.50  2.2933E-004  
  363.00  2.5443E-004  
  363.50  2.5123E-004  
  364.00  2.9679E-004  
  364.50  3.3323E-004  
  365.00  3.6560E-004  
  365.50  4.0313E-004  
  366.00  3.0870E-004  
  366.50  2.3749E-004  
  367.00  1.7486E-004  
  367.50  1.2747E-004  
  368.00  1.4908E-004  
  368.50  1.6922E-004  
  369.00  1.9691E-004  
  369.50  2.7681E-004  
  370.00  3.2359E-004  
  370.50  3.6023E-004  
  371.00  3.7592E-004  
  371.50  3.1506E-004  
  372.00  2.9366E-004  
  372.50  3.2028E-004  
  373.00  3.7353E-004  
  373.50  4.3610E-004  
  374.00  4.3331E-004  
  374.50  4.3789E-004  
  375.00  4.0821E-004  
  375.50  4.0669E-004  
  376.00  3.8687E-004  
  376.50  3.7816E-004  
  377.00  3.7459E-004  
  377.50  3.5547E-004  
  378.00  3.3841E-004  
  378.50  3.0053E-004  
  379.00  3.0686E-004  
  379.50  3.6905E-004  
  380.00  4.5995E-004  
  380.50  5.0369E-004  
  381.00  5.7421E-004  
  381.50  5.5887E-004  
  382.00  5.3311E-004  
  382.50  5.2095E-004  
  383.00  4.8514E-004  
  383.50  4.9249E-004  
  384.00  5.1233E-004  
  384.50  4.8590E-004  
  385.00  5.1736E-004  
  385.50  5.3515E-004  
  386.00  5.4893E-004  
  386.50  5.7971E-004  
  387.00  5.4972E-004  
  387.50  5.3673E-004  
  388.00  5.5826E-004  
  388.50  6.0123E-004  
  389.00  6.4663E-004  
  389.50  6.6940E-004  
  390.00  6.9248E-004  
  390.50  7.0993E-004  
  391.00  7.1945E-004  
  391.50  7.5954E-004  
  392.00  7.8064E-004  
  392.50  7.8661E-004  
  393.00  7.6136E-004  
  393.50  7.1026E-004  
  394.00  6.6065E-004  
  394.50  6.3266E-004  
  395.00  6.2516E-004  
  395.50  6.2662E-004  
  396.00  6.4844E-004  
  396.50  6.8476E-004  
  397.00  7.1257E-004  
  397.50  7.1920E-004  
  398.00  7.8079E-004  
  398.50  8.1150E-004  
  399.00  8.4354E-004  
  399.50  8.4789E-004  
  400.00  8.0042E-004  
  400.50  7.7343E-004  
  401.00  7.5529E-004  
  401.50  7.5985E-004  
  402.00  7.9949E-004  
  402.50  8.4643E-004  
  403.00  9.0226E-004  
  403.50  9.2388E-004  
  404.00  9.2272E-004  
  404.50  9.4677E-004  
  405.00  9.5322E-004  
  405.50  1.0031E-003  
  406.00  1.0224E-003  
  406.50  9.9108E-004  
  407.00  1.0108E-003  
  407.50  9.8969E-004  
  408.00  9.8233E-004  
  408.50  9.6615E-004  
  409.00  9.3826E-004  
  409.50  9.9927E-004  
  410.00  1.0222E-003  
  410.50  1.0666E-003  
  411.00  1.0989E-003  
  411.50  1.0905E-003  
  412.00  1.1036E-003  
  412.50  1.1201E-003  
  413.00  1.1033E-003  
  413.50  1.0998E-003  
  414.00  1.0976E-003  
  414.50  1.0803E-003  
  415.00  1.1192E-003  
  415.50  1.1913E-003  
  416.00  1.2700E-003  
  416.50  1.2940E-003  
  417.00  1.2782E-003  
  417.50  1.2245E-003  
  418.00  1.1794E-003  
  418.50  1.1630E-003  
  419.00  1.1679E-003  
  419.50  1.2188E-003  
  420.00  1.2930E-003  
  420.50  1.3570E-003  
  421.00  1.3511E-003  
  421.50  1.3203E-003  
  422.00  1.3085E-003  
  422.50  1.3273E-003  
  423.00  1.3594E-003  
  423.50  1.3843E-003  
  424.00  1.3945E-003  
  424.50  1.3914E-003  
  425.00  1.4280E-003  
  425.50  1.4327E-003  
  426.00  1.4564E-003  
  426.50  1.4830E-003  
  427.00  1.4771E-003  
  427.50  1.4612E-003  
  428.00  1.4685E-003  
  428.50  1.4743E-003  
  429.00  1.5361E-003  
  429.50  1.5586E-003  
  430.00  1.5093E-003  
  430.50  1.5207E-003  
  431.00  1.5411E-003  
  431.50  1.6021E-003  
  432.00  1.6441E-003  
  432.50  1.6513E-003  
  433.00  1.6524E-003  
  433.50  1.6587E-003  
  434.00  1.6998E-003  
  434.50  1.7520E-003  
  435.00  1.8120E-003  
  435.50  1.8609E-003  
  436.00  1.8357E-003  
  436.50  1.8315E-003  
  437.00  1.8079E-003  
  437.50  1.8082E-003  
  438.00  1.8598E-003  
  438.50  1.8859E-003  
  439.00  1.9624E-003  
  439.50  1.9880E-003  
  440.00  2.0288E-003  
  440.50  2.0451E-003  
  441.00  2.0549E-003  
  441.50  2.0713E-003  
  442.00  2.0214E-003  
  442.50  1.9914E-003  
  443.00  1.9498E-003  
  443.50  1.9665E-003  
  444.00  2.0119E-003  
  444.50  2.0619E-003  
  445.00  2.1047E-003  
  445.50  2.1081E-003  
  446.00  2.1444E-003  
  446.50  2.1359E-003  
  447.00  2.1602E-003  
  447.50  2.2408E-003  
  448.00  2.3185E-003  
  448.50  2.4009E-003  
  449.00  2.3825E-003  
  449.50  2.3550E-003  
  450.00  2.3470E-003  
  450.50  2.3860E-003  
  451.00  2.3815E-003  
  451.50  2.3584E-003  
  452.00  2.3271E-003  
  452.50  2.3673E-003  
  453.00  2.4100E-003  
  453.50  2.4514E-003  
  454.00  2.4682E-003  
  454.50  2.5193E-003  
  455.00  2.5962E-003  
  455.50  2.6596E-003  
  456.00  2.6998E-003  
  456.50  2.6979E-003  
  457.00  2.6644E-003  
  457.50  2.6741E-003  
  458.00  2.7083E-003  
  458.50  2.7699E-003  
  459.00  2.7932E-003  
  459.50  2.8274E-003  
  460.00  2.8443E-003  
  460.50  2.8672E-003  
  461.00  2.9212E-003  
  461.50  2.9386E-003  
  462.00  2.9499E-003  
  462.50  2.9610E-003  
  463.00  2.9824E-003  
  463.50  3.0121E-003  
  464.00  3.0772E-003  
  464.50  3.0976E-003  
  465.00  3.0832E-003  
  465.50  3.0900E-003  
  466.00  3.0773E-003  
  466.50  3.1050E-003  
  467.00  3.1045E-003  
  467.50  3.1146E-003  
  468.00  3.1666E-003  
  468.50  3.1983E-003  
  469.00  3.2161E-003  
  469.50  3.1983E-003  
  470.00  3.1720E-003  
  470.50  3.1886E-003  
  471.00  3.2115E-003  
  471.50  3.2617E-003  
  472.00  3.3264E-003  
  472.50  3.4056E-003  
  473.00  3.4658E-003  
  473.50  3.5200E-003  
  474.00  3.5683E-003  
  474.50  3.6161E-003  
  475.00  3.6749E-003  
  475.50  3.7073E-003  
  476.00  3.6980E-003  
  476.50  3.7346E-003  
  477.00  3.7535E-003  
  477.50  3.7523E-003  
  478.00  3.7448E-003  
  478.50  3.7461E-003  
  479.00  3.8038E-003  
  479.50  3.8756E-003  
  480.00  3.9249E-003  
  480.50  3.9220E-003  
  481.00  3.9465E-003  
  481.50  3.9617E-003  
  482.00  3.9916E-003  
  482.50  4.0243E-003  
  483.00  4.0244E-003  
  483.50  4.0598E-003  
  484.00  4.1139E-003  
  484.50  4.1597E-003  
  485.00  4.1972E-003  
  485.50  4.1869E-003  
  486.00  4.1895E-003  
  486.50  4.2258E-003  
  487.00  4.2869E-003  
  487.50  4.3514E-003  
  488.00  4.3897E-003  
  488.50  4.4299E-003  
  489.00  4.4804E-003  
  489.50  4.5172E-003  
  490.00  4.5460E-003  
  490.50  4.5707E-003  
  491.00  4.6034E-003  
  491.50  4.6331E-003  
  492.00  4.6407E-003  
  492.50  4.6451E-003  
  493.00  4.6908E-003  
  493.50  4.7265E-003  
  494.00  4.7615E-003  
  494.50  4.7927E-003  
  495.00  4.8274E-003  
  495.50  4.8716E-003  
  496.00  4.9007E-003  
  496.50  4.9186E-003  
  497.00  4.9408E-003  
  497.50  4.9938E-003  
  498.00  5.0575E-003  
  498.50  5.1347E-003  
  499.00  5.2136E-003  
  499.50  5.2449E-003  
  500.00  5.2694E-003  
  500.50  5.2983E-003  
  501.00  5.3443E-003  
  501.50  5.3949E-003  
  502.00  5.4529E-003  
  502.50  5.4896E-003  
  503.00  5.5563E-003  
  503.50  5.6211E-003  
  504.00  5.6858E-003  
  504.50  5.7551E-003  
  505.00  5.7820E-003  
  505.50  5.8150E-003  
  506.00  5.8166E-003  
  506.50  5.8324E-003  
  507.00  5.8952E-003  
  507.50  5.9782E-003  
  508.00  6.0805E-003  
  508.50  6.1282E-003  
  509.00  6.1535E-003  
  509.50  6.1495E-003  
  510.00  6.1937E-003  
  510.50  6.2394E-003  
  511.00  6.2946E-003  
  511.50  6.3479E-003  
  512.00  6.4163E-003  
  512.50  6.5112E-003  
  513.00  6.5937E-003  
  513.50  6.6581E-003  
  514.00  6.6891E-003  
  514.50  6.7382E-003  
  515.00  6.7785E-003  
  515.50  6.8299E-003  
  516.00  6.8761E-003  
  516.50  6.9470E-003  
  517.00  7.0194E-003  
  517.50  7.0458E-003  
  518.00  7.0960E-003  
  518.50  7.1704E-003  
  519.00  7.2552E-003  
  519.50  7.3192E-003  
  520.00  7.3600E-003  
  520.50  7.4238E-003  
  521.00  7.5157E-003  
  521.50  7.5713E-003  
  522.00  7.6124E-003  
  522.50  7.6310E-003  
  523.00  7.6671E-003  
  523.50  7.7175E-003  
  524.00  7.8223E-003  
  524.50  7.9027E-003  
  525.00  7.9569E-003  
  525.50  7.9756E-003  
  526.00  8.0208E-003  
  526.50  8.0999E-003  
  527.00  8.2040E-003  
  527.50  8.2860E-003  
  528.00  8.3734E-003  
  528.50  8.4631E-003  
  529.00  8.5427E-003  
  529.50  8.6212E-003  
  530.00  8.6809E-003  
  530.50  8.7534E-003  
  531.00  8.8128E-003  
  531.50  8.8808E-003  
  532.00  8.9299E-003  
  532.50  8.9623E-003  
  533.00  9.0170E-003  
  533.50  9.0363E-003  
  534.00  9.0781E-003  
  534.50  9.1401E-003  
  535.00  9.2387E-003  
  535.50  9.3560E-003  
  536.00  9.4507E-003  
  536.50  9.5388E-003  
  537.00  9.6113E-003  
  537.50  9.6599E-003  
  538.00  9.7333E-003  
  538.50  9.8155E-003  
  539.00  9.8892E-003  
  539.50  9.9496E-003  
  540.00  9.9923E-003  
  540.50  1.0034E-002  
  541.00  1.0066E-002  
  541.50  1.0075E-002  
  542.00  1.0123E-002  
  542.50  1.0202E-002  
  543.00  1.0310E-002  
  543.50  1.0420E-002  
  544.00  1.0529E-002  
  544.50  1.0606E-002  
  545.00  1.0688E-002  
  545.50  1.0742E-002  
  546.00  1.0847E-002  
  546.50  1.0974E-002  
  547.00  1.1077E-002  
  547.50  1.1145E-002  
  548.00  1.1173E-002  
  548.50  1.1206E-002  
  549.00  1.1265E-002  
  549.50  1.1300E-002  
  550.00  1.1348E-002  
  550.50  1.1428E-002  
  551.00  1.1536E-002  
  551.50  1.1624E-002  
  552.00  1.1690E-002  
  552.50  1.1722E-002  
  553.00  1.1793E-002  
  553.50  1.1858E-002  
  554.00  1.1962E-002  
  554.50  1.2022E-002  
  555.00  1.2090E-002  
  555.50  1.2178E-002  
  556.00  1.2262E-002  
  556.50  1.2358E-002  
  557.00  1.2431E-002  
  557.50  1.2508E-002  
  558.00  1.2586E-002  
  558.50  1.2657E-002  
  559.00  1.2732E-002  
  559.50  1.2844E-002  
  560.00  1.2962E-002  
  560.50  1.3063E-002  
  561.00  1.3111E-002  
  561.50  1.3122E-002  
  562.00  1.3153E-002  
  562.50  1.3215E-002  
  563.00  1.3305E-002  
  563.50  1.3382E-002  
  564.00  1.3467E-002  
  564.50  1.3559E-002  
  565.00  1.3648E-002  
  565.50  1.3712E-002  
  566.00  1.3739E-002  
  566.50  1.3766E-002  
  567.00  1.3799E-002  
  567.50  1.3856E-002  
  568.00  1.3965E-002  
  568.50  1.4080E-002  
  569.00  1.4124E-002  
  569.50  1.4149E-002  
  570.00  1.4184E-002  
  570.50  1.4252E-002  
  571.00  1.4303E-002  
  571.50  1.4339E-002  
  572.00  1.4371E-002  
  572.50  1.4464E-002  
  573.00  1.4586E-002  
  573.50  1.4645E-002  
  574.00  1.4758E-002  
  574.50  1.4829E-002  
  575.00  1.4927E-002  
  575.50  1.4995E-002  
  576.00  1.5070E-002  
  576.50  1.5149E-002  
  577.00  1.5263E-002  
  577.50  1.5297E-002  
  578.00  1.5348E-002  
  578.50  1.5408E-002  
  579.00  1.5446E-002  
  579.50  1.5535E-002  
  580.00  1.5582E-002  
  580.50  1.5716E-002  
  581.00  1.5827E-002  
  581.50  1.5935E-002  
  582.00  1.5920E-002  
  582.50  1.5888E-002  
  583.00  1.5897E-002  
  583.50  1.6046E-002  
  584.00  1.6179E-002  
  584.50  1.6275E-002  
  585.00  1.6279E-002  
  585.50  1.6282E-002  
  586.00  1.6368E-002  
  586.50  1.6441E-002  
  587.00  1.6552E-002  
  587.50  1.6630E-002  
  588.00  1.6696E-002  
  588.50  1.6751E-002  
  589.00  1.6819E-002  
  589.50  1.6946E-002  
  590.00  1.7057E-002  
  590.50  1.7162E-002  
  591.00  1.7134E-002  
  591.50  1.7134E-002  
  592.00  1.7160E-002  
  592.50  1.7266E-002  
  593.00  1.7383E-002  
  593.50  1.7477E-002  
  594.00  1.7532E-002  
  594.50  1.7552E-002  
  595.00  1.7569E-002  
  595.50  1.7625E-002  
  596.00  1.7704E-002  
  596.50  1.7823E-002  
  597.00  1.7929E-002  
  597.50  1.8041E-002  
  598.00  1.8071E-002  
  598.50  1.8051E-002  
  599.00  1.8054E-002  
  599.50  1.8107E-002  
  600.00  1.8178E-002  
  600.50  1.8208E-002  
  601.00  1.8203E-002  
  601.50  1.8249E-002  
  602.00  1.8343E-002  
  602.50  1.8454E-002  
  603.00  1.8512E-002  
  603.50  1.8567E-002  
  604.00  1.8587E-002  
  604.50  1.8643E-002  
  605.00  1.8743E-002  
  605.50  1.8904E-002  
  606.00  1.8973E-002  
  606.50  1.8964E-002  
  607.00  1.8958E-002  
  607.50  1.9051E-002  
  608.00  1.9230E-002  
  608.50  1.9375E-002  
  609.00  1.9505E-002  
  609.50  1.9536E-002  
  610.00  1.9494E-002  
  610.50  1.9435E-002  
  611.00  1.9500E-002  
  611.50  1.9663E-002  
  612.00  1.9782E-002  
  612.50  1.9838E-002  
  613.00  1.9887E-002  
  613.50  1.9891E-002  
  614.00  1.9951E-002  
  614.50  1.9995E-002  
  615.00  2.0044E-002  
  615.50  2.0065E-002  
  616.00  2.0087E-002  
  616.50  2.0118E-002  
  617.00  2.0214E-002  
  617.50  2.0279E-002  
  618.00  2.0386E-002  
  618.50  2.0431E-002  
  619.00  2.0460E-002  
  619.50  2.0472E-002  
  620.00  2.0548E-002  
  620.50  2.0617E-002  
  621.00  2.0721E-002  
  621.50  2.0797E-002  
  622.00  2.0821E-002  
  622.50  2.0831E-002  
  623.00  2.0922E-002  
  623.50  2.1022E-002  
  624.00  2.1123E-002  
  624.50  2.1144E-002  
  625.00  2.1126E-002  
  625.50  2.1112E-002  
  626.00  2.1132E-002  
  626.50  2.1222E-002  
  627.00  2.1341E-002  
  627.50  2.1454E-002  
  628.00  2.1595E-002  
  628.50  2.1622E-002  
  629.00  2.1651E-002  
  629.50  2.1634E-002  
  630.00  2.1665E-002  
  630.50  2.1723E-002  
  631.00  2.1790E-002  
  631.50  2.1895E-002  
  632.00  2.1938E-002  
  632.50  2.1869E-002  
  633.00  2.1838E-002  
  633.50  2.1900E-002  
  634.00  2.2006E-002  
  634.50  2.2156E-002  
  635.00  2.2278E-002  
  635.50  2.2384E-002  
  636.00  2.2464E-002  
  636.50  2.2486E-002  
  637.00  2.2543E-002  
  637.50  2.2563E-002  
  638.00  2.2623E-002  
  638.50  2.2708E-002  
  639.00  2.2770E-002  
  639.50  2.2775E-002  
  640.00  2.2799E-002  
  640.50  2.2847E-002  
  641.00  2.2844E-002  
  641.50  2.2820E-002  
  642.00  2.2825E-002  
  642.50  2.2966E-002  
  643.00  2.3112E-002  
  643.50  2.3235E-002  
  644.00  2.3281E-002  
  644.50  2.3340E-002  
  645.00  2.3462E-002  
  645.50  2.3556E-002  
  646.00  2.3583E-002  
  646.50  2.3501E-002  
  647.00  2.3491E-002  
  647.50  2.3533E-002  
  648.00  2.3656E-002  
  648.50  2.3745E-002  
  649.00  2.3815E-002  
  649.50  2.3894E-002  
  650.00  2.4023E-002  
  650.50  2.4128E-002  
  651.00  2.4132E-002  
  651.50  2.4109E-002  
  652.00  2.4135E-002  
  652.50  2.4233E-002  
  653.00  2.4255E-002  
  653.50  2.4291E-002  
  654.00  2.4322E-002  
  654.50  2.4414E-002  
  655.00  2.4546E-002  
  655.50  2.4641E-002  
  656.00  2.4675E-002  
  656.50  2.4630E-002  
  657.00  2.4582E-002  
  657.50  2.4651E-002  
  658.00  2.4691E-002  
  658.50  2.4774E-002  
  659.00  2.4817E-002  
  659.50  2.4940E-002  
  660.00  2.5001E-002  
  660.50  2.5041E-002  
  661.00  2.5060E-002  
  661.50  2.5131E-002  
  662.00  2.5192E-002  
  662.50  2.5203E-002  
  663.00  2.5230E-002  
  663.50  2.5289E-002  
  664.00  2.5322E-002  
  664.50  2.5404E-002  
  665.00  2.5523E-002  
  665.50  2.5612E-002  
  666.00  2.5674E-002  
  666.50  2.5731E-002  
  667.00  2.5830E-002  
  667.50  2.5845E-002  
  668.00  2.5766E-002  
  668.50  2.5725E-002  
  669.00  2.5689E-002  
  669.50  2.5681E-002  
  670.00  2.5696E-002  
  670.50  2.5736E-002  
  671.00  2.5864E-002  
  671.50  2.5951E-002  
  672.00  2.6015E-002  
  672.50  2.6013E-002  
  673.00  2.6065E-002  
  673.50  2.6228E-002  
  674.00  2.6310E-002  
  674.50  2.6344E-002  
  675.00  2.6412E-002  
  675.50  2.6466E-002  
  676.00  2.6567E-002  
  676.50  2.6582E-002  
  677.00  2.6623E-002  
  677.50  2.6595E-002  
  678.00  2.6504E-002  
  678.50  2.6458E-002  
  679.00  2.6506E-002  
  679.50  2.6621E-002  
  680.00  2.6762E-002  
  680.50  2.6807E-002  
  681.00  2.6862E-002  
  681.50  2.6879E-002  
  682.00  2.6977E-002  
  682.50  2.7043E-002  
  683.00  2.7152E-002  
  683.50  2.7134E-002  
  684.00  2.7149E-002  
  684.50  2.7173E-002  
  685.00  2.7280E-002  
  685.50  2.7364E-002  
  686.00  2.7417E-002  
  686.50  2.7512E-002  
  687.00  2.7629E-002  
  687.50  2.7719E-002  
  688.00  2.7759E-002  
  688.50  2.7788E-002  
  689.00  2.7855E-002  
  689.50  2.7865E-002  
  690.00  2.7951E-002  
  690.50  2.8029E-002  
  691.00  2.8193E-002  
  691.50  2.8302E-002  
  692.00  2.8402E-002  
  692.50  2.8383E-002  
  693.00  2.8387E-002  
  693.50  2.8374E-002  
  694.00  2.8501E-002  
  694.50  2.8644E-002  
  695.00  2.8735E-002  
  695.50  2.8750E-002  
  696.00  2.8768E-002  
  696.50  2.8904E-002  
  697.00  2.9051E-002  
  697.50  2.9129E-002  
  698.00  2.9187E-002  
  698.50  2.9173E-002  
  699.00  2.9172E-002  
  699.50  2.9084E-002  
  700.00  2.9049E-002  
  700.50  2.9084E-002  
  701.00  2.9176E-002  
  701.50  2.9241E-002  
  702.00  2.9341E-002  
  702.50  2.9583E-002  
  703.00  2.9742E-002  
  703.50  2.9710E-002  
  704.00  2.9563E-002  
  704.50  2.9601E-002  
  705.00  2.9800E-002  
  705.50  2.9932E-002  
  706.00  2.9980E-002  
  706.50  2.9966E-002  
  707.00  3.0000E-002  
  707.50  3.0080E-002  
  708.00  3.0211E-002  
  708.50  3.0341E-002  
  709.00  3.0409E-002  
  709.50  3.0406E-002  
  710.00  3.0351E-002  
  710.50  3.0306E-002  
  711.00  3.0353E-002  
  711.50  3.0514E-002  
  712.00  3.0617E-002  
  712.50  3.0690E-002  
  713.00  3.0867E-002  
  713.50  3.1077E-002  
  714.00  3.1225E-002  
  714.50  3.1239E-002  
  715.00  3.1383E-002  
  715.50  3.1443E-002  
  716.00  3.1374E-002  
  716.50  3.1227E-002  
  717.00  3.1209E-002  
  717.50  3.1143E-002  
  718.00  3.1190E-002  
  718.50  3.1172E-002  
  719.00  3.1377E-002  
  719.50  3.1535E-002  
  720.00  3.1693E-002  
  720.50  3.1751E-002  
  721.00  3.1784E-002  
  721.50  3.1989E-002  
  722.00  3.1996E-002  
  722.50  3.2007E-002  
  723.00  3.1986E-002  
  723.50  3.1979E-002  
  724.00  3.1948E-002  
  724.50  3.1917E-002  
  725.00  3.2019E-002  
  725.50  3.2131E-002  
  726.00  3.2400E-002  
  726.50  3.2707E-002  
  727.00  3.2821E-002  
  727.50  3.2755E-002  
  728.00  3.2553E-002  
  728.50  3.2712E-002  
  729.00  3.2966E-002  
  729.50  3.3235E-002  
  730.00  3.3244E-002  
  730.50  3.3247E-002  
  731.00  3.3261E-002  
  731.50  3.3187E-002  
  732.00  3.3215E-002  
  732.50  3.3189E-002  
  733.00  3.3225E-002  
  733.50  3.3259E-002  
  734.00  3.3317E-002  
  734.50  3.3467E-002  
  735.00  3.3647E-002  
  735.50  3.3868E-002  
  736.00  3.3902E-002  
  736.50  3.4012E-002  
  737.00  3.4131E-002  
  737.50  3.4124E-002  
  738.00  3.4064E-002  
  738.50  3.4104E-002  
  739.00  3.4248E-002  
  739.50  3.4261E-002  
  740.00  3.4344E-002  
  740.50  3.4475E-002  
  741.00  3.4629E-002  
  741.50  3.4796E-002  
  742.00  3.4939E-002  
  742.50  3.5010E-002  
  743.00  3.4955E-002  
  743.50  3.4886E-002  
  744.00  3.4821E-002  
  744.50  3.4721E-002  
  745.00  3.4869E-002  
  745.50  3.5062E-002  
  746.00  3.5244E-002  
  746.50  3.5196E-002  
  747.00  3.5181E-002  
  747.50  3.5153E-002  
  748.00  3.5270E-002  
  748.50  3.5425E-002  
  749.00  3.5544E-002  
  749.50  3.5775E-002  
  750.00  3.5885E-002  
  750.50  3.5788E-002  
  751.00  3.5686E-002  
  751.50  3.5649E-002  
  752.00  3.5693E-002  
  752.50  3.5623E-002  
  753.00  3.5704E-002  
  753.50  3.5936E-002  
  754.00  3.6034E-002  
  754.50  3.6059E-002  
  755.00  3.6191E-002  
  755.50  3.6329E-002  
  756.00  3.6375E-002  
  756.50  3.6305E-002  
  757.00  3.6236E-002  
  757.50  3.6049E-002  
  758.00  3.6100E-002  
  758.50  3.6279E-002  
  759.00  3.6512E-002  
  759.50  3.6559E-002  
  760.00  3.6676E-002  
  760.50  3.6614E-002  
  761.00  3.6856E-002  
  761.50  3.6926E-002  
  762.00  3.7001E-002  
  762.50  3.7116E-002  
  763.00  3.7303E-002  
  763.50  3.7248E-002  
  764.00  3.6992E-002  
  764.50  3.7047E-002  
  765.00  3.7165E-002  
  765.50  3.7296E-002  
  766.00  3.7377E-002  
  766.50  3.7772E-002  
  767.00  3.7884E-002  
  767.50  3.7915E-002  
  768.00  3.7888E-002  
  768.50  3.7984E-002  
  769.00  3.8014E-002  
  769.50  3.8046E-002  
  770.00  3.7988E-002  
  770.50  3.8056E-002  
  771.00  3.8134E-002  
  771.50  3.8092E-002  
  772.00  3.7992E-002  
  772.50  3.7942E-002  
  773.00  3.7884E-002  
  773.50  3.8005E-002  
  774.00  3.8050E-002  
  774.50  3.8326E-002  
  775.00  3.8406E-002  
  775.50  3.8493E-002  
  776.00  3.8614E-002  
  776.50  3.8980E-002  
  777.00  3.9239E-002  
  777.50  3.9195E-002  
  778.00  3.8943E-002  
  778.50  3.8761E-002  
  779.00  3.8597E-002  
  779.50  3.8593E-002  
  780.00  3.8926E-002  
  780.50  3.9336E-002  
  781.00  3.9478E-002  
  781.50  3.9563E-002  
  782.00  3.9749E-002  
  782.50  3.9821E-002  
  783.00  3.9795E-002  
  783.50  3.9760E-002  
  784.00  3.9758E-002  
  784.50  3.9830E-002  
  785.00  3.9970E-002  
  785.50  3.9921E-002  
  786.00  3.9732E-002  
  786.50  3.9615E-002  
  787.00  3.9646E-002  
  787.50  3.9707E-002  
  788.00  4.0034E-002  
  788.50  4.0197E-002  
  789.00  4.0297E-002  
  789.50  4.0210E-002  
  790.00  4.0263E-002  
  790.50  4.0041E-002  
  791.00  3.9959E-002  
  791.50  4.0249E-002  
  792.00  4.0773E-002  
  792.50  4.0910E-002  
  793.00  4.0774E-002  
  793.50  4.0724E-002  
  794.00  4.0631E-002  
  794.50  4.0729E-002  
  795.00  4.1070E-002  
  795.50  4.1093E-002  
  796.00  4.0986E-002  
  796.50  4.0984E-002  
  797.00  4.1060E-002  
  797.50  4.1193E-002  
  798.00  4.1354E-002  
  798.50  4.1296E-002  
  799.00  4.1303E-002  
  799.50  4.1691E-002  
  800.00  4.1674E-002  
  800.50  4.1690E-002  
  801.00  4.1692E-002  
  801.50  4.1967E-002  
  802.00  4.2077E-002  
  802.50  4.2301E-002  
  803.00  4.2059E-002  
  803.50  4.1940E-002  
  804.00  4.1744E-002  
  804.50  4.1614E-002  
  805.00  4.1844E-002  
  805.50  4.2187E-002  
  806.00  4.2407E-002  
  806.50  4.2174E-002  
  807.00  4.2052E-002  
  807.50  4.2160E-002  
  808.00  4.2579E-002  
  808.50  4.2927E-002  
  809.00  4.2781E-002  
  809.50  4.2709E-002  
  810.00  4.2805E-002  
  810.50  4.2835E-002  
  811.00  4.2649E-002  
  811.50  4.2783E-002  
  812.00  4.3094E-002  
  812.50  4.3274E-002  
  813.00  4.3046E-002  
  813.50  4.2817E-002  
  814.00  4.2929E-002  
  814.50  4.3143E-002  
  815.00  4.3288E-002  
  815.50  4.3545E-002  
  816.00  4.3850E-002  
  816.50  4.4034E-002  
  817.00  4.3646E-002  
  817.50  4.3273E-002  
  818.00  4.3250E-002  
  818.50  4.3762E-002  
  819.00  4.3908E-002  
  819.50  4.3967E-002  
  820.00  4.3914E-002  
  820.50  4.3916E-002  
  821.00  4.4126E-002  
  821.50  4.4235E-002  
  822.00  4.4391E-002  
  822.50  4.4955E-002  
  823.00  4.5632E-002  
  823.50  4.5436E-002  
  824.00  4.4758E-002  
  824.50  4.4524E-002  
  825.00  4.4595E-002  
  825.50  4.4471E-002  
  826.00  4.4336E-002  
  826.50  4.4131E-002  
  827.00  4.3756E-002  
  827.50  4.3859E-002  
  828.00  4.4448E-002  
  828.50  4.4605E-002  
  829.00  4.4620E-002  
  829.50  4.4803E-002  
  830.00  4.4561E-002  
  830.50  4.4234E-002  
  831.00  4.4223E-002  
  831.50  4.4862E-002  
  832.00  4.5265E-002  
  832.50  4.5467E-002  
  833.00  4.5618E-002  
  833.50  4.4978E-002  
  834.00  4.4968E-002  
  834.50  4.5670E-002  
  835.00  4.6208E-002  
  835.50  4.6182E-002  
  836.00  4.5813E-002  
  836.50  4.5402E-002  
  837.00  4.5250E-002  
  837.50  4.5312E-002  
  838.00  4.5520E-002  
  838.50  4.5939E-002  
  839.00  4.5910E-002  
  839.50  4.5800E-002  
  840.00  4.5840E-002  
  840.50  4.6184E-002  
  841.00  4.5825E-002  
  841.50  4.5638E-002  
  842.00  4.5665E-002  
  842.50  4.5890E-002  
  843.00  4.5819E-002  
  843.50  4.5907E-002  
  844.00  4.5518E-002  
  844.50  4.5796E-002  
  845.00  4.6315E-002  
  845.50  4.6634E-002  
  846.00  4.5950E-002  
  846.50  4.5864E-002  
  847.00  4.6191E-002  
  847.50  4.6602E-002  
  848.00  4.6666E-002  
  848.50  4.6595E-002  
  849.00  4.6545E-002  
  849.50  4.6927E-002  
  850.00  4.7215E-002  
  850.50  4.6749E-002  
  851.00  4.6527E-002  
  851.50  4.6430E-002  
  852.00  4.6309E-002  
  852.50  4.6432E-002  
  853.00  4.6744E-002  
  853.50  4.6543E-002  
  854.00  4.6677E-002  
  854.50  4.7171E-002  
  855.00  4.7628E-002  
  855.50  4.7582E-002  
  856.00  4.7592E-002  
  856.50  4.7370E-002  
  857.00  4.7021E-002  
  857.50  4.6935E-002  
  858.00  4.7150E-002  
  858.50  4.7530E-002  
  859.00  4.7645E-002  
  859.50  4.8011E-002  
  860.00  4.8223E-002  
  860.50  4.8115E-002  
  861.00  4.8179E-002  
  861.50  4.8591E-002  
  862.00  4.8794E-002  
  862.50  4.8852E-002  
  863.00  4.9178E-002  
  863.50  4.9396E-002  
  864.00  4.8732E-002  
  864.50  4.7813E-002  
  865.00  4.7618E-002  
  865.50  4.7171E-002  
  866.00  4.7424E-002  
  866.50  4.7692E-002  
  867.00  4.8151E-002  
  867.50  4.8263E-002  
  868.00  4.8544E-002  
  868.50  4.8761E-002  
  869.00  4.8952E-002  
  869.50  4.9489E-002  
  870.00  4.9753E-002  
  870.50  4.9052E-002  
  871.00  4.8551E-002  
  871.50  4.9133E-002  
  872.00  4.9639E-002  
  872.50  4.9164E-002  
  873.00  4.9171E-002  
  873.50  4.9162E-002  
  874.00  4.8517E-002  
  874.50  4.7963E-002  
  875.00  4.8703E-002  
  875.50  4.9715E-002  
  876.00  4.9753E-002  
  876.50  4.9065E-002  
  877.00  4.9128E-002  
  877.50  4.9725E-002  
  878.00  5.0469E-002  
  878.50  5.0079E-002  
  879.00  4.9773E-002  
  879.50  4.9584E-002  
  880.00  4.9368E-002  
  880.50  4.9757E-002  
  881.00  5.0140E-002  
  881.50  5.0031E-002  
  882.00  4.9938E-002  
  882.50  4.9672E-002  
  883.00  4.9434E-002  
  883.50  5.0385E-002  
  884.00  5.1138E-002  
  884.50  5.1467E-002  
  885.00  5.1548E-002  
  885.50  5.1096E-002  
  886.00  5.0893E-002  
  886.50  5.1178E-002  
  887.00  5.1670E-002  
  887.50  5.2088E-002  
  888.00  5.1818E-002  
  888.50  5.0954E-002  
  889.00  5.0524E-002  
  889.50  5.1065E-002  
  890.00  5.1261E-002  
  890.50  5.0776E-002  
  891.00  5.0628E-002  
  891.50  5.1005E-002  
  892.00  5.1895E-002  
  892.50  5.1489E-002  
  893.00  5.0681E-002  
  893.50  5.0019E-002  
  894.00  4.9681E-002  
  894.50  5.1158E-002  
  895.00  5.1142E-002  
  895.50  4.9813E-002  
  896.00  4.9436E-002  
  896.50  5.0481E-002  
  897.00  4.9855E-002  
  897.50  4.9668E-002  
  898.00  5.1279E-002  
  898.50  5.2422E-002  
  899.00  5.2184E-002  
  899.50  1.0161E-003  
