
# From lspdd.org
# 
# Name: Halo Globe Vanity Domestique
# Indice spectral Valeur 
# MSI 0.33 
# SLI 0.54 
# IPI 0.91 
# Pourcentage de bleu 14.8 
# Caractéristique Valeur 
# CCT calculée (K) 2835 
# CCT du fabricant (K) 3000 
# Tension (V) 120 
# Puissance (W) 43.0 
# Efficacité lumineuse (Lum/W) 14.0 
#
# Image: '/app/system/img_2s/2494/medium_image2.JPG?1413485935'
# Image: '/app/system/img_1s/2494/medium_image1.JPG?1413485935'
# 

  273.00  0.0000E+000  
  273.50  0.0000E+000  
  274.00  0.0000E+000  
  274.50  0.0000E+000  
  275.00  0.0000E+000  
  275.50  0.0000E+000  
  276.00  0.0000E+000  
  276.50  0.0000E+000  
  277.00  0.0000E+000  
  277.50  0.0000E+000  
  278.00  0.0000E+000  
  278.50  0.0000E+000  
  279.00  0.0000E+000  
  279.50  0.0000E+000  
  280.00  0.0000E+000  
  280.50  0.0000E+000  
  281.00  0.0000E+000  
  281.50  0.0000E+000  
  282.00  0.0000E+000  
  282.50  0.0000E+000  
  283.00  0.0000E+000  
  283.50  0.0000E+000  
  284.00  0.0000E+000  
  284.50  0.0000E+000  
  285.00  0.0000E+000  
  285.50  0.0000E+000  
  286.00  0.0000E+000  
  286.50  0.0000E+000  
  287.00  0.0000E+000  
  287.50  0.0000E+000  
  288.00  0.0000E+000  
  288.50  0.0000E+000  
  289.00  0.0000E+000  
  289.50  0.0000E+000  
  290.00  0.0000E+000  
  290.50  0.0000E+000  
  291.00  0.0000E+000  
  291.50  0.0000E+000  
  292.00  0.0000E+000  
  292.50  0.0000E+000  
  293.00  0.0000E+000  
  293.50  0.0000E+000  
  294.00  0.0000E+000  
  294.50  0.0000E+000  
  295.00  0.0000E+000  
  295.50  0.0000E+000  
  296.00  0.0000E+000  
  296.50  0.0000E+000  
  297.00  0.0000E+000  
  297.50  0.0000E+000  
  298.00  0.0000E+000  
  298.50  0.0000E+000  
  299.00  0.0000E+000  
  299.50  0.0000E+000  
  300.00  0.0000E+000  
  300.50  0.0000E+000  
  301.00  0.0000E+000  
  301.50  0.0000E+000  
  302.00  0.0000E+000  
  302.50  0.0000E+000  
  303.00  0.0000E+000  
  303.50  0.0000E+000  
  304.00  0.0000E+000  
  304.50  0.0000E+000  
  305.00  4.4990E-006  
  305.50  3.1167E-005  
  306.00  3.3182E-005  
  306.50  3.1244E-006  
  307.00  1.9994E-006  
  307.50  1.1289E-005  
  308.00  1.8778E-006  
  308.50  0.0000E+000  
  309.00  0.0000E+000  
  309.50  0.0000E+000  
  310.00  1.6308E-005  
  310.50  1.7000E-005  
  311.00  0.0000E+000  
  311.50  0.0000E+000  
  312.00  0.0000E+000  
  312.50  0.0000E+000  
  313.00  0.0000E+000  
  313.50  0.0000E+000  
  314.00  0.0000E+000  
  314.50  0.0000E+000  
  315.00  0.0000E+000  
  315.50  0.0000E+000  
  316.00  3.4681E-006  
  316.50  4.2406E-005  
  317.00  8.3750E-005  
  317.50  7.8008E-005  
  318.00  3.3555E-005  
  318.50  2.7219E-005  
  319.00  1.2815E-005  
  319.50  3.2522E-005  
  320.00  9.0275E-005  
  320.50  6.1082E-005  
  321.00  7.9494E-005  
  321.50  8.5340E-005  
  322.00  2.3149E-005  
  322.50  2.6546E-005  
  323.00  4.6030E-005  
  323.50  7.1663E-005  
  324.00  1.2174E-004  
  324.50  1.5675E-004  
  325.00  1.7382E-004  
  325.50  2.1360E-004  
  326.00  2.0269E-004  
  326.50  1.7181E-004  
  327.00  1.1981E-004  
  327.50  9.5490E-005  
  328.00  1.3940E-004  
  328.50  1.6034E-004  
  329.00  1.6606E-004  
  329.50  1.3285E-004  
  330.00  8.4857E-005  
  330.50  1.0424E-004  
  331.00  1.6130E-004  
  331.50  2.2369E-004  
  332.00  2.8017E-004  
  332.50  2.7959E-004  
  333.00  3.0044E-004  
  333.50  3.4341E-004  
  334.00  3.3686E-004  
  334.50  3.1167E-004  
  335.00  2.5655E-004  
  335.50  2.4803E-004  
  336.00  2.7356E-004  
  336.50  3.1871E-004  
  337.00  3.4088E-004  
  337.50  2.8866E-004  
  338.00  2.8805E-004  
  338.50  3.0102E-004  
  339.00  3.2804E-004  
  339.50  3.4550E-004  
  340.00  3.9225E-004  
  340.50  4.3347E-004  
  341.00  5.1197E-004  
  341.50  5.9132E-004  
  342.00  6.0196E-004  
  342.50  5.5995E-004  
  343.00  5.2411E-004  
  343.50  4.7807E-004  
  344.00  4.5148E-004  
  344.50  4.6473E-004  
  345.00  4.6157E-004  
  345.50  4.8321E-004  
  346.00  4.7723E-004  
  346.50  4.8540E-004  
  347.00  5.6057E-004  
  347.50  6.6000E-004  
  348.00  7.6196E-004  
  348.50  7.9293E-004  
  349.00  8.2154E-004  
  349.50  8.0308E-004  
  350.00  8.0288E-004  
  350.50  8.0307E-004  
  351.00  8.4149E-004  
  351.50  9.0714E-004  
  352.00  9.7026E-004  
  352.50  9.6335E-004  
  353.00  9.3580E-004  
  353.50  9.3611E-004  
  354.00  9.0266E-004  
  354.50  9.2676E-004  
  355.00  9.8409E-004  
  355.50  1.0279E-003  
  356.00  1.1383E-003  
  356.50  1.1972E-003  
  357.00  1.1864E-003  
  357.50  1.1750E-003  
  358.00  1.1307E-003  
  358.50  1.1231E-003  
  359.00  1.1381E-003  
  359.50  1.1833E-003  
  360.00  1.2480E-003  
  360.50  1.3136E-003  
  361.00  1.3163E-003  
  361.50  1.3294E-003  
  362.00  1.3283E-003  
  362.50  1.3498E-003  
  363.00  1.3654E-003  
  363.50  1.3915E-003  
  364.00  1.4478E-003  
  364.50  1.4788E-003  
  365.00  1.5031E-003  
  365.50  1.4916E-003  
  366.00  1.4647E-003  
  366.50  1.4951E-003  
  367.00  1.5320E-003  
  367.50  1.5348E-003  
  368.00  1.5566E-003  
  368.50  1.5741E-003  
  369.00  1.6196E-003  
  369.50  1.6553E-003  
  370.00  1.6465E-003  
  370.50  1.6187E-003  
  371.00  1.6453E-003  
  371.50  1.6880E-003  
  372.00  1.7270E-003  
  372.50  1.7223E-003  
  373.00  1.6943E-003  
  373.50  1.6959E-003  
  374.00  1.6972E-003  
  374.50  1.7658E-003  
  375.00  1.8401E-003  
  375.50  1.8628E-003  
  376.00  1.9192E-003  
  376.50  1.9031E-003  
  377.00  1.8887E-003  
  377.50  1.9129E-003  
  378.00  1.8881E-003  
  378.50  1.9202E-003  
  379.00  1.9271E-003  
  379.50  1.9742E-003  
  380.00  2.0590E-003  
  380.50  2.1372E-003  
  381.00  2.2340E-003  
  381.50  2.3116E-003  
  382.00  2.3479E-003  
  382.50  2.3317E-003  
  383.00  2.3208E-003  
  383.50  2.3071E-003  
  384.00  2.2938E-003  
  384.50  2.3619E-003  
  385.00  2.4163E-003  
  385.50  2.4356E-003  
  386.00  2.4528E-003  
  386.50  2.3941E-003  
  387.00  2.4434E-003  
  387.50  2.5558E-003  
  388.00  2.6340E-003  
  388.50  2.6797E-003  
  389.00  2.6694E-003  
  389.50  2.6846E-003  
  390.00  2.7363E-003  
  390.50  2.8103E-003  
  391.00  2.8055E-003  
  391.50  2.7712E-003  
  392.00  2.7476E-003  
  392.50  2.8077E-003  
  393.00  2.9016E-003  
  393.50  3.0003E-003  
  394.00  3.0707E-003  
  394.50  3.0377E-003  
  395.00  3.0620E-003  
  395.50  3.0408E-003  
  396.00  3.0255E-003  
  396.50  3.0188E-003  
  397.00  3.0274E-003  
  397.50  3.0655E-003  
  398.00  3.1009E-003  
  398.50  3.1214E-003  
  399.00  3.1395E-003  
  399.50  3.1668E-003  
  400.00  3.1141E-003  
  400.50  3.1169E-003  
  401.00  3.1285E-003  
  401.50  3.2382E-003  
  402.00  3.3512E-003  
  402.50  3.4174E-003  
  403.00  3.4887E-003  
  403.50  3.5327E-003  
  404.00  3.5959E-003  
  404.50  3.6338E-003  
  405.00  3.6403E-003  
  405.50  3.6633E-003  
  406.00  3.6716E-003  
  406.50  3.6979E-003  
  407.00  3.7380E-003  
  407.50  3.7382E-003  
  408.00  3.8025E-003  
  408.50  3.8537E-003  
  409.00  3.9152E-003  
  409.50  4.0149E-003  
  410.00  4.0458E-003  
  410.50  4.0717E-003  
  411.00  4.0902E-003  
  411.50  4.1254E-003  
  412.00  4.2181E-003  
  412.50  4.2891E-003  
  413.00  4.3388E-003  
  413.50  4.3641E-003  
  414.00  4.3314E-003  
  414.50  4.3219E-003  
  415.00  4.3088E-003  
  415.50  4.3225E-003  
  416.00  4.3544E-003  
  416.50  4.4025E-003  
  417.00  4.4384E-003  
  417.50  4.4753E-003  
  418.00  4.5136E-003  
  418.50  4.5436E-003  
  419.00  4.6029E-003  
  419.50  4.6653E-003  
  420.00  4.7189E-003  
  420.50  4.7387E-003  
  421.00  4.7559E-003  
  421.50  4.8180E-003  
  422.00  4.8891E-003  
  422.50  4.9585E-003  
  423.00  4.9964E-003  
  423.50  4.9982E-003  
  424.00  5.0389E-003  
  424.50  5.0679E-003  
  425.00  5.1355E-003  
  425.50  5.2025E-003  
  426.00  5.2297E-003  
  426.50  5.2652E-003  
  427.00  5.3044E-003  
  427.50  5.3473E-003  
  428.00  5.4814E-003  
  428.50  5.5338E-003  
  429.00  5.5807E-003  
  429.50  5.6590E-003  
  430.00  5.6633E-003  
  430.50  5.7022E-003  
  431.00  5.6539E-003  
  431.50  5.5867E-003  
  432.00  5.6889E-003  
  432.50  5.8204E-003  
  433.00  5.9279E-003  
  433.50  5.9798E-003  
  434.00  5.9367E-003  
  434.50  5.9159E-003  
  435.00  5.9325E-003  
  435.50  5.9349E-003  
  436.00  5.9947E-003  
  436.50  6.0566E-003  
  437.00  6.1971E-003  
  437.50  6.3174E-003  
  438.00  6.3941E-003  
  438.50  6.4886E-003  
  439.00  6.5273E-003  
  439.50  6.5649E-003  
  440.00  6.5760E-003  
  440.50  6.6167E-003  
  441.00  6.6374E-003  
  441.50  6.6772E-003  
  442.00  6.7318E-003  
  442.50  6.7494E-003  
  443.00  6.8107E-003  
  443.50  6.8456E-003  
  444.00  6.9270E-003  
  444.50  7.0209E-003  
  445.00  7.0879E-003  
  445.50  7.1600E-003  
  446.00  7.1629E-003  
  446.50  7.1395E-003  
  447.00  7.0738E-003  
  447.50  7.0765E-003  
  448.00  7.1464E-003  
  448.50  7.3081E-003  
  449.00  7.4075E-003  
  449.50  7.5114E-003  
  450.00  7.5899E-003  
  450.50  7.6136E-003  
  451.00  7.6362E-003  
  451.50  7.6151E-003  
  452.00  7.5936E-003  
  452.50  7.6567E-003  
  453.00  7.7050E-003  
  453.50  7.7809E-003  
  454.00  7.8524E-003  
  454.50  7.9463E-003  
  455.00  7.9888E-003  
  455.50  8.0787E-003  
  456.00  8.1436E-003  
  456.50  8.1979E-003  
  457.00  8.2903E-003  
  457.50  8.3559E-003  
  458.00  8.4674E-003  
  458.50  8.5108E-003  
  459.00  8.4974E-003  
  459.50  8.4434E-003  
  460.00  8.4338E-003  
  460.50  8.5248E-003  
  461.00  8.6515E-003  
  461.50  8.7608E-003  
  462.00  8.8055E-003  
  462.50  8.8470E-003  
  463.00  8.9160E-003  
  463.50  8.9827E-003  
  464.00  9.0410E-003  
  464.50  9.0910E-003  
  465.00  9.1980E-003  
  465.50  9.2683E-003  
  466.00  9.2884E-003  
  466.50  9.2923E-003  
  467.00  9.3054E-003  
  467.50  9.3860E-003  
  468.00  9.4850E-003  
  468.50  9.5492E-003  
  469.00  9.6027E-003  
  469.50  9.6492E-003  
  470.00  9.6616E-003  
  470.50  9.7181E-003  
  471.00  9.7645E-003  
  471.50  9.8644E-003  
  472.00  9.9538E-003  
  472.50  1.0045E-002  
  473.00  1.0134E-002  
  473.50  1.0195E-002  
  474.00  1.0213E-002  
  474.50  1.0217E-002  
  475.00  1.0235E-002  
  475.50  1.0351E-002  
  476.00  1.0498E-002  
  476.50  1.0643E-002  
  477.00  1.0724E-002  
  477.50  1.0770E-002  
  478.00  1.0758E-002  
  478.50  1.0797E-002  
  479.00  1.0859E-002  
  479.50  1.0932E-002  
  480.00  1.1013E-002  
  480.50  1.1050E-002  
  481.00  1.1098E-002  
  481.50  1.1152E-002  
  482.00  1.1238E-002  
  482.50  1.1305E-002  
  483.00  1.1341E-002  
  483.50  1.1427E-002  
  484.00  1.1461E-002  
  484.50  1.1505E-002  
  485.00  1.1547E-002  
  485.50  1.1602E-002  
  486.00  1.1709E-002  
  486.50  1.1785E-002  
  487.00  1.1810E-002  
  487.50  1.1845E-002  
  488.00  1.1882E-002  
  488.50  1.1967E-002  
  489.00  1.2082E-002  
  489.50  1.2197E-002  
  490.00  1.2278E-002  
  490.50  1.2333E-002  
  491.00  1.2391E-002  
  491.50  1.2466E-002  
  492.00  1.2563E-002  
  492.50  1.2662E-002  
  493.00  1.2733E-002  
  493.50  1.2793E-002  
  494.00  1.2843E-002  
  494.50  1.2892E-002  
  495.00  1.2923E-002  
  495.50  1.2976E-002  
  496.00  1.3015E-002  
  496.50  1.3142E-002  
  497.00  1.3258E-002  
  497.50  1.3393E-002  
  498.00  1.3519E-002  
  498.50  1.3566E-002  
  499.00  1.3631E-002  
  499.50  1.3646E-002  
  500.00  1.3716E-002  
  500.50  1.3785E-002  
  501.00  1.3876E-002  
  501.50  1.3988E-002  
  502.00  1.4098E-002  
  502.50  1.4216E-002  
  503.00  1.4312E-002  
  503.50  1.4435E-002  
  504.00  1.4553E-002  
  504.50  1.4663E-002  
  505.00  1.4761E-002  
  505.50  1.4844E-002  
  506.00  1.4908E-002  
  506.50  1.4975E-002  
  507.00  1.5037E-002  
  507.50  1.5114E-002  
  508.00  1.5215E-002  
  508.50  1.5358E-002  
  509.00  1.5508E-002  
  509.50  1.5662E-002  
  510.00  1.5759E-002  
  510.50  1.5818E-002  
  511.00  1.5924E-002  
  511.50  1.6015E-002  
  512.00  1.6138E-002  
  512.50  1.6277E-002  
  513.00  1.6408E-002  
  513.50  1.6528E-002  
  514.00  1.6591E-002  
  514.50  1.6632E-002  
  515.00  1.6682E-002  
  515.50  1.6766E-002  
  516.00  1.6883E-002  
  516.50  1.7055E-002  
  517.00  1.7253E-002  
  517.50  1.7459E-002  
  518.00  1.7581E-002  
  518.50  1.7659E-002  
  519.00  1.7689E-002  
  519.50  1.7735E-002  
  520.00  1.7862E-002  
  520.50  1.7995E-002  
  521.00  1.8117E-002  
  521.50  1.8261E-002  
  522.00  1.8377E-002  
  522.50  1.8525E-002  
  523.00  1.8668E-002  
  523.50  1.8769E-002  
  524.00  1.8904E-002  
  524.50  1.8976E-002  
  525.00  1.9076E-002  
  525.50  1.9157E-002  
  526.00  1.9272E-002  
  526.50  1.9386E-002  
  527.00  1.9478E-002  
  527.50  1.9658E-002  
  528.00  1.9833E-002  
  528.50  1.9991E-002  
  529.00  2.0102E-002  
  529.50  2.0185E-002  
  530.00  2.0332E-002  
  530.50  2.0456E-002  
  531.00  2.0575E-002  
  531.50  2.0651E-002  
  532.00  2.0713E-002  
  532.50  2.0815E-002  
  533.00  2.0916E-002  
  533.50  2.1041E-002  
  534.00  2.1144E-002  
  534.50  2.1256E-002  
  535.00  2.1409E-002  
  535.50  2.1580E-002  
  536.00  2.1779E-002  
  536.50  2.1872E-002  
  537.00  2.1976E-002  
  537.50  2.2052E-002  
  538.00  2.2158E-002  
  538.50  2.2275E-002  
  539.00  2.2407E-002  
  539.50  2.2529E-002  
  540.00  2.2662E-002  
  540.50  2.2806E-002  
  541.00  2.2964E-002  
  541.50  2.3145E-002  
  542.00  2.3273E-002  
  542.50  2.3356E-002  
  543.00  2.3474E-002  
  543.50  2.3613E-002  
  544.00  2.3747E-002  
  544.50  2.3835E-002  
  545.00  2.3866E-002  
  545.50  2.3919E-002  
  546.00  2.4050E-002  
  546.50  2.4195E-002  
  547.00  2.4384E-002  
  547.50  2.4543E-002  
  548.00  2.4699E-002  
  548.50  2.4785E-002  
  549.00  2.4809E-002  
  549.50  2.4803E-002  
  550.00  2.4893E-002  
  550.50  2.5070E-002  
  551.00  2.5267E-002  
  551.50  2.5411E-002  
  552.00  2.5479E-002  
  552.50  2.5605E-002  
  553.00  2.5767E-002  
  553.50  2.5930E-002  
  554.00  2.5993E-002  
  554.50  2.6041E-002  
  555.00  2.6095E-002  
  555.50  2.6216E-002  
  556.00  2.6375E-002  
  556.50  2.6504E-002  
  557.00  2.6643E-002  
  557.50  2.6739E-002  
  558.00  2.6833E-002  
  558.50  2.6960E-002  
  559.00  2.7129E-002  
  559.50  2.7320E-002  
  560.00  2.7428E-002  
  560.50  2.7479E-002  
  561.00  2.7569E-002  
  561.50  2.7688E-002  
  562.00  2.7834E-002  
  562.50  2.7959E-002  
  563.00  2.8048E-002  
  563.50  2.8161E-002  
  564.00  2.8255E-002  
  564.50  2.8315E-002  
  565.00  2.8438E-002  
  565.50  2.8558E-002  
  566.00  2.8674E-002  
  566.50  2.8705E-002  
  567.00  2.8695E-002  
  567.50  2.8760E-002  
  568.00  2.8916E-002  
  568.50  2.9063E-002  
  569.00  2.9153E-002  
  569.50  2.9185E-002  
  570.00  2.9277E-002  
  570.50  2.9366E-002  
  571.00  2.9463E-002  
  571.50  2.9568E-002  
  572.00  2.9732E-002  
  572.50  2.9854E-002  
  573.00  2.9950E-002  
  573.50  2.9986E-002  
  574.00  3.0057E-002  
  574.50  3.0109E-002  
  575.00  3.0180E-002  
  575.50  3.0342E-002  
  576.00  3.0484E-002  
  576.50  3.0679E-002  
  577.00  3.0802E-002  
  577.50  3.0911E-002  
  578.00  3.0923E-002  
  578.50  3.0994E-002  
  579.00  3.1032E-002  
  579.50  3.1083E-002  
  580.00  3.1155E-002  
  580.50  3.1279E-002  
  581.00  3.1459E-002  
  581.50  3.1568E-002  
  582.00  3.1561E-002  
  582.50  3.1621E-002  
  583.00  3.1655E-002  
  583.50  3.1770E-002  
  584.00  3.1854E-002  
  584.50  3.1997E-002  
  585.00  3.2116E-002  
  585.50  3.2204E-002  
  586.00  3.2282E-002  
  586.50  3.2372E-002  
  587.00  3.2469E-002  
  587.50  3.2491E-002  
  588.00  3.2517E-002  
  588.50  3.2528E-002  
  589.00  3.2686E-002  
  589.50  3.2866E-002  
  590.00  3.3034E-002  
  590.50  3.3123E-002  
  591.00  3.3174E-002  
  591.50  3.3316E-002  
  592.00  3.3410E-002  
  592.50  3.3527E-002  
  593.00  3.3540E-002  
  593.50  3.3557E-002  
  594.00  3.3602E-002  
  594.50  3.3695E-002  
  595.00  3.3810E-002  
  595.50  3.3893E-002  
  596.00  3.3965E-002  
  596.50  3.3993E-002  
  597.00  3.4028E-002  
  597.50  3.3999E-002  
  598.00  3.4089E-002  
  598.50  3.4173E-002  
  599.00  3.4303E-002  
  599.50  3.4362E-002  
  600.00  3.4424E-002  
  600.50  3.4442E-002  
  601.00  3.4481E-002  
  601.50  3.4602E-002  
  602.00  3.4735E-002  
  602.50  3.4824E-002  
  603.00  3.4802E-002  
  603.50  3.4880E-002  
  604.00  3.5016E-002  
  604.50  3.5154E-002  
  605.00  3.5274E-002  
  605.50  3.5351E-002  
  606.00  3.5391E-002  
  606.50  3.5368E-002  
  607.00  3.5355E-002  
  607.50  3.5378E-002  
  608.00  3.5421E-002  
  608.50  3.5469E-002  
  609.00  3.5588E-002  
  609.50  3.5772E-002  
  610.00  3.5840E-002  
  610.50  3.5847E-002  
  611.00  3.5847E-002  
  611.50  3.5934E-002  
  612.00  3.6026E-002  
  612.50  3.6073E-002  
  613.00  3.6016E-002  
  613.50  3.5959E-002  
  614.00  3.5961E-002  
  614.50  3.6162E-002  
  615.00  3.6369E-002  
  615.50  3.6505E-002  
  616.00  3.6512E-002  
  616.50  3.6566E-002  
  617.00  3.6578E-002  
  617.50  3.6568E-002  
  618.00  3.6541E-002  
  618.50  3.6589E-002  
  619.00  3.6639E-002  
  619.50  3.6706E-002  
  620.00  3.6766E-002  
  620.50  3.6876E-002  
  621.00  3.6973E-002  
  621.50  3.7023E-002  
  622.00  3.7058E-002  
  622.50  3.7103E-002  
  623.00  3.7151E-002  
  623.50  3.7149E-002  
  624.00  3.7187E-002  
  624.50  3.7245E-002  
  625.00  3.7405E-002  
  625.50  3.7480E-002  
  626.00  3.7441E-002  
  626.50  3.7423E-002  
  627.00  3.7448E-002  
  627.50  3.7494E-002  
  628.00  3.7513E-002  
  628.50  3.7477E-002  
  629.00  3.7527E-002  
  629.50  3.7590E-002  
  630.00  3.7685E-002  
  630.50  3.7803E-002  
  631.00  3.7927E-002  
  631.50  3.8085E-002  
  632.00  3.8248E-002  
  632.50  3.8273E-002  
  633.00  3.8227E-002  
  633.50  3.8261E-002  
  634.00  3.8346E-002  
  634.50  3.8386E-002  
  635.00  3.8332E-002  
  635.50  3.8233E-002  
  636.00  3.8299E-002  
  636.50  3.8351E-002  
  637.00  3.8450E-002  
  637.50  3.8522E-002  
  638.00  3.8618E-002  
  638.50  3.8721E-002  
  639.00  3.8807E-002  
  639.50  3.8706E-002  
  640.00  3.8647E-002  
  640.50  3.8640E-002  
  641.00  3.8777E-002  
  641.50  3.8980E-002  
  642.00  3.9066E-002  
  642.50  3.9114E-002  
  643.00  3.9116E-002  
  643.50  3.9181E-002  
  644.00  3.9229E-002  
  644.50  3.9271E-002  
  645.00  3.9292E-002  
  645.50  3.9376E-002  
  646.00  3.9498E-002  
  646.50  3.9542E-002  
  647.00  3.9592E-002  
  647.50  3.9560E-002  
  648.00  3.9607E-002  
  648.50  3.9646E-002  
  649.00  3.9678E-002  
  649.50  3.9592E-002  
  650.00  3.9599E-002  
  650.50  3.9702E-002  
  651.00  3.9854E-002  
  651.50  3.9807E-002  
  652.00  3.9713E-002  
  652.50  3.9763E-002  
  653.00  3.9877E-002  
  653.50  3.9977E-002  
  654.00  4.0019E-002  
  654.50  4.0020E-002  
  655.00  4.0129E-002  
  655.50  4.0284E-002  
  656.00  4.0504E-002  
  656.50  4.0581E-002  
  657.00  4.0517E-002  
  657.50  4.0520E-002  
  658.00  4.0518E-002  
  658.50  4.0615E-002  
  659.00  4.0694E-002  
  659.50  4.0770E-002  
  660.00  4.0708E-002  
  660.50  4.0665E-002  
  661.00  4.0641E-002  
  661.50  4.0771E-002  
  662.00  4.0806E-002  
  662.50  4.0795E-002  
  663.00  4.0762E-002  
  663.50  4.0769E-002  
  664.00  4.0813E-002  
  664.50  4.0819E-002  
  665.00  4.0798E-002  
  665.50  4.0862E-002  
  666.00  4.0978E-002  
  666.50  4.1111E-002  
  667.00  4.1195E-002  
  667.50  4.1205E-002  
  668.00  4.1202E-002  
  668.50  4.1201E-002  
  669.00  4.1231E-002  
  669.50  4.1173E-002  
  670.00  4.1074E-002  
  670.50  4.1050E-002  
  671.00  4.1147E-002  
  671.50  4.1170E-002  
  672.00  4.1207E-002  
  672.50  4.1313E-002  
  673.00  4.1494E-002  
  673.50  4.1628E-002  
  674.00  4.1587E-002  
  674.50  4.1554E-002  
  675.00  4.1517E-002  
  675.50  4.1497E-002  
  676.00  4.1438E-002  
  676.50  4.1503E-002  
  677.00  4.1536E-002  
  677.50  4.1505E-002  
  678.00  4.1448E-002  
  678.50  4.1563E-002  
  679.00  4.1724E-002  
  679.50  4.1790E-002  
  680.00  4.1812E-002  
  680.50  4.1811E-002  
  681.00  4.1806E-002  
  681.50  4.1813E-002  
  682.00  4.2081E-002  
  682.50  4.2220E-002  
  683.00  4.2259E-002  
  683.50  4.2129E-002  
  684.00  4.2152E-002  
  684.50  4.2155E-002  
  685.00  4.2193E-002  
  685.50  4.2282E-002  
  686.00  4.2417E-002  
  686.50  4.2449E-002  
  687.00  4.2435E-002  
  687.50  4.2537E-002  
  688.00  4.2665E-002  
  688.50  4.2608E-002  
  689.00  4.2460E-002  
  689.50  4.2419E-002  
  690.00  4.2657E-002  
  690.50  4.2732E-002  
  691.00  4.2684E-002  
  691.50  4.2686E-002  
  692.00  4.2883E-002  
  692.50  4.3001E-002  
  693.00  4.3095E-002  
  693.50  4.3130E-002  
  694.00  4.3187E-002  
  694.50  4.3132E-002  
  695.00  4.3149E-002  
  695.50  4.3223E-002  
  696.00  4.3406E-002  
  696.50  4.3444E-002  
  697.00  4.3376E-002  
  697.50  4.3320E-002  
  698.00  4.3378E-002  
  698.50  4.3480E-002  
  699.00  4.3437E-002  
  699.50  4.3506E-002  
  700.00  4.3567E-002  
  700.50  4.3696E-002  
  701.00  4.3742E-002  
  701.50  4.3785E-002  
  702.00  4.3798E-002  
  702.50  4.3924E-002  
  703.00  4.4044E-002  
  703.50  4.4066E-002  
  704.00  4.4018E-002  
  704.50  4.3954E-002  
  705.00  4.3972E-002  
  705.50  4.4083E-002  
  706.00  4.4328E-002  
  706.50  4.4550E-002  
  707.00  4.4595E-002  
  707.50  4.4765E-002  
  708.00  4.4872E-002  
  708.50  4.4966E-002  
  709.00  4.4941E-002  
  709.50  4.4921E-002  
  710.00  4.4853E-002  
  710.50  4.4716E-002  
  711.00  4.4803E-002  
  711.50  4.4972E-002  
  712.00  4.5152E-002  
  712.50  4.5165E-002  
  713.00  4.5128E-002  
  713.50  4.5124E-002  
  714.00  4.5276E-002  
  714.50  4.5505E-002  
  715.00  4.5625E-002  
  715.50  4.5645E-002  
  716.00  4.5584E-002  
  716.50  4.5593E-002  
  717.00  4.5692E-002  
  717.50  4.5871E-002  
  718.00  4.5971E-002  
  718.50  4.6021E-002  
  719.00  4.6024E-002  
  719.50  4.5949E-002  
  720.00  4.5954E-002  
  720.50  4.5972E-002  
  721.00  4.6044E-002  
  721.50  4.5960E-002  
  722.00  4.5984E-002  
  722.50  4.6094E-002  
  723.00  4.6350E-002  
  723.50  4.6398E-002  
  724.00  4.6179E-002  
  724.50  4.6062E-002  
  725.00  4.6249E-002  
  725.50  4.6621E-002  
  726.00  4.6753E-002  
  726.50  4.6686E-002  
  727.00  4.6555E-002  
  727.50  4.6553E-002  
  728.00  4.6577E-002  
  728.50  4.6625E-002  
  729.00  4.6759E-002  
  729.50  4.6839E-002  
  730.00  4.6902E-002  
  730.50  4.7027E-002  
  731.00  4.7189E-002  
  731.50  4.7323E-002  
  732.00  4.7384E-002  
  732.50  4.7425E-002  
  733.00  4.7506E-002  
  733.50  4.7466E-002  
  734.00  4.7523E-002  
  734.50  4.7556E-002  
  735.00  4.7873E-002  
  735.50  4.7981E-002  
  736.00  4.7986E-002  
  736.50  4.7765E-002  
  737.00  4.7800E-002  
  737.50  4.7792E-002  
  738.00  4.7928E-002  
  738.50  4.7992E-002  
  739.00  4.8197E-002  
  739.50  4.8282E-002  
  740.00  4.8428E-002  
  740.50  4.8411E-002  
  741.00  4.8400E-002  
  741.50  4.8303E-002  
  742.00  4.8448E-002  
  742.50  4.8562E-002  
  743.00  4.8765E-002  
  743.50  4.8864E-002  
  744.00  4.8950E-002  
  744.50  4.8932E-002  
  745.00  4.8874E-002  
  745.50  4.8909E-002  
  746.00  4.8957E-002  
  746.50  4.8858E-002  
  747.00  4.8639E-002  
  747.50  4.8668E-002  
  748.00  4.8639E-002  
  748.50  4.8589E-002  
  749.00  4.8562E-002  
  749.50  4.8879E-002  
  750.00  4.9269E-002  
  750.50  4.9369E-002  
  751.00  4.9341E-002  
  751.50  4.9193E-002  
  752.00  4.9338E-002  
  752.50  4.9559E-002  
  753.00  4.9698E-002  
  753.50  4.9669E-002  
  754.00  4.9545E-002  
  754.50  4.9558E-002  
  755.00  4.9494E-002  
  755.50  4.9523E-002  
  756.00  4.9694E-002  
  756.50  4.9859E-002  
  757.00  4.9892E-002  
  757.50  4.9772E-002  
  758.00  4.9832E-002  
  758.50  5.0027E-002  
  759.00  5.0195E-002  
  759.50  4.9945E-002  
  760.00  4.9691E-002  
  760.50  4.9817E-002  
  761.00  5.0180E-002  
  761.50  5.0388E-002  
  762.00  5.0375E-002  
  762.50  5.0337E-002  
  763.00  5.0387E-002  
  763.50  5.0455E-002  
  764.00  5.0501E-002  
  764.50  5.0420E-002  
  765.00  5.0382E-002  
  765.50  5.0505E-002  
  766.00  5.0796E-002  
  766.50  5.0841E-002  
  767.00  5.0676E-002  
  767.50  5.0365E-002  
  768.00  5.0269E-002  
  768.50  5.0170E-002  
  769.00  5.0441E-002  
  769.50  5.0626E-002  
  770.00  5.0784E-002  
  770.50  5.0728E-002  
  771.00  5.0696E-002  
  771.50  5.0876E-002  
  772.00  5.1038E-002  
  772.50  5.0991E-002  
  773.00  5.0720E-002  
  773.50  5.0846E-002  
  774.00  5.0981E-002  
  774.50  5.1176E-002  
  775.00  5.1092E-002  
  775.50  5.1172E-002  
  776.00  5.1071E-002  
  776.50  5.1063E-002  
  777.00  5.0889E-002  
  777.50  5.0988E-002  
  778.00  5.1163E-002  
  778.50  5.1458E-002  
  779.00  5.1343E-002  
  779.50  5.1197E-002  
  780.00  5.1153E-002  
  780.50  5.1407E-002  
  781.00  5.1595E-002  
  781.50  5.1762E-002  
  782.00  5.1987E-002  
  782.50  5.1877E-002  
  783.00  5.1762E-002  
  783.50  5.1513E-002  
  784.00  5.1568E-002  
  784.50  5.2039E-002  
  785.00  5.2582E-002  
  785.50  5.2531E-002  
  786.00  5.2213E-002  
  786.50  5.2013E-002  
  787.00  5.2114E-002  
  787.50  5.2211E-002  
  788.00  5.2406E-002  
  788.50  5.2394E-002  
  789.00  5.2376E-002  
  789.50  5.2230E-002  
  790.00  5.2246E-002  
  790.50  5.2202E-002  
  791.00  5.2007E-002  
  791.50  5.1841E-002  
  792.00  5.1972E-002  
  792.50  5.2204E-002  
  793.00  5.2410E-002  
  793.50  5.2489E-002  
  794.00  5.2417E-002  
  794.50  5.2478E-002  
  795.00  5.2702E-002  
  795.50  5.2786E-002  
  796.00  5.2938E-002  
  796.50  5.3039E-002  
  797.00  5.3010E-002  
  797.50  5.2953E-002  
  798.00  5.2525E-002  
  798.50  5.2299E-002  
  799.00  5.2359E-002  
  799.50  5.2578E-002  
  800.00  5.2776E-002  
  800.50  5.2818E-002  
  801.00  5.2986E-002  
  801.50  5.3158E-002  
  802.00  5.3414E-002  
  802.50  5.3438E-002  
  803.00  5.3095E-002  
  803.50  5.2748E-002  
  804.00  5.2842E-002  
  804.50  5.2977E-002  
  805.00  5.3308E-002  
  805.50  5.3776E-002  
  806.00  5.4103E-002  
  806.50  5.3872E-002  
  807.00  5.4025E-002  
  807.50  5.4005E-002  
  808.00  5.4109E-002  
  808.50  5.3954E-002  
  809.00  5.4116E-002  
  809.50  5.3942E-002  
  810.00  5.3965E-002  
  810.50  5.4111E-002  
  811.00  5.4193E-002  
  811.50  5.4221E-002  
  812.00  5.4178E-002  
  812.50  5.4005E-002  
  813.00  5.3920E-002  
  813.50  5.4107E-002  
  814.00  5.3915E-002  
  814.50  5.3835E-002  
  815.00  5.4146E-002  
  815.50  5.4397E-002  
  816.00  5.4431E-002  
  816.50  5.4106E-002  
  817.00  5.3738E-002  
  817.50  5.3798E-002  
  818.00  5.4157E-002  
  818.50  5.4594E-002  
  819.00  5.4738E-002  
  819.50  5.4632E-002  
  820.00  5.4285E-002  
  820.50  5.4339E-002  
  821.00  5.4344E-002  
  821.50  5.4482E-002  
  822.00  5.4512E-002  
  822.50  5.4677E-002  
  823.00  5.4393E-002  
  823.50  5.3979E-002  
  824.00  5.4099E-002  
  824.50  5.4022E-002  
  825.00  5.4136E-002  
  825.50  5.4647E-002  
  826.00  5.5499E-002  
  826.50  5.5404E-002  
  827.00  5.5137E-002  
  827.50  5.4975E-002  
  828.00  5.4926E-002  
  828.50  5.4806E-002  
  829.00  5.4659E-002  
  829.50  5.4502E-002  
  830.00  5.4529E-002  
  830.50  5.4403E-002  
  831.00  5.4333E-002  
  831.50  5.4520E-002  
  832.00  5.4666E-002  
  832.50  5.4877E-002  
  833.00  5.5115E-002  
  833.50  5.4770E-002  
  834.00  5.4341E-002  
  834.50  5.4797E-002  
  835.00  5.5148E-002  
  835.50  5.5100E-002  
  836.00  5.5271E-002  
  836.50  5.4975E-002  
  837.00  5.4710E-002  
  837.50  5.4627E-002  
  838.00  5.4933E-002  
  838.50  5.5408E-002  
  839.00  5.5648E-002  
  839.50  5.5060E-002  
  840.00  5.4515E-002  
  840.50  5.4704E-002  
  841.00  5.5035E-002  
  841.50  5.5687E-002  
  842.00  5.6148E-002  
  842.50  5.6245E-002  
  843.00  5.5367E-002  
  843.50  5.5212E-002  
  844.00  5.5029E-002  
  844.50  5.5048E-002  
  845.00  5.4884E-002  
  845.50  5.5117E-002  
  846.00  5.5228E-002  
  846.50  5.5327E-002  
  847.00  5.5009E-002  
  847.50  5.4542E-002  
  848.00  5.4633E-002  
  848.50  5.4967E-002  
  849.00  5.5010E-002  
  849.50  5.4667E-002  
  850.00  5.4707E-002  
  850.50  5.5233E-002  
  851.00  5.5553E-002  
  851.50  5.4759E-002  
  852.00  5.4973E-002  
  852.50  5.5420E-002  
  853.00  5.5475E-002  
  853.50  5.5588E-002  
  854.00  5.5601E-002  
  854.50  5.5545E-002  
  855.00  5.5317E-002  
  855.50  5.5066E-002  
  856.00  5.4992E-002  
  856.50  5.4977E-002  
  857.00  5.5246E-002  
  857.50  5.5989E-002  
  858.00  5.6140E-002  
  858.50  5.5953E-002  
  859.00  5.5770E-002  
  859.50  5.5929E-002  
  860.00  5.6188E-002  
  860.50  5.6128E-002  
  861.00  5.5582E-002  
  861.50  5.4901E-002  
  862.00  5.4746E-002  
  862.50  5.4769E-002  
  863.00  5.4819E-002  
  863.50  5.4874E-002  
  864.00  5.5127E-002  
  864.50  5.5698E-002  
  865.00  5.6253E-002  
  865.50  5.6211E-002  
  866.00  5.6302E-002  
  866.50  5.6347E-002  
  867.00  5.6399E-002  
  867.50  5.6210E-002  
  868.00  5.6785E-002  
  868.50  5.6899E-002  
  869.00  5.6646E-002  
  869.50  5.6718E-002  
  870.00  5.7356E-002  
  870.50  5.7091E-002  
  871.00  5.5695E-002  
  871.50  5.5063E-002  
  872.00  5.5251E-002  
  872.50  5.5530E-002  
  873.00  5.6149E-002  
  873.50  5.6849E-002  
  874.00  5.7406E-002  
  874.50  5.7271E-002  
  875.00  5.6735E-002  
  875.50  5.6223E-002  
  876.00  5.5920E-002  
  876.50  5.5482E-002  
  877.00  5.5374E-002  
  877.50  5.5066E-002  
  878.00  5.5880E-002  
  878.50  5.6932E-002  
  879.00  5.6864E-002  
  879.50  5.5977E-002  
  880.00  5.5066E-002  
  880.50  5.5787E-002  
  881.00  5.6756E-002  
  881.50  5.7028E-002  
  882.00  5.7059E-002  
  882.50  5.6743E-002  
  883.00  5.6470E-002  
  883.50  5.6577E-002  
  884.00  5.7099E-002  
  884.50  5.6864E-002  
  885.00  5.5956E-002  
  885.50  5.5637E-002  
  886.00  5.6549E-002  
  886.50  5.7066E-002  
  887.00  5.7118E-002  
  887.50  5.7787E-002  
  888.00  5.7204E-002  
  888.50  5.7136E-002  
  889.00  5.8657E-002  
  889.50  5.8668E-002  
  890.00  5.7441E-002  
  890.50  5.6369E-002  
  891.00  5.5828E-002  
  891.50  5.6274E-002  
  892.00  5.7628E-002  
  892.50  5.8269E-002  
  893.00  5.7476E-002  
  893.50  5.7296E-002  
  894.00  5.6459E-002  
  894.50  5.5967E-002  
  895.00  5.5619E-002  
  895.50  5.6082E-002  
  896.00  5.7307E-002  
  896.50  5.8413E-002  
  897.00  5.7982E-002  
  897.50  5.6271E-002  
  898.00  5.5634E-002  
  898.50  5.6495E-002  
  899.00  5.6585E-002  
  899.50  1.1211E-003  
