
# From lspdd.org
# 
# Name: DEL Globe A19 Domestique
# Indice spectral Valeur 
# MSI 10.39 
# SLI 7.08 
# IPI 5.98 
# Pourcentage de bleu 98.5 
# Caractéristique Valeur 
# CCT calculée (K) 100000000000 
# CCT du fabricant (K) 6400 
# Tension (V) 120 
# Puissance (W) 1.3 
# Efficacité lumineuse (Lum/W) ND 
#
# Image: '/app/system/img_2s/2496/medium_image2.JPG?1413485942'
# Image: '/app/system/img_1s/2496/medium_image1.JPG?1413485943'
# 

  273.00  0.0000E+000  
  273.50  0.0000E+000  
  274.00  0.0000E+000  
  274.50  0.0000E+000  
  275.00  0.0000E+000  
  275.50  0.0000E+000  
  276.00  0.0000E+000  
  276.50  0.0000E+000  
  277.00  0.0000E+000  
  277.50  0.0000E+000  
  278.00  0.0000E+000  
  278.50  0.0000E+000  
  279.00  0.0000E+000  
  279.50  0.0000E+000  
  280.00  0.0000E+000  
  280.50  0.0000E+000  
  281.00  0.0000E+000  
  281.50  0.0000E+000  
  282.00  0.0000E+000  
  282.50  0.0000E+000  
  283.00  0.0000E+000  
  283.50  0.0000E+000  
  284.00  0.0000E+000  
  284.50  0.0000E+000  
  285.00  0.0000E+000  
  285.50  0.0000E+000  
  286.00  0.0000E+000  
  286.50  0.0000E+000  
  287.00  0.0000E+000  
  287.50  0.0000E+000  
  288.00  0.0000E+000  
  288.50  0.0000E+000  
  289.00  0.0000E+000  
  289.50  0.0000E+000  
  290.00  0.0000E+000  
  290.50  0.0000E+000  
  291.00  0.0000E+000  
  291.50  0.0000E+000  
  292.00  0.0000E+000  
  292.50  0.0000E+000  
  293.00  0.0000E+000  
  293.50  0.0000E+000  
  294.00  0.0000E+000  
  294.50  0.0000E+000  
  295.00  0.0000E+000  
  295.50  0.0000E+000  
  296.00  0.0000E+000  
  296.50  0.0000E+000  
  297.00  0.0000E+000  
  297.50  0.0000E+000  
  298.00  0.0000E+000  
  298.50  0.0000E+000  
  299.00  0.0000E+000  
  299.50  0.0000E+000  
  300.00  0.0000E+000  
  300.50  0.0000E+000  
  301.00  3.2827E-007  
  301.50  1.6359E-005  
  302.00  2.2124E-005  
  302.50  1.7794E-005  
  303.00  8.1948E-006  
  303.50  1.6160E-005  
  304.00  3.5787E-005  
  304.50  5.3778E-005  
  305.00  7.0182E-005  
  305.50  6.7556E-005  
  306.00  4.8243E-005  
  306.50  1.5714E-005  
  307.00  0.0000E+000  
  307.50  0.0000E+000  
  308.00  4.1507E-006  
  308.50  2.6864E-005  
  309.00  3.9478E-005  
  309.50  4.8461E-005  
  310.00  4.0932E-005  
  310.50  3.6966E-005  
  311.00  3.6818E-005  
  311.50  2.2633E-005  
  312.00  1.4251E-005  
  312.50  5.4832E-007  
  313.00  0.0000E+000  
  313.50  0.0000E+000  
  314.00  0.0000E+000  
  314.50  1.2101E-006  
  315.00  1.2795E-005  
  315.50  2.5206E-005  
  316.00  2.1885E-005  
  316.50  9.8609E-006  
  317.00  1.2595E-006  
  317.50  9.7611E-008  
  318.00  4.0424E-007  
  318.50  0.0000E+000  
  319.00  0.0000E+000  
  319.50  0.0000E+000  
  320.00  0.0000E+000  
  320.50  0.0000E+000  
  321.00  0.0000E+000  
  321.50  7.9673E-007  
  322.00  3.2148E-008  
  322.50  0.0000E+000  
  323.00  0.0000E+000  
  323.50  0.0000E+000  
  324.00  7.5789E-006  
  324.50  2.0868E-005  
  325.00  3.2776E-005  
  325.50  2.8811E-005  
  326.00  1.6871E-005  
  326.50  1.5088E-005  
  327.00  1.4604E-005  
  327.50  6.5777E-006  
  328.00  8.8312E-007  
  328.50  0.0000E+000  
  329.00  0.0000E+000  
  329.50  2.0308E-006  
  330.00  1.2509E-005  
  330.50  2.7387E-005  
  331.00  2.6941E-005  
  331.50  1.2811E-005  
  332.00  7.8094E-006  
  332.50  5.6337E-007  
  333.00  0.0000E+000  
  333.50  0.0000E+000  
  334.00  0.0000E+000  
  334.50  2.1244E-007  
  335.00  1.5069E-005  
  335.50  2.1595E-005  
  336.00  9.2347E-006  
  336.50  1.9224E-005  
  337.00  2.5770E-005  
  337.50  3.8735E-005  
  338.00  5.3831E-005  
  338.50  4.6208E-005  
  339.00  2.2817E-005  
  339.50  3.9479E-006  
  340.00  1.0153E-005  
  340.50  2.7113E-005  
  341.00  4.3523E-005  
  341.50  5.4163E-005  
  342.00  3.6654E-005  
  342.50  3.2066E-005  
  343.00  2.9771E-005  
  343.50  2.3128E-005  
  344.00  1.6169E-005  
  344.50  2.9366E-006  
  345.00  0.0000E+000  
  345.50  4.3329E-007  
  346.00  5.4459E-007  
  346.50  0.0000E+000  
  347.00  0.0000E+000  
  347.50  0.0000E+000  
  348.00  0.0000E+000  
  348.50  0.0000E+000  
  349.00  0.0000E+000  
  349.50  0.0000E+000  
  350.00  0.0000E+000  
  350.50  0.0000E+000  
  351.00  0.0000E+000  
  351.50  6.2432E-007  
  352.00  6.5620E-006  
  352.50  2.6229E-005  
  353.00  2.4122E-005  
  353.50  8.2673E-006  
  354.00  0.0000E+000  
  354.50  0.0000E+000  
  355.00  0.0000E+000  
  355.50  2.2197E-007  
  356.00  6.8293E-006  
  356.50  3.1175E-005  
  357.00  3.4337E-005  
  357.50  2.8671E-005  
  358.00  2.7112E-005  
  358.50  2.0364E-005  
  359.00  1.5080E-005  
  359.50  2.2556E-005  
  360.00  1.5816E-005  
  360.50  2.2171E-005  
  361.00  3.2187E-005  
  361.50  2.2928E-005  
  362.00  7.3140E-006  
  362.50  0.0000E+000  
  363.00  0.0000E+000  
  363.50  0.0000E+000  
  364.00  0.0000E+000  
  364.50  0.0000E+000  
  365.00  0.0000E+000  
  365.50  0.0000E+000  
  366.00  0.0000E+000  
  366.50  0.0000E+000  
  367.00  4.5518E-007  
  367.50  1.1215E-005  
  368.00  2.8238E-005  
  368.50  4.5311E-005  
  369.00  4.2264E-005  
  369.50  3.4949E-005  
  370.00  2.2574E-005  
  370.50  1.3429E-005  
  371.00  1.2279E-005  
  371.50  1.8442E-005  
  372.00  2.4184E-005  
  372.50  2.8351E-005  
  373.00  2.6013E-005  
  373.50  1.4760E-005  
  374.00  1.4178E-005  
  374.50  4.7172E-006  
  375.00  1.4850E-005  
  375.50  3.3302E-005  
  376.00  3.1748E-005  
  376.50  3.4069E-005  
  377.00  1.4631E-005  
  377.50  2.2237E-006  
  378.00  1.6943E-007  
  378.50  0.0000E+000  
  379.00  0.0000E+000  
  379.50  0.0000E+000  
  380.00  0.0000E+000  
  380.50  0.0000E+000  
  381.00  5.3554E-007  
  381.50  1.2145E-005  
  382.00  1.5802E-005  
  382.50  2.7486E-005  
  383.00  3.0270E-005  
  383.50  2.0905E-005  
  384.00  1.6389E-005  
  384.50  7.2042E-006  
  385.00  1.5333E-007  
  385.50  1.0584E-005  
  386.00  2.4328E-005  
  386.50  2.8765E-005  
  387.00  3.6330E-005  
  387.50  2.0587E-005  
  388.00  1.0592E-005  
  388.50  6.3177E-006  
  389.00  1.4628E-007  
  389.50  0.0000E+000  
  390.00  9.2313E-007  
  390.50  1.2827E-007  
  391.00  6.8304E-006  
  391.50  1.8110E-005  
  392.00  2.5691E-005  
  392.50  2.0601E-005  
  393.00  1.2401E-005  
  393.50  1.8551E-006  
  394.00  9.5697E-006  
  394.50  3.0709E-005  
  395.00  3.0168E-005  
  395.50  3.5781E-005  
  396.00  3.0982E-005  
  396.50  2.5532E-005  
  397.00  1.8732E-005  
  397.50  2.9481E-006  
  398.00  0.0000E+000  
  398.50  2.7779E-006  
  399.00  5.2694E-006  
  399.50  1.3549E-005  
  400.00  1.2330E-005  
  400.50  2.1493E-005  
  401.00  2.0003E-005  
  401.50  9.2894E-006  
  402.00  6.4658E-006  
  402.50  1.6037E-005  
  403.00  2.3309E-005  
  403.50  3.2514E-005  
  404.00  2.9842E-005  
  404.50  3.1761E-005  
  405.00  4.8401E-005  
  405.50  4.3349E-005  
  406.00  2.3684E-005  
  406.50  1.4040E-005  
  407.00  1.4344E-005  
  407.50  2.1170E-005  
  408.00  1.4931E-005  
  408.50  2.9848E-006  
  409.00  0.0000E+000  
  409.50  0.0000E+000  
  410.00  0.0000E+000  
  410.50  0.0000E+000  
  411.00  5.3440E-006  
  411.50  2.4193E-005  
  412.00  4.1344E-005  
  412.50  3.8163E-005  
  413.00  1.2753E-005  
  413.50  0.0000E+000  
  414.00  0.0000E+000  
  414.50  1.8897E-007  
  415.00  8.2646E-006  
  415.50  1.5894E-005  
  416.00  2.1761E-005  
  416.50  4.0524E-005  
  417.00  3.0740E-005  
  417.50  2.8072E-005  
  418.00  2.2858E-005  
  418.50  7.9487E-006  
  419.00  1.2049E-005  
  419.50  7.9620E-006  
  420.00  2.0309E-005  
  420.50  4.6187E-005  
  421.00  6.8834E-005  
  421.50  7.9223E-005  
  422.00  7.8396E-005  
  422.50  7.2275E-005  
  423.00  6.7876E-005  
  423.50  6.0139E-005  
  424.00  6.0614E-005  
  424.50  7.5036E-005  
  425.00  9.0195E-005  
  425.50  1.1083E-004  
  426.00  1.2482E-004  
  426.50  1.2504E-004  
  427.00  1.2350E-004  
  427.50  1.2651E-004  
  428.00  1.2740E-004  
  428.50  1.4220E-004  
  429.00  1.6900E-004  
  429.50  1.9073E-004  
  430.00  2.1029E-004  
  430.50  2.1381E-004  
  431.00  2.3134E-004  
  431.50  2.5913E-004  
  432.00  3.0269E-004  
  432.50  3.4178E-004  
  433.00  3.6179E-004  
  433.50  3.8977E-004  
  434.00  4.1543E-004  
  434.50  4.4318E-004  
  435.00  4.6404E-004  
  435.50  4.8091E-004  
  436.00  5.1613E-004  
  436.50  5.6527E-004  
  437.00  6.1977E-004  
  437.50  6.6288E-004  
  438.00  7.0365E-004  
  438.50  7.4633E-004  
  439.00  7.9968E-004  
  439.50  8.6700E-004  
  440.00  9.2568E-004  
  440.50  9.9866E-004  
  441.00  1.0666E-003  
  441.50  1.1290E-003  
  442.00  1.1911E-003  
  442.50  1.2451E-003  
  443.00  1.3201E-003  
  443.50  1.4164E-003  
  444.00  1.5328E-003  
  444.50  1.6531E-003  
  445.00  1.7481E-003  
  445.50  1.8426E-003  
  446.00  1.9473E-003  
  446.50  2.0805E-003  
  447.00  2.2482E-003  
  447.50  2.4140E-003  
  448.00  2.5666E-003  
  448.50  2.7269E-003  
  449.00  2.8892E-003  
  449.50  3.0524E-003  
  450.00  3.2211E-003  
  450.50  3.3811E-003  
  451.00  3.5506E-003  
  451.50  3.7142E-003  
  452.00  3.8732E-003  
  452.50  4.0347E-003  
  453.00  4.1772E-003  
  453.50  4.3044E-003  
  454.00  4.3991E-003  
  454.50  4.4749E-003  
  455.00  4.5983E-003  
  455.50  4.6987E-003  
  456.00  4.7984E-003  
  456.50  4.8492E-003  
  457.00  4.8561E-003  
  457.50  4.8338E-003  
  458.00  4.7642E-003  
  458.50  4.6794E-003  
  459.00  4.5789E-003  
  459.50  4.5066E-003  
  460.00  4.4266E-003  
  460.50  4.3284E-003  
  461.00  4.1781E-003  
  461.50  4.0139E-003  
  462.00  3.8451E-003  
  462.50  3.7008E-003  
  463.00  3.5625E-003  
  463.50  3.4067E-003  
  464.00  3.2747E-003  
  464.50  3.1484E-003  
  465.00  3.0220E-003  
  465.50  2.9108E-003  
  466.00  2.7835E-003  
  466.50  2.6477E-003  
  467.00  2.5291E-003  
  467.50  2.4172E-003  
  468.00  2.3276E-003  
  468.50  2.2544E-003  
  469.00  2.1740E-003  
  469.50  2.0891E-003  
  470.00  1.9924E-003  
  470.50  1.9043E-003  
  471.00  1.8391E-003  
  471.50  1.7900E-003  
  472.00  1.7381E-003  
  472.50  1.6738E-003  
  473.00  1.6064E-003  
  473.50  1.5427E-003  
  474.00  1.4926E-003  
  474.50  1.4375E-003  
  475.00  1.3728E-003  
  475.50  1.3131E-003  
  476.00  1.2399E-003  
  476.50  1.1701E-003  
  477.00  1.1059E-003  
  477.50  1.0520E-003  
  478.00  1.0054E-003  
  478.50  9.6459E-004  
  479.00  9.2537E-004  
  479.50  8.8874E-004  
  480.00  8.4536E-004  
  480.50  8.0071E-004  
  481.00  7.4699E-004  
  481.50  7.0054E-004  
  482.00  6.6058E-004  
  482.50  6.2217E-004  
  483.00  5.9085E-004  
  483.50  5.6872E-004  
  484.00  5.4736E-004  
  484.50  5.2794E-004  
  485.00  5.0118E-004  
  485.50  4.7427E-004  
  486.00  4.4409E-004  
  486.50  4.3010E-004  
  487.00  4.1672E-004  
  487.50  4.0812E-004  
  488.00  3.9505E-004  
  488.50  3.7680E-004  
  489.00  3.5611E-004  
  489.50  3.3242E-004  
  490.00  3.2567E-004  
  490.50  3.1429E-004  
  491.00  3.0863E-004  
  491.50  2.9700E-004  
  492.00  2.7951E-004  
  492.50  2.6261E-004  
  493.00  2.4652E-004  
  493.50  2.3403E-004  
  494.00  2.2261E-004  
  494.50  2.2053E-004  
  495.00  2.1290E-004  
  495.50  2.0247E-004  
  496.00  1.8845E-004  
  496.50  1.7869E-004  
  497.00  1.7638E-004  
  497.50  1.7980E-004  
  498.00  1.7471E-004  
  498.50  1.6301E-004  
  499.00  1.5342E-004  
  499.50  1.4378E-004  
  500.00  1.3379E-004  
  500.50  1.2323E-004  
  501.00  1.1791E-004  
  501.50  1.1710E-004  
  502.00  1.1413E-004  
  502.50  1.0692E-004  
  503.00  1.0248E-004  
  503.50  9.7201E-005  
  504.00  9.1886E-005  
  504.50  8.4224E-005  
  505.00  7.6790E-005  
  505.50  7.4503E-005  
  506.00  7.5557E-005  
  506.50  7.5667E-005  
  507.00  7.4033E-005  
  507.50  6.8754E-005  
  508.00  6.8888E-005  
  508.50  7.2883E-005  
  509.00  7.2669E-005  
  509.50  6.9299E-005  
  510.00  5.6125E-005  
  510.50  4.7127E-005  
  511.00  4.1410E-005  
  511.50  3.8739E-005  
  512.00  3.9834E-005  
  512.50  4.0570E-005  
  513.00  4.1622E-005  
  513.50  4.1856E-005  
  514.00  4.1033E-005  
  514.50  4.0383E-005  
  515.00  3.9519E-005  
  515.50  3.8040E-005  
  516.00  3.5857E-005  
  516.50  3.4379E-005  
  517.00  3.1416E-005  
  517.50  2.5027E-005  
  518.00  2.1499E-005  
  518.50  1.5844E-005  
  519.00  1.9930E-005  
  519.50  2.6645E-005  
  520.00  3.0357E-005  
  520.50  3.5387E-005  
  521.00  3.4793E-005  
  521.50  2.9085E-005  
  522.00  2.0881E-005  
  522.50  7.3028E-006  
  523.00  0.0000E+000  
  523.50  3.0474E-006  
  524.00  1.0372E-005  
  524.50  1.4402E-005  
  525.00  1.3115E-005  
  525.50  8.8854E-006  
  526.00  1.0496E-005  
  526.50  1.6670E-005  
  527.00  2.0784E-005  
  527.50  2.3455E-005  
  528.00  1.9637E-005  
  528.50  1.6880E-005  
  529.00  1.7955E-005  
  529.50  1.7471E-005  
  530.00  2.0460E-005  
  530.50  2.4876E-005  
  531.00  2.8716E-005  
  531.50  3.3503E-005  
  532.00  3.0396E-005  
  532.50  2.4479E-005  
  533.00  2.0397E-005  
  533.50  1.8028E-005  
  534.00  1.3900E-005  
  534.50  9.1568E-006  
  535.00  6.1266E-006  
  535.50  1.7450E-006  
  536.00  0.0000E+000  
  536.50  0.0000E+000  
  537.00  0.0000E+000  
  537.50  5.9841E-006  
  538.00  1.7409E-005  
  538.50  2.0895E-005  
  539.00  1.6940E-005  
  539.50  1.6115E-005  
  540.00  1.4133E-005  
  540.50  1.0544E-005  
  541.00  1.3235E-005  
  541.50  1.7335E-005  
  542.00  2.6101E-005  
  542.50  2.7043E-005  
  543.00  1.4284E-005  
  543.50  1.4300E-006  
  544.00  0.0000E+000  
  544.50  0.0000E+000  
  545.00  0.0000E+000  
  545.50  0.0000E+000  
  546.00  1.2102E-006  
  546.50  4.6176E-006  
  547.00  1.4376E-005  
  547.50  1.9657E-005  
  548.00  1.7161E-005  
  548.50  8.5384E-006  
  549.00  6.7910E-007  
  549.50  0.0000E+000  
  550.00  0.0000E+000  
  550.50  4.1543E-007  
  551.00  7.6526E-006  
  551.50  1.2483E-005  
  552.00  6.5652E-006  
  552.50  9.1469E-006  
  553.00  7.6874E-006  
  553.50  4.2026E-006  
  554.00  4.2922E-006  
  554.50  6.4671E-006  
  555.00  1.2212E-005  
  555.50  1.0564E-005  
  556.00  5.8155E-006  
  556.50  3.9410E-006  
  557.00  1.5258E-006  
  557.50  0.0000E+000  
  558.00  0.0000E+000  
  558.50  0.0000E+000  
  559.00  0.0000E+000  
  559.50  0.0000E+000  
  560.00  1.9327E-006  
  560.50  7.5047E-006  
  561.00  6.8136E-006  
  561.50  4.1229E-006  
  562.00  7.2539E-006  
  562.50  1.2980E-005  
  563.00  1.6677E-005  
  563.50  1.2031E-005  
  564.00  6.9745E-006  
  564.50  3.9306E-006  
  565.00  2.6954E-006  
  565.50  2.7041E-006  
  566.00  6.1627E-008  
  566.50  5.0338E-006  
  567.00  1.7480E-005  
  567.50  1.6450E-005  
  568.00  1.4848E-005  
  568.50  8.5966E-006  
  569.00  6.5687E-006  
  569.50  6.9933E-006  
  570.00  8.2086E-006  
  570.50  1.3050E-005  
  571.00  1.7852E-005  
  571.50  2.3950E-005  
  572.00  1.4033E-005  
  572.50  2.1449E-006  
  573.00  0.0000E+000  
  573.50  0.0000E+000  
  574.00  3.0026E-006  
  574.50  1.2502E-005  
  575.00  2.4595E-005  
  575.50  2.2529E-005  
  576.00  5.2554E-006  
  576.50  0.0000E+000  
  577.00  0.0000E+000  
  577.50  0.0000E+000  
  578.00  0.0000E+000  
  578.50  0.0000E+000  
  579.00  3.1544E-006  
  579.50  9.8978E-006  
  580.00  1.7016E-005  
  580.50  1.5985E-005  
  581.00  1.7396E-006  
  581.50  0.0000E+000  
  582.00  0.0000E+000  
  582.50  0.0000E+000  
  583.00  0.0000E+000  
  583.50  8.3275E-006  
  584.00  1.7604E-005  
  584.50  1.4054E-005  
  585.00  1.3089E-005  
  585.50  1.4477E-006  
  586.00  0.0000E+000  
  586.50  0.0000E+000  
  587.00  0.0000E+000  
  587.50  0.0000E+000  
  588.00  0.0000E+000  
  588.50  0.0000E+000  
  589.00  4.3581E-007  
  589.50  5.4010E-006  
  590.00  5.0945E-007  
  590.50  0.0000E+000  
  591.00  0.0000E+000  
  591.50  3.7313E-007  
  592.00  9.9222E-006  
  592.50  1.9625E-005  
  593.00  1.6018E-005  
  593.50  1.6358E-005  
  594.00  1.1491E-005  
  594.50  1.3962E-005  
  595.00  1.2982E-005  
  595.50  1.1501E-005  
  596.00  1.1357E-005  
  596.50  8.2622E-006  
  597.00  1.4570E-006  
  597.50  0.0000E+000  
  598.00  0.0000E+000  
  598.50  2.8424E-006  
  599.00  3.9813E-006  
  599.50  1.9593E-008  
  600.00  0.0000E+000  
  600.50  0.0000E+000  
  601.00  0.0000E+000  
  601.50  6.6969E-007  
  602.00  2.6806E-006  
  602.50  1.1088E-005  
  603.00  7.6005E-006  
  603.50  5.8490E-006  
  604.00  4.7787E-006  
  604.50  5.4892E-006  
  605.00  7.2718E-006  
  605.50  8.8829E-006  
  606.00  7.0054E-006  
  606.50  6.3850E-006  
  607.00  0.0000E+000  
  607.50  8.0417E-009  
  608.00  1.7405E-006  
  608.50  9.8300E-006  
  609.00  1.5080E-005  
  609.50  1.3304E-005  
  610.00  1.3947E-005  
  610.50  1.4103E-005  
  611.00  8.0130E-006  
  611.50  4.1860E-006  
  612.00  1.0119E-005  
  612.50  1.6812E-005  
  613.00  6.1149E-006  
  613.50  0.0000E+000  
  614.00  0.0000E+000  
  614.50  4.5624E-007  
  615.00  4.7081E-006  
  615.50  4.3426E-006  
  616.00  1.1754E-005  
  616.50  1.1345E-005  
  617.00  1.8960E-006  
  617.50  0.0000E+000  
  618.00  0.0000E+000  
  618.50  2.6888E-007  
  619.00  7.8878E-006  
  619.50  1.3417E-005  
  620.00  9.0913E-006  
  620.50  1.8726E-005  
  621.00  1.9989E-005  
  621.50  2.3809E-005  
  622.00  1.3331E-005  
  622.50  9.4387E-006  
  623.00  1.7835E-006  
  623.50  3.7314E-008  
  624.00  5.9909E-006  
  624.50  2.3686E-005  
  625.00  3.1261E-005  
  625.50  1.7286E-005  
  626.00  6.1565E-007  
  626.50  0.0000E+000  
  627.00  0.0000E+000  
  627.50  9.2806E-006  
  628.00  1.2620E-005  
  628.50  7.7536E-006  
  629.00  1.2577E-006  
  629.50  1.4134E-006  
  630.00  8.7828E-007  
  630.50  0.0000E+000  
  631.00  0.0000E+000  
  631.50  0.0000E+000  
  632.00  0.0000E+000  
  632.50  0.0000E+000  
  633.00  0.0000E+000  
  633.50  0.0000E+000  
  634.00  0.0000E+000  
  634.50  0.0000E+000  
  635.00  2.0900E-006  
  635.50  1.4012E-005  
  636.00  9.5468E-006  
  636.50  3.2074E-006  
  637.00  0.0000E+000  
  637.50  0.0000E+000  
  638.00  0.0000E+000  
  638.50  1.5264E-006  
  639.00  1.0639E-005  
  639.50  8.2198E-006  
  640.00  0.0000E+000  
  640.50  0.0000E+000  
  641.00  0.0000E+000  
  641.50  0.0000E+000  
  642.00  3.8980E-007  
  642.50  4.3578E-006  
  643.00  3.3965E-006  
  643.50  6.8976E-007  
  644.00  0.0000E+000  
  644.50  0.0000E+000  
  645.00  0.0000E+000  
  645.50  0.0000E+000  
  646.00  0.0000E+000  
  646.50  0.0000E+000  
  647.00  0.0000E+000  
  647.50  0.0000E+000  
  648.00  0.0000E+000  
  648.50  0.0000E+000  
  649.00  0.0000E+000  
  649.50  0.0000E+000  
  650.00  1.1182E-006  
  650.50  8.3152E-006  
  651.00  2.0698E-005  
  651.50  3.0082E-005  
  652.00  2.3584E-005  
  652.50  2.0902E-005  
  653.00  8.3859E-006  
  653.50  4.1137E-006  
  654.00  0.0000E+000  
  654.50  0.0000E+000  
  655.00  0.0000E+000  
  655.50  1.2634E-005  
  656.00  4.8628E-005  
  656.50  6.2568E-005  
  657.00  4.5489E-005  
  657.50  3.1047E-005  
  658.00  2.5747E-005  
  658.50  3.3717E-005  
  659.00  2.9857E-005  
  659.50  2.5582E-005  
  660.00  1.7033E-005  
  660.50  1.1575E-005  
  661.00  8.8321E-006  
  661.50  7.4487E-006  
  662.00  5.1431E-006  
  662.50  3.6188E-006  
  663.00  5.7953E-006  
  663.50  5.4296E-006  
  664.00  5.5288E-007  
  664.50  7.0778E-007  
  665.00  4.3522E-006  
  665.50  8.3650E-006  
  666.00  1.2125E-005  
  666.50  2.2270E-005  
  667.00  1.7698E-005  
  667.50  1.0581E-005  
  668.00  3.9080E-006  
  668.50  1.4726E-005  
  669.00  1.6572E-005  
  669.50  1.1051E-005  
  670.00  0.0000E+000  
  670.50  5.0110E-006  
  671.00  1.3590E-005  
  671.50  1.3450E-005  
  672.00  7.9374E-006  
  672.50  3.1760E-006  
  673.00  1.2958E-005  
  673.50  8.3291E-006  
  674.00  1.1957E-006  
  674.50  0.0000E+000  
  675.00  0.0000E+000  
  675.50  0.0000E+000  
  676.00  0.0000E+000  
  676.50  0.0000E+000  
  677.00  0.0000E+000  
  677.50  0.0000E+000  
  678.00  0.0000E+000  
  678.50  0.0000E+000  
  679.00  0.0000E+000  
  679.50  0.0000E+000  
  680.00  1.8721E-005  
  680.50  1.8823E-005  
  681.00  5.3005E-006  
  681.50  0.0000E+000  
  682.00  0.0000E+000  
  682.50  0.0000E+000  
  683.00  0.0000E+000  
  683.50  0.0000E+000  
  684.00  0.0000E+000  
  684.50  0.0000E+000  
  685.00  0.0000E+000  
  685.50  0.0000E+000  
  686.00  0.0000E+000  
  686.50  0.0000E+000  
  687.00  0.0000E+000  
  687.50  0.0000E+000  
  688.00  4.4347E-007  
  688.50  5.7897E-006  
  689.00  3.9856E-006  
  689.50  3.4491E-006  
  690.00  0.0000E+000  
  690.50  0.0000E+000  
  691.00  0.0000E+000  
  691.50  0.0000E+000  
  692.00  0.0000E+000  
  692.50  0.0000E+000  
  693.00  1.2764E-005  
  693.50  2.3289E-005  
  694.00  1.9910E-005  
  694.50  3.0020E-006  
  695.00  0.0000E+000  
  695.50  6.6671E-006  
  696.00  1.3882E-005  
  696.50  2.2864E-006  
  697.00  0.0000E+000  
  697.50  0.0000E+000  
  698.00  0.0000E+000  
  698.50  0.0000E+000  
  699.00  0.0000E+000  
  699.50  0.0000E+000  
  700.00  0.0000E+000  
  700.50  0.0000E+000  
  701.00  0.0000E+000  
  701.50  1.2868E-005  
  702.00  3.4861E-005  
  702.50  3.6426E-005  
  703.00  6.2668E-006  
  703.50  0.0000E+000  
  704.00  0.0000E+000  
  704.50  1.1183E-005  
  705.00  2.7643E-005  
  705.50  2.3257E-005  
  706.00  0.0000E+000  
  706.50  0.0000E+000  
  707.00  0.0000E+000  
  707.50  0.0000E+000  
  708.00  0.0000E+000  
  708.50  1.4913E-005  
  709.00  3.7856E-005  
  709.50  5.7235E-005  
  710.00  4.9774E-005  
  710.50  2.1596E-005  
  711.00  0.0000E+000  
  711.50  0.0000E+000  
  712.00  0.0000E+000  
  712.50  0.0000E+000  
  713.00  4.0827E-006  
  713.50  1.1291E-006  
  714.00  0.0000E+000  
  714.50  0.0000E+000  
  715.00  0.0000E+000  
  715.50  0.0000E+000  
  716.00  0.0000E+000  
  716.50  0.0000E+000  
  717.00  0.0000E+000  
  717.50  0.0000E+000  
  718.00  0.0000E+000  
  718.50  0.0000E+000  
  719.00  0.0000E+000  
  719.50  0.0000E+000  
  720.00  0.0000E+000  
  720.50  1.8649E-005  
  721.00  2.8588E-005  
  721.50  1.5423E-005  
  722.00  2.9544E-006  
  722.50  0.0000E+000  
  723.00  0.0000E+000  
  723.50  7.8375E-007  
  724.00  0.0000E+000  
  724.50  2.5486E-006  
  725.00  7.0085E-006  
  725.50  1.8281E-005  
  726.00  1.5162E-006  
  726.50  0.0000E+000  
  727.00  0.0000E+000  
  727.50  3.7303E-006  
  728.00  3.5503E-005  
  728.50  2.9968E-005  
  729.00  5.7232E-006  
  729.50  0.0000E+000  
  730.00  0.0000E+000  
  730.50  0.0000E+000  
  731.00  1.6519E-005  
  731.50  2.5035E-005  
  732.00  4.2461E-005  
  732.50  1.4275E-005  
  733.00  7.8089E-007  
  733.50  0.0000E+000  
  734.00  0.0000E+000  
  734.50  4.4425E-006  
  735.00  3.2544E-005  
  735.50  4.8452E-006  
  736.00  0.0000E+000  
  736.50  0.0000E+000  
  737.00  0.0000E+000  
  737.50  0.0000E+000  
  738.00  0.0000E+000  
  738.50  0.0000E+000  
  739.00  5.8176E-006  
  739.50  2.0259E-005  
  740.00  4.2314E-005  
  740.50  2.6600E-005  
  741.00  1.1367E-005  
  741.50  0.0000E+000  
  742.00  0.0000E+000  
  742.50  0.0000E+000  
  743.00  0.0000E+000  
  743.50  7.6210E-006  
  744.00  3.7148E-005  
  744.50  4.7038E-005  
  745.00  3.7275E-006  
  745.50  0.0000E+000  
  746.00  0.0000E+000  
  746.50  0.0000E+000  
  747.00  0.0000E+000  
  747.50  0.0000E+000  
  748.00  0.0000E+000  
  748.50  0.0000E+000  
  749.00  1.8773E-005  
  749.50  4.3831E-005  
  750.00  3.5934E-005  
  750.50  2.5994E-005  
  751.00  2.0326E-005  
  751.50  2.9805E-005  
  752.00  4.2373E-006  
  752.50  1.5887E-006  
  753.00  9.4679E-006  
  753.50  0.0000E+000  
  754.00  0.0000E+000  
  754.50  0.0000E+000  
  755.00  0.0000E+000  
  755.50  0.0000E+000  
  756.00  0.0000E+000  
  756.50  3.9651E-007  
  757.00  5.5521E-005  
  757.50  7.8472E-005  
  758.00  5.8685E-005  
  758.50  8.6449E-006  
  759.00  3.0871E-005  
  759.50  6.5837E-005  
  760.00  9.0292E-005  
  760.50  6.7310E-005  
  761.00  9.4289E-006  
  761.50  0.0000E+000  
  762.00  0.0000E+000  
  762.50  1.3601E-005  
  763.00  3.1084E-005  
  763.50  1.5118E-006  
  764.00  0.0000E+000  
  764.50  2.4436E-006  
  765.00  2.8507E-005  
  765.50  3.3730E-005  
  766.00  4.5198E-005  
  766.50  1.8018E-005  
  767.00  0.0000E+000  
  767.50  0.0000E+000  
  768.00  2.6864E-005  
  768.50  5.1532E-005  
  769.00  5.6447E-005  
  769.50  9.0005E-005  
  770.00  7.9086E-005  
  770.50  3.8597E-005  
  771.00  1.1239E-005  
  771.50  0.0000E+000  
  772.00  0.0000E+000  
  772.50  0.0000E+000  
  773.00  9.6954E-007  
  773.50  1.0898E-005  
  774.00  6.6703E-006  
  774.50  0.0000E+000  
  775.00  0.0000E+000  
  775.50  0.0000E+000  
  776.00  0.0000E+000  
  776.50  0.0000E+000  
  777.00  0.0000E+000  
  777.50  1.2840E-006  
  778.00  5.6227E-005  
  778.50  8.2578E-005  
  779.00  1.7287E-005  
  779.50  0.0000E+000  
  780.00  0.0000E+000  
  780.50  0.0000E+000  
  781.00  1.8222E-006  
  781.50  3.7227E-005  
  782.00  2.0535E-005  
  782.50  0.0000E+000  
  783.00  0.0000E+000  
  783.50  4.4110E-005  
  784.00  8.0134E-005  
  784.50  5.7664E-005  
  785.00  4.6383E-005  
  785.50  2.4706E-005  
  786.00  2.1267E-005  
  786.50  2.5017E-005  
  787.00  4.3273E-005  
  787.50  5.3570E-005  
  788.00  6.0093E-005  
  788.50  5.0108E-005  
  789.00  6.7055E-005  
  789.50  5.8781E-005  
  790.00  3.6466E-005  
  790.50  2.9232E-006  
  791.00  0.0000E+000  
  791.50  0.0000E+000  
  792.00  0.0000E+000  
  792.50  0.0000E+000  
  793.00  0.0000E+000  
  793.50  8.1507E-006  
  794.00  3.6638E-005  
  794.50  1.9056E-005  
  795.00  0.0000E+000  
  795.50  0.0000E+000  
  796.00  1.5088E-006  
  796.50  2.7385E-005  
  797.00  1.8024E-005  
  797.50  0.0000E+000  
  798.00  0.0000E+000  
  798.50  0.0000E+000  
  799.00  0.0000E+000  
  799.50  0.0000E+000  
  800.00  0.0000E+000  
  800.50  0.0000E+000  
  801.00  4.1008E-005  
  801.50  7.1592E-005  
  802.00  6.4389E-005  
  802.50  8.6180E-005  
  803.00  3.3542E-005  
  803.50  2.8187E-006  
  804.00  0.0000E+000  
  804.50  2.7019E-006  
  805.00  3.7726E-005  
  805.50  1.8103E-005  
  806.00  2.1196E-006  
  806.50  3.5474E-005  
  807.00  8.3614E-005  
  807.50  1.1699E-004  
  808.00  1.8645E-004  
  808.50  2.2044E-004  
  809.00  2.0422E-004  
  809.50  1.1557E-004  
  810.00  1.5389E-005  
  810.50  4.0593E-007  
  811.00  4.7230E-005  
  811.50  8.2081E-005  
  812.00  4.6568E-005  
  812.50  0.0000E+000  
  813.00  0.0000E+000  
  813.50  2.4961E-005  
  814.00  5.9368E-005  
  814.50  2.8680E-005  
  815.00  0.0000E+000  
  815.50  0.0000E+000  
  816.00  0.0000E+000  
  816.50  0.0000E+000  
  817.00  2.9231E-006  
  817.50  8.5519E-005  
  818.00  6.6985E-005  
  818.50  0.0000E+000  
  819.00  6.6256E-006  
  819.50  2.6152E-005  
  820.00  2.0377E-006  
  820.50  0.0000E+000  
  821.00  0.0000E+000  
  821.50  0.0000E+000  
  822.00  9.6012E-006  
  822.50  1.2120E-005  
  823.00  1.8457E-005  
  823.50  1.2897E-005  
  824.00  9.0399E-005  
  824.50  7.0335E-005  
  825.00  6.2192E-006  
  825.50  0.0000E+000  
  826.00  0.0000E+000  
  826.50  5.6601E-005  
  827.00  4.7090E-005  
  827.50  4.3165E-006  
  828.00  0.0000E+000  
  828.50  0.0000E+000  
  829.00  0.0000E+000  
  829.50  0.0000E+000  
  830.00  0.0000E+000  
  830.50  4.6263E-005  
  831.00  6.0006E-005  
  831.50  8.5774E-005  
  832.00  9.9978E-005  
  832.50  1.3396E-004  
  833.00  1.4452E-004  
  833.50  5.6946E-005  
  834.00  5.8425E-005  
  834.50  3.5697E-005  
  835.00  4.5307E-005  
  835.50  1.2673E-004  
  836.00  7.5564E-005  
  836.50  4.6243E-005  
  837.00  5.1188E-005  
  837.50  2.0801E-005  
  838.00  0.0000E+000  
  838.50  2.8265E-007  
  839.00  7.3704E-005  
  839.50  2.0076E-005  
  840.00  0.0000E+000  
  840.50  0.0000E+000  
  841.00  0.0000E+000  
  841.50  0.0000E+000  
  842.00  0.0000E+000  
  842.50  2.4048E-005  
  843.00  1.4991E-004  
  843.50  1.3781E-004  
  844.00  1.1950E-004  
  844.50  1.8158E-004  
  845.00  2.7015E-004  
  845.50  1.5224E-004  
  846.00  3.4708E-006  
  846.50  7.2937E-005  
  847.00  1.3857E-004  
  847.50  1.4897E-004  
  848.00  1.7126E-004  
  848.50  1.8462E-004  
  849.00  1.5132E-004  
  849.50  8.1088E-005  
  850.00  0.0000E+000  
  850.50  4.5468E-005  
  851.00  1.4374E-004  
  851.50  3.1474E-005  
  852.00  0.0000E+000  
  852.50  0.0000E+000  
  853.00  0.0000E+000  
  853.50  1.5764E-005  
  854.00  1.6805E-004  
  854.50  1.7406E-004  
  855.00  1.9698E-005  
  855.50  0.0000E+000  
  856.00  0.0000E+000  
  856.50  0.0000E+000  
  857.00  1.3273E-005  
  857.50  0.0000E+000  
  858.00  0.0000E+000  
  858.50  0.0000E+000  
  859.00  2.8685E-006  
  859.50  6.5912E-005  
  860.00  4.1456E-005  
  860.50  0.0000E+000  
  861.00  0.0000E+000  
  861.50  0.0000E+000  
  862.00  3.2130E-005  
  862.50  4.9671E-005  
  863.00  1.1505E-006  
  863.50  0.0000E+000  
  864.00  0.0000E+000  
  864.50  0.0000E+000  
  865.00  0.0000E+000  
  865.50  0.0000E+000  
  866.00  0.0000E+000  
  866.50  0.0000E+000  
  867.00  0.0000E+000  
  867.50  0.0000E+000  
  868.00  0.0000E+000  
  868.50  1.3652E-006  
  869.00  0.0000E+000  
  869.50  0.0000E+000  
  870.00  0.0000E+000  
  870.50  0.0000E+000  
  871.00  0.0000E+000  
  871.50  0.0000E+000  
  872.00  0.0000E+000  
  872.50  0.0000E+000  
  873.00  0.0000E+000  
  873.50  9.7788E-006  
  874.00  1.7135E-004  
  874.50  2.5322E-004  
  875.00  0.0000E+000  
  875.50  0.0000E+000  
  876.00  8.2670E-005  
  876.50  1.8585E-004  
  877.00  0.0000E+000  
  877.50  0.0000E+000  
  878.00  0.0000E+000  
  878.50  8.0391E-006  
  879.00  1.1728E-005  
  879.50  0.0000E+000  
  880.00  0.0000E+000  
  880.50  0.0000E+000  
  881.00  0.0000E+000  
  881.50  0.0000E+000  
  882.00  2.1487E-005  
  882.50  2.3162E-004  
  883.00  5.7662E-005  
  883.50  0.0000E+000  
  884.00  0.0000E+000  
  884.50  0.0000E+000  
  885.00  2.4805E-005  
  885.50  1.9275E-004  
  886.00  4.9443E-005  
  886.50  0.0000E+000  
  887.00  1.0358E-005  
  887.50  1.9792E-004  
  888.00  1.7984E-004  
  888.50  1.7189E-004  
  889.00  4.0846E-004  
  889.50  4.8233E-004  
  890.00  2.4845E-004  
  890.50  4.4400E-006  
  891.00  0.0000E+000  
  891.50  0.0000E+000  
  892.00  0.0000E+000  
  892.50  1.5234E-005  
  893.00  1.9027E-004  
  893.50  2.4367E-004  
  894.00  1.7196E-004  
  894.50  6.9747E-005  
  895.00  0.0000E+000  
  895.50  1.0186E-004  
  896.00  2.5493E-004  
  896.50  2.0539E-004  
  897.00  1.2466E-004  
  897.50  0.0000E+000  
  898.00  0.0000E+000  
  898.50  0.0000E+000  
  899.00  0.0000E+000  
  899.50  0.0000E+000  
