
# From lspdd.org
# 
# Name: LFC Globe Twister Domestique
# Indice spectral Valeur 
# MSI 0.46 
# SLI 0.62 
# IPI 0.63 
# Pourcentage de bleu 26.4 
# Caractéristique Valeur 
# CCT calculée (K) 3692 
# CCT du fabricant (K) 4100 
# Tension (V) 120 
# Puissance (W) 13.0 
# Efficacité lumineuse (Lum/W) 69.2 
#
# Image: '/app/system/img_1s/2504/medium_image1.JPG?1413485995'
# 

  273.00  0.0000E+000  
  273.50  0.0000E+000  
  274.00  0.0000E+000  
  274.50  0.0000E+000  
  275.00  0.0000E+000  
  275.50  0.0000E+000  
  276.00  0.0000E+000  
  276.50  0.0000E+000  
  277.00  0.0000E+000  
  277.50  0.0000E+000  
  278.00  0.0000E+000  
  278.50  0.0000E+000  
  279.00  0.0000E+000  
  279.50  0.0000E+000  
  280.00  0.0000E+000  
  280.50  0.0000E+000  
  281.00  0.0000E+000  
  281.50  0.0000E+000  
  282.00  0.0000E+000  
  282.50  0.0000E+000  
  283.00  0.0000E+000  
  283.50  0.0000E+000  
  284.00  0.0000E+000  
  284.50  0.0000E+000  
  285.00  0.0000E+000  
  285.50  0.0000E+000  
  286.00  0.0000E+000  
  286.50  0.0000E+000  
  287.00  0.0000E+000  
  287.50  0.0000E+000  
  288.00  0.0000E+000  
  288.50  0.0000E+000  
  289.00  0.0000E+000  
  289.50  0.0000E+000  
  290.00  0.0000E+000  
  290.50  0.0000E+000  
  291.00  0.0000E+000  
  291.50  0.0000E+000  
  292.00  0.0000E+000  
  292.50  0.0000E+000  
  293.00  0.0000E+000  
  293.50  0.0000E+000  
  294.00  0.0000E+000  
  294.50  0.0000E+000  
  295.00  0.0000E+000  
  295.50  0.0000E+000  
  296.00  0.0000E+000  
  296.50  0.0000E+000  
  297.00  0.0000E+000  
  297.50  0.0000E+000  
  298.00  0.0000E+000  
  298.50  0.0000E+000  
  299.00  0.0000E+000  
  299.50  0.0000E+000  
  300.00  0.0000E+000  
  300.50  0.0000E+000  
  301.00  0.0000E+000  
  301.50  0.0000E+000  
  302.00  0.0000E+000  
  302.50  0.0000E+000  
  303.00  0.0000E+000  
  303.50  0.0000E+000  
  304.00  0.0000E+000  
  304.50  4.1253E-007  
  305.00  7.2526E-006  
  305.50  2.1732E-005  
  306.00  3.7973E-005  
  306.50  4.4403E-005  
  307.00  3.6093E-005  
  307.50  1.4008E-005  
  308.00  6.8364E-006  
  308.50  1.0790E-005  
  309.00  1.5933E-005  
  309.50  4.2782E-005  
  310.00  6.2817E-005  
  310.50  7.2483E-005  
  311.00  6.5459E-005  
  311.50  5.1954E-005  
  312.00  1.1608E-005  
  312.50  0.0000E+000  
  313.00  0.0000E+000  
  313.50  0.0000E+000  
  314.00  0.0000E+000  
  314.50  0.0000E+000  
  315.00  0.0000E+000  
  315.50  0.0000E+000  
  316.00  2.4204E-005  
  316.50  4.0218E-005  
  317.00  5.8945E-005  
  317.50  9.9604E-005  
  318.00  1.0860E-004  
  318.50  9.3074E-005  
  319.00  9.1156E-005  
  319.50  7.2912E-005  
  320.00  4.6870E-005  
  320.50  2.3675E-005  
  321.00  0.0000E+000  
  321.50  0.0000E+000  
  322.00  0.0000E+000  
  322.50  0.0000E+000  
  323.00  0.0000E+000  
  323.50  0.0000E+000  
  324.00  2.9886E-005  
  324.50  2.6352E-005  
  325.00  3.7211E-006  
  325.50  0.0000E+000  
  326.00  0.0000E+000  
  326.50  0.0000E+000  
  327.00  0.0000E+000  
  327.50  0.0000E+000  
  328.00  0.0000E+000  
  328.50  0.0000E+000  
  329.00  0.0000E+000  
  329.50  0.0000E+000  
  330.00  2.6533E-006  
  330.50  4.1694E-005  
  331.00  7.1195E-005  
  331.50  8.4369E-005  
  332.00  8.0989E-005  
  332.50  6.1790E-005  
  333.00  4.0406E-005  
  333.50  2.3306E-005  
  334.00  3.3193E-005  
  334.50  5.6108E-005  
  335.00  4.7018E-005  
  335.50  4.2610E-005  
  336.00  3.4436E-005  
  336.50  2.2837E-005  
  337.00  4.5523E-005  
  337.50  5.1721E-005  
  338.00  3.2486E-005  
  338.50  2.7908E-005  
  339.00  9.5703E-006  
  339.50  0.0000E+000  
  340.00  0.0000E+000  
  340.50  0.0000E+000  
  341.00  0.0000E+000  
  341.50  0.0000E+000  
  342.00  0.0000E+000  
  342.50  0.0000E+000  
  343.00  0.0000E+000  
  343.50  9.8688E-006  
  344.00  9.2111E-006  
  344.50  4.3595E-006  
  345.00  1.9236E-005  
  345.50  4.9285E-005  
  346.00  6.5119E-005  
  346.50  8.2145E-005  
  347.00  5.0510E-005  
  347.50  2.6702E-005  
  348.00  1.9229E-005  
  348.50  3.0496E-005  
  349.00  3.9243E-005  
  349.50  3.5518E-005  
  350.00  3.7198E-005  
  350.50  3.5577E-005  
  351.00  2.7541E-005  
  351.50  1.8635E-005  
  352.00  4.4955E-006  
  352.50  0.0000E+000  
  353.00  0.0000E+000  
  353.50  0.0000E+000  
  354.00  0.0000E+000  
  354.50  1.9768E-006  
  355.00  3.3427E-005  
  355.50  5.9754E-005  
  356.00  7.0722E-005  
  356.50  4.2783E-005  
  357.00  2.8201E-007  
  357.50  0.0000E+000  
  358.00  0.0000E+000  
  358.50  2.3847E-006  
  359.00  2.2748E-005  
  359.50  2.5989E-005  
  360.00  1.1020E-005  
  360.50  0.0000E+000  
  361.00  0.0000E+000  
  361.50  0.0000E+000  
  362.00  0.0000E+000  
  362.50  1.1569E-005  
  363.00  5.0585E-005  
  363.50  1.3741E-004  
  364.00  2.6380E-004  
  364.50  3.8042E-004  
  365.00  4.4229E-004  
  365.50  4.2246E-004  
  366.00  3.1242E-004  
  366.50  2.0366E-004  
  367.00  1.2798E-004  
  367.50  7.2425E-005  
  368.00  4.9120E-005  
  368.50  2.9812E-005  
  369.00  9.0051E-006  
  369.50  1.7203E-005  
  370.00  3.7544E-005  
  370.50  6.4441E-005  
  371.00  8.8461E-005  
  371.50  6.9236E-005  
  372.00  3.7068E-005  
  372.50  1.6557E-005  
  373.00  1.3166E-006  
  373.50  0.0000E+000  
  374.00  0.0000E+000  
  374.50  0.0000E+000  
  375.00  0.0000E+000  
  375.50  0.0000E+000  
  376.00  0.0000E+000  
  376.50  1.5938E-005  
  377.00  2.8441E-005  
  377.50  1.3212E-005  
  378.00  1.2223E-005  
  378.50  0.0000E+000  
  379.00  0.0000E+000  
  379.50  1.3625E-005  
  380.00  2.9723E-005  
  380.50  5.2718E-005  
  381.00  7.5934E-005  
  381.50  7.2343E-005  
  382.00  4.5161E-005  
  382.50  3.8144E-005  
  383.00  5.4343E-005  
  383.50  8.8567E-005  
  384.00  9.9287E-005  
  384.50  7.0483E-005  
  385.00  1.4977E-005  
  385.50  0.0000E+000  
  386.00  2.3129E-005  
  386.50  4.8194E-005  
  387.00  6.4404E-005  
  387.50  2.7595E-005  
  388.00  0.0000E+000  
  388.50  0.0000E+000  
  389.00  0.0000E+000  
  389.50  1.8857E-005  
  390.00  2.0107E-005  
  390.50  1.7714E-005  
  391.00  2.6999E-005  
  391.50  2.3552E-005  
  392.00  9.5773E-006  
  392.50  4.3262E-006  
  393.00  2.6016E-007  
  393.50  0.0000E+000  
  394.00  0.0000E+000  
  394.50  6.6415E-008  
  395.00  2.5727E-005  
  395.50  4.5569E-005  
  396.00  5.1576E-005  
  396.50  4.6807E-005  
  397.00  3.2327E-005  
  397.50  1.9278E-005  
  398.00  2.8884E-005  
  398.50  5.2902E-005  
  399.00  4.3219E-005  
  399.50  6.3888E-005  
  400.00  6.4518E-005  
  400.50  5.2059E-005  
  401.00  7.2015E-005  
  401.50  5.1137E-005  
  402.00  2.6991E-005  
  402.50  4.2863E-005  
  403.00  1.2964E-004  
  403.50  3.4257E-004  
  404.00  5.8437E-004  
  404.50  6.9759E-004  
  405.00  6.3205E-004  
  405.50  4.3478E-004  
  406.00  2.5221E-004  
  406.50  1.6207E-004  
  407.00  1.2955E-004  
  407.50  9.2168E-005  
  408.00  5.3494E-005  
  408.50  1.6537E-005  
  409.00  2.8524E-005  
  409.50  5.6953E-005  
  410.00  9.0387E-005  
  410.50  1.0474E-004  
  411.00  9.3252E-005  
  411.50  1.0475E-004  
  412.00  9.6330E-005  
  412.50  8.1857E-005  
  413.00  9.3044E-005  
  413.50  9.6084E-005  
  414.00  1.1273E-004  
  414.50  1.2985E-004  
  415.00  1.0622E-004  
  415.50  9.6917E-005  
  416.00  9.1125E-005  
  416.50  6.4926E-005  
  417.00  5.5666E-005  
  417.50  6.4284E-005  
  418.00  7.0818E-005  
  418.50  1.1109E-004  
  419.00  1.2972E-004  
  419.50  1.2011E-004  
  420.00  1.0698E-004  
  420.50  8.4816E-005  
  421.00  8.2927E-005  
  421.50  1.1015E-004  
  422.00  1.3551E-004  
  422.50  1.5661E-004  
  423.00  1.5596E-004  
  423.50  1.5025E-004  
  424.00  1.3356E-004  
  424.50  1.4413E-004  
  425.00  1.8195E-004  
  425.50  2.1335E-004  
  426.00  2.1773E-004  
  426.50  1.8898E-004  
  427.00  1.3259E-004  
  427.50  1.1516E-004  
  428.00  1.2589E-004  
  428.50  1.4911E-004  
  429.00  1.7692E-004  
  429.50  2.0275E-004  
  430.00  2.0151E-004  
  430.50  2.1000E-004  
  431.00  2.0773E-004  
  431.50  2.4982E-004  
  432.00  3.0237E-004  
  432.50  3.3680E-004  
  433.00  3.3209E-004  
  433.50  3.6853E-004  
  434.00  6.5823E-004  
  434.50  1.4372E-003  
  435.00  2.4282E-003  
  435.50  3.1229E-003  
  436.00  3.0019E-003  
  436.50  2.2466E-003  
  437.00  1.3470E-003  
  437.50  7.1739E-004  
  438.00  4.5593E-004  
  438.50  3.5215E-004  
  439.00  3.1482E-004  
  439.50  2.8051E-004  
  440.00  2.6364E-004  
  440.50  2.8128E-004  
  441.00  3.0099E-004  
  441.50  3.3297E-004  
  442.00  3.5229E-004  
  442.50  3.3852E-004  
  443.00  3.1749E-004  
  443.50  3.0988E-004  
  444.00  3.0573E-004  
  444.50  3.2868E-004  
  445.00  3.5302E-004  
  445.50  3.6777E-004  
  446.00  3.5457E-004  
  446.50  3.4325E-004  
  447.00  3.3094E-004  
  447.50  3.2832E-004  
  448.00  3.1216E-004  
  448.50  2.7471E-004  
  449.00  2.6430E-004  
  449.50  3.0052E-004  
  450.00  3.4837E-004  
  450.50  3.8923E-004  
  451.00  3.8820E-004  
  451.50  3.6195E-004  
  452.00  3.6606E-004  
  452.50  3.7044E-004  
  453.00  3.7926E-004  
  453.50  3.6224E-004  
  454.00  3.1243E-004  
  454.50  2.9156E-004  
  455.00  2.8301E-004  
  455.50  2.9215E-004  
  456.00  3.0261E-004  
  456.50  2.9912E-004  
  457.00  2.8806E-004  
  457.50  2.7500E-004  
  458.00  2.7685E-004  
  458.50  2.9192E-004  
  459.00  3.1511E-004  
  459.50  3.2946E-004  
  460.00  3.4616E-004  
  460.50  3.4809E-004  
  461.00  3.3548E-004  
  461.50  3.3192E-004  
  462.00  3.1329E-004  
  462.50  2.9864E-004  
  463.00  2.8011E-004  
  463.50  2.6511E-004  
  464.00  2.7310E-004  
  464.50  3.0404E-004  
  465.00  3.0948E-004  
  465.50  3.0820E-004  
  466.00  2.9247E-004  
  466.50  2.8780E-004  
  467.00  2.7834E-004  
  467.50  2.7208E-004  
  468.00  2.5822E-004  
  468.50  2.4535E-004  
  469.00  2.5406E-004  
  469.50  2.5510E-004  
  470.00  2.5567E-004  
  470.50  2.4250E-004  
  471.00  2.3939E-004  
  471.50  2.3263E-004  
  472.00  2.4701E-004  
  472.50  2.2124E-004  
  473.00  2.1779E-004  
  473.50  2.3013E-004  
  474.00  2.5620E-004  
  474.50  2.8159E-004  
  475.00  2.8160E-004  
  475.50  2.6069E-004  
  476.00  2.4481E-004  
  476.50  2.4007E-004  
  477.00  2.1700E-004  
  477.50  2.0093E-004  
  478.00  2.0385E-004  
  478.50  2.2183E-004  
  479.00  2.4557E-004  
  479.50  2.5891E-004  
  480.00  2.6848E-004  
  480.50  2.8918E-004  
  481.00  2.9736E-004  
  481.50  2.9761E-004  
  482.00  3.1015E-004  
  482.50  3.2904E-004  
  483.00  3.6857E-004  
  483.50  4.0534E-004  
  484.00  4.4886E-004  
  484.50  5.1639E-004  
  485.00  5.9489E-004  
  485.50  6.7075E-004  
  486.00  7.0360E-004  
  486.50  7.0034E-004  
  487.00  6.7933E-004  
  487.50  6.6185E-004  
  488.00  6.4694E-004  
  488.50  6.2341E-004  
  489.00  5.9138E-004  
  489.50  5.6175E-004  
  490.00  5.3306E-004  
  490.50  5.1466E-004  
  491.00  5.0911E-004  
  491.50  5.0444E-004  
  492.00  4.7323E-004  
  492.50  4.4990E-004  
  493.00  4.2256E-004  
  493.50  4.1168E-004  
  494.00  4.1055E-004  
  494.50  3.9472E-004  
  495.00  3.7224E-004  
  495.50  3.4845E-004  
  496.00  3.2603E-004  
  496.50  3.2182E-004  
  497.00  3.1341E-004  
  497.50  2.9841E-004  
  498.00  2.8189E-004  
  498.50  2.5574E-004  
  499.00  2.3794E-004  
  499.50  2.2430E-004  
  500.00  2.1351E-004  
  500.50  2.0715E-004  
  501.00  1.9489E-004  
  501.50  1.7801E-004  
  502.00  1.6402E-004  
  502.50  1.5864E-004  
  503.00  1.6163E-004  
  503.50  1.6511E-004  
  504.00  1.5878E-004  
  504.50  1.4772E-004  
  505.00  1.5264E-004  
  505.50  1.6167E-004  
  506.00  1.7894E-004  
  506.50  1.8951E-004  
  507.00  2.0130E-004  
  507.50  1.9591E-004  
  508.00  1.7472E-004  
  508.50  1.5074E-004  
  509.00  1.3975E-004  
  509.50  1.5066E-004  
  510.00  1.7233E-004  
  510.50  1.7846E-004  
  511.00  1.7892E-004  
  511.50  1.7481E-004  
  512.00  1.8520E-004  
  512.50  1.9350E-004  
  513.00  2.0119E-004  
  513.50  1.9184E-004  
  514.00  1.9132E-004  
  514.50  1.7931E-004  
  515.00  1.7947E-004  
  515.50  1.7542E-004  
  516.00  1.8628E-004  
  516.50  1.9594E-004  
  517.00  2.0535E-004  
  517.50  2.0977E-004  
  518.00  2.0140E-004  
  518.50  1.8480E-004  
  519.00  1.6814E-004  
  519.50  1.4945E-004  
  520.00  1.4773E-004  
  520.50  1.4757E-004  
  521.00  1.5373E-004  
  521.50  1.5184E-004  
  522.00  1.4615E-004  
  522.50  1.5241E-004  
  523.00  1.5628E-004  
  523.50  1.6305E-004  
  524.00  1.5015E-004  
  524.50  1.4134E-004  
  525.00  1.3332E-004  
  525.50  1.3231E-004  
  526.00  1.4254E-004  
  526.50  1.5493E-004  
  527.00  1.6611E-004  
  527.50  1.5893E-004  
  528.00  1.3931E-004  
  528.50  1.3407E-004  
  529.00  1.4248E-004  
  529.50  1.5531E-004  
  530.00  1.5385E-004  
  530.50  1.3908E-004  
  531.00  1.3526E-004  
  531.50  1.5479E-004  
  532.00  1.7556E-004  
  532.50  1.9241E-004  
  533.00  1.9285E-004  
  533.50  1.9109E-004  
  534.00  1.9443E-004  
  534.50  2.0145E-004  
  535.00  2.0915E-004  
  535.50  2.2029E-004  
  536.00  2.3848E-004  
  536.50  3.0458E-004  
  537.00  3.9489E-004  
  537.50  5.0264E-004  
  538.00  5.9625E-004  
  538.50  7.0182E-004  
  539.00  8.7951E-004  
  539.50  1.1658E-003  
  540.00  1.6115E-003  
  540.50  2.1985E-003  
  541.00  2.7716E-003  
  541.50  3.1491E-003  
  542.00  3.1979E-003  
  542.50  3.0261E-003  
  543.00  2.8366E-003  
  543.50  2.7454E-003  
  544.00  2.8480E-003  
  544.50  3.2354E-003  
  545.00  3.9692E-003  
  545.50  4.6993E-003  
  546.00  4.8006E-003  
  546.50  4.2431E-003  
  547.00  3.2723E-003  
  547.50  2.4471E-003  
  548.00  1.9696E-003  
  548.50  1.6778E-003  
  549.00  1.4821E-003  
  549.50  1.3181E-003  
  550.00  1.1688E-003  
  550.50  1.0101E-003  
  551.00  8.5817E-004  
  551.50  7.4139E-004  
  552.00  6.5860E-004  
  552.50  5.9213E-004  
  553.00  5.2004E-004  
  553.50  4.4689E-004  
  554.00  3.6539E-004  
  554.50  3.0820E-004  
  555.00  2.6036E-004  
  555.50  2.3456E-004  
  556.00  2.2388E-004  
  556.50  2.1637E-004  
  557.00  2.1891E-004  
  557.50  2.0383E-004  
  558.00  1.6804E-004  
  558.50  1.3600E-004  
  559.00  1.1588E-004  
  559.50  1.1642E-004  
  560.00  1.2293E-004  
  560.50  1.2159E-004  
  561.00  1.1721E-004  
  561.50  1.1010E-004  
  562.00  9.5966E-005  
  562.50  8.3153E-005  
  563.00  8.7151E-005  
  563.50  8.9822E-005  
  564.00  1.0815E-004  
  564.50  1.1273E-004  
  565.00  1.2640E-004  
  565.50  1.2656E-004  
  566.00  1.1546E-004  
  566.50  1.0415E-004  
  567.00  8.5965E-005  
  567.50  8.1106E-005  
  568.00  7.1249E-005  
  568.50  6.3658E-005  
  569.00  6.0760E-005  
  569.50  6.3473E-005  
  570.00  6.6835E-005  
  570.50  7.1714E-005  
  571.00  8.0086E-005  
  571.50  8.2585E-005  
  572.00  7.8174E-005  
  572.50  6.8891E-005  
  573.00  7.6097E-005  
  573.50  9.5886E-005  
  574.00  1.1017E-004  
  574.50  1.1913E-004  
  575.00  1.5085E-004  
  575.50  2.4937E-004  
  576.00  4.1132E-004  
  576.50  5.4977E-004  
  577.00  6.1393E-004  
  577.50  5.8244E-004  
  578.00  5.8580E-004  
  578.50  6.3824E-004  
  579.00  6.9884E-004  
  579.50  6.7360E-004  
  580.00  6.0458E-004  
  580.50  5.3760E-004  
  581.00  5.2837E-004  
  581.50  5.7472E-004  
  582.00  6.4249E-004  
  582.50  7.0574E-004  
  583.00  7.3217E-004  
  583.50  7.4073E-004  
  584.00  7.4688E-004  
  584.50  7.2031E-004  
  585.00  6.8767E-004  
  585.50  6.6753E-004  
  586.00  7.1575E-004  
  586.50  8.2790E-004  
  587.00  9.2874E-004  
  587.50  9.3264E-004  
  588.00  8.2896E-004  
  588.50  6.7298E-004  
  589.00  5.4795E-004  
  589.50  4.6530E-004  
  590.00  4.4333E-004  
  590.50  4.5802E-004  
  591.00  5.0063E-004  
  591.50  5.6774E-004  
  592.00  6.5276E-004  
  592.50  7.6144E-004  
  593.00  8.3493E-004  
  593.50  7.9829E-004  
  594.00  6.6846E-004  
  594.50  4.9546E-004  
  595.00  3.9095E-004  
  595.50  3.5503E-004  
  596.00  3.5054E-004  
  596.50  3.3814E-004  
  597.00  3.2289E-004  
  597.50  3.5535E-004  
  598.00  4.1943E-004  
  598.50  5.0858E-004  
  599.00  5.7351E-004  
  599.50  5.8806E-004  
  600.00  5.4991E-004  
  600.50  4.6139E-004  
  601.00  3.7517E-004  
  601.50  3.1758E-004  
  602.00  2.7387E-004  
  602.50  2.4400E-004  
  603.00  2.0989E-004  
  603.50  2.0313E-004  
  604.00  2.1474E-004  
  604.50  2.0989E-004  
  605.00  2.1638E-004  
  605.50  2.5473E-004  
  606.00  3.0886E-004  
  606.50  3.6604E-004  
  607.00  3.9889E-004  
  607.50  4.7853E-004  
  608.00  5.9970E-004  
  608.50  8.2550E-004  
  609.00  1.2144E-003  
  609.50  2.0938E-003  
  610.00  3.5560E-003  
  610.50  5.4150E-003  
  611.00  6.7897E-003  
  611.50  7.0189E-003  
  612.00  6.0008E-003  
  612.50  4.5966E-003  
  613.00  3.4619E-003  
  613.50  2.7755E-003  
  614.00  2.3706E-003  
  614.50  2.0719E-003  
  615.00  1.7977E-003  
  615.50  1.4934E-003  
  616.00  1.2007E-003  
  616.50  9.2855E-004  
  617.00  7.4801E-004  
  617.50  6.1906E-004  
  618.00  5.6809E-004  
  618.50  5.3326E-004  
  619.00  5.2248E-004  
  619.50  5.3376E-004  
  620.00  5.5079E-004  
  620.50  5.6844E-004  
  621.00  5.8365E-004  
  621.50  5.9119E-004  
  622.00  5.9178E-004  
  622.50  5.8135E-004  
  623.00  5.9365E-004  
  623.50  6.2598E-004  
  624.00  6.6183E-004  
  624.50  6.9213E-004  
  625.00  7.0811E-004  
  625.50  7.1441E-004  
  626.00  7.1879E-004  
  626.50  6.8831E-004  
  627.00  6.4627E-004  
  627.50  6.0840E-004  
  628.00  6.0294E-004  
  628.50  5.9579E-004  
  629.00  6.0234E-004  
  629.50  6.7842E-004  
  630.00  8.2381E-004  
  630.50  9.6340E-004  
  631.00  9.9443E-004  
  631.50  8.7245E-004  
  632.00  6.5795E-004  
  632.50  4.1491E-004  
  633.00  2.5785E-004  
  633.50  1.8265E-004  
  634.00  1.7673E-004  
  634.50  1.7675E-004  
  635.00  1.6855E-004  
  635.50  1.5930E-004  
  636.00  1.5878E-004  
  636.50  1.5908E-004  
  637.00  1.4130E-004  
  637.50  1.1813E-004  
  638.00  1.1604E-004  
  638.50  1.2786E-004  
  639.00  1.4207E-004  
  639.50  1.3014E-004  
  640.00  8.0245E-005  
  640.50  4.8582E-005  
  641.00  4.2398E-005  
  641.50  9.2818E-005  
  642.00  1.2152E-004  
  642.50  1.1902E-004  
  643.00  1.2180E-004  
  643.50  1.1322E-004  
  644.00  1.0737E-004  
  644.50  8.5169E-005  
  645.00  9.2166E-005  
  645.50  1.0503E-004  
  646.00  1.0724E-004  
  646.50  1.0292E-004  
  647.00  9.6670E-005  
  647.50  9.6754E-005  
  648.00  1.0343E-004  
  648.50  1.1948E-004  
  649.00  1.5832E-004  
  649.50  2.1590E-004  
  650.00  2.9187E-004  
  650.50  3.1383E-004  
  651.00  2.8525E-004  
  651.50  2.2353E-004  
  652.00  1.9131E-004  
  652.50  1.8743E-004  
  653.00  1.7563E-004  
  653.50  1.7627E-004  
  654.00  1.5143E-004  
  654.50  1.5622E-004  
  655.00  1.4787E-004  
  655.50  1.7358E-004  
  656.00  1.8829E-004  
  656.50  1.8053E-004  
  657.00  1.5102E-004  
  657.50  1.2429E-004  
  658.00  1.0409E-004  
  658.50  8.1603E-005  
  659.00  5.1162E-005  
  659.50  6.5502E-005  
  660.00  5.9029E-005  
  660.50  7.9830E-005  
  661.00  8.9685E-005  
  661.50  1.3143E-004  
  662.00  1.6011E-004  
  662.50  1.9321E-004  
  663.00  2.0893E-004  
  663.50  1.7942E-004  
  664.00  1.3471E-004  
  664.50  1.1264E-004  
  665.00  1.1838E-004  
  665.50  1.1718E-004  
  666.00  1.0072E-004  
  666.50  9.4098E-005  
  667.00  4.2300E-005  
  667.50  1.8661E-005  
  668.00  4.2490E-006  
  668.50  4.2862E-005  
  669.00  6.2080E-005  
  669.50  7.5520E-005  
  670.00  8.2732E-005  
  670.50  5.8558E-005  
  671.00  1.9023E-005  
  671.50  1.6947E-006  
  672.00  3.9775E-005  
  672.50  7.1935E-005  
  673.00  7.0893E-005  
  673.50  5.2383E-005  
  674.00  3.8930E-005  
  674.50  1.7349E-005  
  675.00  2.4014E-007  
  675.50  0.0000E+000  
  676.00  0.0000E+000  
  676.50  7.1713E-006  
  677.00  1.0289E-005  
  677.50  2.0004E-005  
  678.00  4.1666E-005  
  678.50  6.4162E-005  
  679.00  7.2735E-005  
  679.50  6.1852E-005  
  680.00  8.4456E-005  
  680.50  1.3184E-004  
  681.00  1.3326E-004  
  681.50  1.0987E-004  
  682.00  9.1830E-005  
  682.50  8.9959E-005  
  683.00  1.1951E-004  
  683.50  1.3394E-004  
  684.00  1.3229E-004  
  684.50  1.0773E-004  
  685.00  8.0533E-005  
  685.50  6.5061E-005  
  686.00  4.8879E-005  
  686.50  7.4071E-005  
  687.00  1.2925E-004  
  687.50  1.5118E-004  
  688.00  1.2146E-004  
  688.50  8.8215E-005  
  689.00  7.9801E-005  
  689.50  6.3517E-005  
  690.00  2.4575E-005  
  690.50  6.1935E-006  
  691.00  1.9169E-005  
  691.50  3.2951E-005  
  692.00  5.3016E-005  
  692.50  8.0822E-005  
  693.00  1.1882E-004  
  693.50  1.7834E-004  
  694.00  1.9361E-004  
  694.50  2.0606E-004  
  695.00  1.3813E-004  
  695.50  9.7027E-005  
  696.00  1.0915E-004  
  696.50  1.7802E-004  
  697.00  1.8812E-004  
  697.50  1.3674E-004  
  698.00  5.0216E-005  
  698.50  1.7181E-005  
  699.00  3.8616E-006  
  699.50  1.0545E-005  
  700.00  2.4851E-005  
  700.50  3.2355E-005  
  701.00  5.1717E-005  
  701.50  7.9072E-005  
  702.00  1.3114E-004  
  702.50  1.3700E-004  
  703.00  9.4750E-005  
  703.50  5.0263E-005  
  704.00  7.0741E-005  
  704.50  9.5534E-005  
  705.00  1.2490E-004  
  705.50  2.2408E-004  
  706.00  3.8078E-004  
  706.50  4.9089E-004  
  707.00  5.3074E-004  
  707.50  4.8441E-004  
  708.00  4.2994E-004  
  708.50  3.9661E-004  
  709.00  4.1762E-004  
  709.50  3.9774E-004  
  710.00  3.0054E-004  
  710.50  2.1045E-004  
  711.00  2.2752E-004  
  711.50  2.8265E-004  
  712.00  3.2990E-004  
  712.50  3.1095E-004  
  713.00  3.0160E-004  
  713.50  2.5723E-004  
  714.00  2.2912E-004  
  714.50  1.9830E-004  
  715.00  1.4752E-004  
  715.50  5.1799E-005  
  716.00  6.3555E-006  
  716.50  1.0120E-005  
  717.00  5.2246E-005  
  717.50  5.0876E-005  
  718.00  3.2119E-005  
  718.50  3.0232E-005  
  719.00  6.6085E-005  
  719.50  9.3413E-005  
  720.00  1.0916E-004  
  720.50  1.2193E-004  
  721.00  1.4746E-004  
  721.50  1.4107E-004  
  722.00  4.6075E-005  
  722.50  0.0000E+000  
  723.00  5.4236E-006  
  723.50  4.0342E-005  
  724.00  4.1675E-005  
  724.50  2.1109E-005  
  725.00  3.6736E-005  
  725.50  4.5979E-005  
  726.00  4.7004E-005  
  726.50  4.0347E-005  
  727.00  6.4515E-005  
  727.50  8.0169E-005  
  728.00  6.0406E-005  
  728.50  4.0782E-006  
  729.00  5.3421E-006  
  729.50  4.7946E-005  
  730.00  1.0197E-004  
  730.50  9.8209E-005  
  731.00  1.6478E-005  
  731.50  0.0000E+000  
  732.00  0.0000E+000  
  732.50  0.0000E+000  
  733.00  0.0000E+000  
  733.50  0.0000E+000  
  734.00  2.8192E-005  
  734.50  5.0027E-005  
  735.00  5.7658E-005  
  735.50  8.8171E-007  
  736.00  0.0000E+000  
  736.50  0.0000E+000  
  737.00  1.0109E-005  
  737.50  1.4006E-004  
  738.00  2.4769E-004  
  738.50  2.7450E-004  
  739.00  1.8739E-004  
  739.50  9.8844E-005  
  740.00  6.6414E-005  
  740.50  2.1404E-005  
  741.00  0.0000E+000  
  741.50  0.0000E+000  
  742.00  6.0370E-006  
  742.50  6.3735E-005  
  743.00  7.5171E-005  
  743.50  1.2910E-004  
  744.00  1.2292E-004  
  744.50  9.6381E-005  
  745.00  2.3654E-005  
  745.50  0.0000E+000  
  746.00  0.0000E+000  
  746.50  5.9063E-006  
  747.00  3.8022E-005  
  747.50  6.8335E-005  
  748.00  8.8659E-005  
  748.50  7.2012E-005  
  749.00  8.8059E-005  
  749.50  1.6676E-004  
  750.00  2.7400E-004  
  750.50  3.5850E-004  
  751.00  4.5449E-004  
  751.50  4.8367E-004  
  752.00  3.9139E-004  
  752.50  1.6179E-004  
  753.00  4.0612E-005  
  753.50  0.0000E+000  
  754.00  0.0000E+000  
  754.50  0.0000E+000  
  755.00  6.0312E-006  
  755.50  1.2752E-005  
  756.00  0.0000E+000  
  756.50  0.0000E+000  
  757.00  0.0000E+000  
  757.50  4.2901E-005  
  758.00  5.5672E-005  
  758.50  0.0000E+000  
  759.00  0.0000E+000  
  759.50  0.0000E+000  
  760.00  0.0000E+000  
  760.50  0.0000E+000  
  761.00  2.5840E-005  
  761.50  1.1540E-004  
  762.00  2.7872E-004  
  762.50  6.1194E-004  
  763.00  1.1132E-003  
  763.50  1.3388E-003  
  764.00  1.1902E-003  
  764.50  7.1697E-004  
  765.00  2.9288E-004  
  765.50  2.9365E-005  
  766.00  0.0000E+000  
  766.50  0.0000E+000  
  767.00  0.0000E+000  
  767.50  4.2447E-005  
  768.00  1.4068E-005  
  768.50  4.5398E-007  
  769.00  0.0000E+000  
  769.50  2.6837E-005  
  770.00  0.0000E+000  
  770.50  0.0000E+000  
  771.00  1.1257E-004  
  771.50  3.1981E-004  
  772.00  4.4591E-004  
  772.50  4.8280E-004  
  773.00  3.8293E-004  
  773.50  2.3152E-004  
  774.00  1.0869E-004  
  774.50  6.6013E-005  
  775.00  6.7326E-005  
  775.50  1.2276E-004  
  776.00  1.1459E-004  
  776.50  5.9883E-005  
  777.00  3.9833E-006  
  777.50  6.0527E-005  
  778.00  8.6694E-005  
  778.50  5.9044E-005  
  779.00  5.8394E-005  
  779.50  1.2060E-005  
  780.00  0.0000E+000  
  780.50  1.4039E-005  
  781.00  1.1279E-004  
  781.50  2.1292E-004  
  782.00  1.8110E-004  
  782.50  1.7781E-004  
  783.00  1.0908E-004  
  783.50  1.8157E-005  
  784.00  0.0000E+000  
  784.50  4.5706E-005  
  785.00  1.3584E-004  
  785.50  1.4207E-004  
  786.00  1.8624E-005  
  786.50  0.0000E+000  
  787.00  0.0000E+000  
  787.50  2.8576E-005  
  788.00  1.3576E-004  
  788.50  1.5641E-004  
  789.00  7.3488E-005  
  789.50  0.0000E+000  
  790.00  0.0000E+000  
  790.50  0.0000E+000  
  791.00  0.0000E+000  
  791.50  0.0000E+000  
  792.00  0.0000E+000  
  792.50  0.0000E+000  
  793.00  0.0000E+000  
  793.50  3.3511E-005  
  794.00  2.4582E-004  
  794.50  4.1933E-004  
  795.00  4.4838E-004  
  795.50  2.9411E-004  
  796.00  1.5152E-004  
  796.50  9.9887E-005  
  797.00  9.8381E-005  
  797.50  1.4270E-005  
  798.00  0.0000E+000  
  798.50  0.0000E+000  
  799.00  1.6866E-006  
  799.50  1.5394E-004  
  800.00  2.3580E-004  
  800.50  5.0498E-004  
  801.00  7.6165E-004  
  801.50  7.9343E-004  
  802.00  6.3080E-004  
  802.50  4.7954E-004  
  803.00  2.4582E-004  
  803.50  0.0000E+000  
  804.00  0.0000E+000  
  804.50  0.0000E+000  
  805.00  0.0000E+000  
  805.50  0.0000E+000  
  806.00  0.0000E+000  
  806.50  0.0000E+000  
  807.00  0.0000E+000  
  807.50  0.0000E+000  
  808.00  0.0000E+000  
  808.50  0.0000E+000  
  809.00  9.8074E-005  
  809.50  3.4960E-004  
  810.00  7.5864E-004  
  810.50  1.3614E-003  
  811.00  1.9712E-003  
  811.50  2.2709E-003  
  812.00  1.9871E-003  
  812.50  1.2217E-003  
  813.00  4.3940E-004  
  813.50  1.0364E-004  
  814.00  1.8958E-005  
  814.50  3.3033E-005  
  815.00  6.0031E-006  
  815.50  3.4364E-005  
  816.00  4.3465E-005  
  816.50  0.0000E+000  
  817.00  0.0000E+000  
  817.50  0.0000E+000  
  818.00  0.0000E+000  
  818.50  0.0000E+000  
  819.00  0.0000E+000  
  819.50  0.0000E+000  
  820.00  0.0000E+000  
  820.50  0.0000E+000  
  821.00  0.0000E+000  
  821.50  0.0000E+000  
  822.00  0.0000E+000  
  822.50  1.0110E-004  
  823.00  3.4099E-004  
  823.50  2.8758E-004  
  824.00  2.4460E-004  
  824.50  1.7562E-004  
  825.00  2.4192E-004  
  825.50  3.2744E-004  
  826.00  4.9139E-004  
  826.50  4.7354E-004  
  827.00  4.3078E-004  
  827.50  3.9334E-004  
  828.00  2.2995E-004  
  828.50  2.5224E-005  
  829.00  0.0000E+000  
  829.50  6.0194E-005  
  830.00  2.2717E-004  
  830.50  1.8298E-004  
  831.00  1.4716E-005  
  831.50  1.1211E-005  
  832.00  4.3240E-005  
  832.50  4.0356E-006  
  833.00  0.0000E+000  
  833.50  2.9538E-005  
  834.00  1.5676E-004  
  834.50  1.5261E-004  
  835.00  9.5639E-005  
  835.50  5.4880E-006  
  836.00  0.0000E+000  
  836.50  0.0000E+000  
  837.00  0.0000E+000  
  837.50  0.0000E+000  
  838.00  0.0000E+000  
  838.50  1.0265E-004  
  839.00  2.8161E-004  
  839.50  3.1917E-004  
  840.00  4.9809E-004  
  840.50  7.6866E-004  
  841.00  8.5848E-004  
  841.50  9.8354E-004  
  842.00  1.1741E-003  
  842.50  1.0670E-003  
  843.00  6.3268E-004  
  843.50  2.2361E-004  
  844.00  6.3366E-005  
  844.50  6.3086E-005  
  845.00  7.2358E-005  
  845.50  0.0000E+000  
  846.00  4.6307E-005  
  846.50  2.0073E-004  
  847.00  1.9348E-004  
  847.50  1.4287E-005  
  848.00  0.0000E+000  
  848.50  0.0000E+000  
  849.00  2.8150E-005  
  849.50  0.0000E+000  
  850.00  2.8110E-005  
  850.50  1.3216E-004  
  851.00  2.7206E-004  
  851.50  3.1472E-004  
  852.00  1.8774E-004  
  852.50  4.4342E-005  
  853.00  0.0000E+000  
  853.50  0.0000E+000  
  854.00  0.0000E+000  
  854.50  3.0146E-005  
  855.00  6.5826E-005  
  855.50  0.0000E+000  
  856.00  1.5450E-004  
  856.50  3.7571E-004  
  857.00  3.2335E-004  
  857.50  3.4250E-004  
  858.00  3.7560E-004  
  858.50  4.2147E-004  
  859.00  3.9279E-004  
  859.50  2.1920E-004  
  860.00  2.4037E-004  
  860.50  1.6727E-004  
  861.00  0.0000E+000  
  861.50  0.0000E+000  
  862.00  3.2603E-005  
  862.50  1.3046E-004  
  863.00  6.0127E-005  
  863.50  2.4297E-004  
  864.00  4.3893E-004  
  864.50  1.8117E-004  
  865.00  3.7633E-005  
  865.50  0.0000E+000  
  866.00  0.0000E+000  
  866.50  0.0000E+000  
  867.00  0.0000E+000  
  867.50  0.0000E+000  
  868.00  0.0000E+000  
  868.50  9.2912E-005  
  869.00  6.4997E-005  
  869.50  0.0000E+000  
  870.00  1.6763E-004  
  870.50  8.7360E-005  
  871.00  0.0000E+000  
  871.50  0.0000E+000  
  872.00  0.0000E+000  
  872.50  1.4037E-004  
  873.00  3.2088E-004  
  873.50  2.4092E-004  
  874.00  0.0000E+000  
  874.50  0.0000E+000  
  875.00  0.0000E+000  
  875.50  6.2130E-005  
  876.00  2.2701E-004  
  876.50  2.6060E-004  
  877.00  3.8258E-004  
  877.50  3.0731E-004  
  878.00  2.5315E-004  
  878.50  0.0000E+000  
  879.00  0.0000E+000  
  879.50  0.0000E+000  
  880.00  0.0000E+000  
  880.50  0.0000E+000  
  881.00  2.4788E-006  
  881.50  1.1385E-004  
  882.00  1.4076E-004  
  882.50  1.1105E-004  
  883.00  1.7008E-004  
  883.50  2.8809E-004  
  884.00  5.0421E-005  
  884.50  0.0000E+000  
  885.00  0.0000E+000  
  885.50  0.0000E+000  
  886.00  0.0000E+000  
  886.50  0.0000E+000  
  887.00  1.8875E-004  
  887.50  1.3193E-004  
  888.00  0.0000E+000  
  888.50  0.0000E+000  
  889.00  0.0000E+000  
  889.50  0.0000E+000  
  890.00  0.0000E+000  
  890.50  0.0000E+000  
  891.00  0.0000E+000  
  891.50  3.8122E-004  
  892.00  3.3722E-004  
  892.50  2.7499E-004  
  893.00  1.8156E-004  
  893.50  0.0000E+000  
  894.00  0.0000E+000  
  894.50  0.0000E+000  
  895.00  0.0000E+000  
  895.50  0.0000E+000  
  896.00  0.0000E+000  
  896.50  0.0000E+000  
  897.00  0.0000E+000  
  897.50  0.0000E+000  
  898.00  0.0000E+000  
  898.50  0.0000E+000  
  899.00  1.4070E-004  
  899.50  1.1365E-005  
