
# From lspdd.org
# 
# Name: DEL Philips A19 Domestique
# Indice spectral Valeur 
# MSI 0.23 
# SLI 0.44 
# IPI 0.65 
# Pourcentage de bleu 14.8 
# Caractéristique Valeur 
# CCT calculée (K) 2579 
# CCT du fabricant (K) 2700 
# Tension (V) 120 
# Puissance (W) 8.0 
# Efficacité lumineuse (Lum/W) 58.8 
#
# Image: '/app/system/img_2s/2506/medium_image2.JPG?1413486002'
# Image: '/app/system/img_1s/2506/medium_image1.JPG?1413486006'
# 

  273.00  0.0000E+000  
  273.50  0.0000E+000  
  274.00  0.0000E+000  
  274.50  0.0000E+000  
  275.00  0.0000E+000  
  275.50  0.0000E+000  
  276.00  0.0000E+000  
  276.50  0.0000E+000  
  277.00  0.0000E+000  
  277.50  0.0000E+000  
  278.00  0.0000E+000  
  278.50  0.0000E+000  
  279.00  0.0000E+000  
  279.50  0.0000E+000  
  280.00  0.0000E+000  
  280.50  0.0000E+000  
  281.00  0.0000E+000  
  281.50  0.0000E+000  
  282.00  0.0000E+000  
  282.50  0.0000E+000  
  283.00  0.0000E+000  
  283.50  0.0000E+000  
  284.00  0.0000E+000  
  284.50  0.0000E+000  
  285.00  0.0000E+000  
  285.50  0.0000E+000  
  286.00  0.0000E+000  
  286.50  0.0000E+000  
  287.00  0.0000E+000  
  287.50  0.0000E+000  
  288.00  0.0000E+000  
  288.50  0.0000E+000  
  289.00  0.0000E+000  
  289.50  0.0000E+000  
  290.00  0.0000E+000  
  290.50  0.0000E+000  
  291.00  0.0000E+000  
  291.50  0.0000E+000  
  292.00  0.0000E+000  
  292.50  0.0000E+000  
  293.00  0.0000E+000  
  293.50  0.0000E+000  
  294.00  0.0000E+000  
  294.50  0.0000E+000  
  295.00  0.0000E+000  
  295.50  0.0000E+000  
  296.00  0.0000E+000  
  296.50  0.0000E+000  
  297.00  0.0000E+000  
  297.50  0.0000E+000  
  298.00  0.0000E+000  
  298.50  0.0000E+000  
  299.00  0.0000E+000  
  299.50  0.0000E+000  
  300.00  0.0000E+000  
  300.50  0.0000E+000  
  301.00  0.0000E+000  
  301.50  0.0000E+000  
  302.00  0.0000E+000  
  302.50  0.0000E+000  
  303.00  0.0000E+000  
  303.50  0.0000E+000  
  304.00  0.0000E+000  
  304.50  0.0000E+000  
  305.00  0.0000E+000  
  305.50  0.0000E+000  
  306.00  0.0000E+000  
  306.50  0.0000E+000  
  307.00  0.0000E+000  
  307.50  0.0000E+000  
  308.00  0.0000E+000  
  308.50  0.0000E+000  
  309.00  0.0000E+000  
  309.50  0.0000E+000  
  310.00  0.0000E+000  
  310.50  0.0000E+000  
  311.00  0.0000E+000  
  311.50  0.0000E+000  
  312.00  0.0000E+000  
  312.50  0.0000E+000  
  313.00  0.0000E+000  
  313.50  0.0000E+000  
  314.00  0.0000E+000  
  314.50  0.0000E+000  
  315.00  0.0000E+000  
  315.50  0.0000E+000  
  316.00  0.0000E+000  
  316.50  0.0000E+000  
  317.00  0.0000E+000  
  317.50  0.0000E+000  
  318.00  0.0000E+000  
  318.50  0.0000E+000  
  319.00  0.0000E+000  
  319.50  0.0000E+000  
  320.00  0.0000E+000  
  320.50  0.0000E+000  
  321.00  0.0000E+000  
  321.50  0.0000E+000  
  322.00  0.0000E+000  
  322.50  0.0000E+000  
  323.00  0.0000E+000  
  323.50  0.0000E+000  
  324.00  0.0000E+000  
  324.50  0.0000E+000  
  325.00  0.0000E+000  
  325.50  0.0000E+000  
  326.00  0.0000E+000  
  326.50  0.0000E+000  
  327.00  0.0000E+000  
  327.50  0.0000E+000  
  328.00  0.0000E+000  
  328.50  0.0000E+000  
  329.00  0.0000E+000  
  329.50  0.0000E+000  
  330.00  0.0000E+000  
  330.50  0.0000E+000  
  331.00  0.0000E+000  
  331.50  0.0000E+000  
  332.00  0.0000E+000  
  332.50  0.0000E+000  
  333.00  0.0000E+000  
  333.50  0.0000E+000  
  334.00  0.0000E+000  
  334.50  0.0000E+000  
  335.00  0.0000E+000  
  335.50  0.0000E+000  
  336.00  0.0000E+000  
  336.50  0.0000E+000  
  337.00  0.0000E+000  
  337.50  0.0000E+000  
  338.00  0.0000E+000  
  338.50  0.0000E+000  
  339.00  0.0000E+000  
  339.50  0.0000E+000  
  340.00  0.0000E+000  
  340.50  0.0000E+000  
  341.00  0.0000E+000  
  341.50  0.0000E+000  
  342.00  0.0000E+000  
  342.50  0.0000E+000  
  343.00  0.0000E+000  
  343.50  0.0000E+000  
  344.00  0.0000E+000  
  344.50  0.0000E+000  
  345.00  0.0000E+000  
  345.50  0.0000E+000  
  346.00  0.0000E+000  
  346.50  0.0000E+000  
  347.00  0.0000E+000  
  347.50  0.0000E+000  
  348.00  0.0000E+000  
  348.50  0.0000E+000  
  349.00  0.0000E+000  
  349.50  0.0000E+000  
  350.00  0.0000E+000  
  350.50  0.0000E+000  
  351.00  0.0000E+000  
  351.50  0.0000E+000  
  352.00  0.0000E+000  
  352.50  0.0000E+000  
  353.00  0.0000E+000  
  353.50  0.0000E+000  
  354.00  0.0000E+000  
  354.50  0.0000E+000  
  355.00  0.0000E+000  
  355.50  0.0000E+000  
  356.00  0.0000E+000  
  356.50  0.0000E+000  
  357.00  0.0000E+000  
  357.50  0.0000E+000  
  358.00  0.0000E+000  
  358.50  0.0000E+000  
  359.00  0.0000E+000  
  359.50  0.0000E+000  
  360.00  0.0000E+000  
  360.50  0.0000E+000  
  361.00  0.0000E+000  
  361.50  0.0000E+000  
  362.00  0.0000E+000  
  362.50  0.0000E+000  
  363.00  0.0000E+000  
  363.50  0.0000E+000  
  364.00  0.0000E+000  
  364.50  0.0000E+000  
  365.00  0.0000E+000  
  365.50  0.0000E+000  
  366.00  0.0000E+000  
  366.50  0.0000E+000  
  367.00  0.0000E+000  
  367.50  0.0000E+000  
  368.00  0.0000E+000  
  368.50  0.0000E+000  
  369.00  0.0000E+000  
  369.50  0.0000E+000  
  370.00  0.0000E+000  
  370.50  0.0000E+000  
  371.00  0.0000E+000  
  371.50  0.0000E+000  
  372.00  0.0000E+000  
  372.50  0.0000E+000  
  373.00  0.0000E+000  
  373.50  0.0000E+000  
  374.00  0.0000E+000  
  374.50  0.0000E+000  
  375.00  0.0000E+000  
  375.50  0.0000E+000  
  376.00  0.0000E+000  
  376.50  0.0000E+000  
  377.00  0.0000E+000  
  377.50  0.0000E+000  
  378.00  0.0000E+000  
  378.50  0.0000E+000  
  379.00  0.0000E+000  
  379.50  0.0000E+000  
  380.00  0.0000E+000  
  380.50  0.0000E+000  
  381.00  0.0000E+000  
  381.50  0.0000E+000  
  382.00  0.0000E+000  
  382.50  0.0000E+000  
  383.00  0.0000E+000  
  383.50  0.0000E+000  
  384.00  0.0000E+000  
  384.50  0.0000E+000  
  385.00  0.0000E+000  
  385.50  0.0000E+000  
  386.00  0.0000E+000  
  386.50  0.0000E+000  
  387.00  0.0000E+000  
  387.50  0.0000E+000  
  388.00  0.0000E+000  
  388.50  0.0000E+000  
  389.00  0.0000E+000  
  389.50  0.0000E+000  
  390.00  0.0000E+000  
  390.50  0.0000E+000  
  391.00  0.0000E+000  
  391.50  0.0000E+000  
  392.00  0.0000E+000  
  392.50  0.0000E+000  
  393.00  0.0000E+000  
  393.50  0.0000E+000  
  394.00  0.0000E+000  
  394.50  0.0000E+000  
  395.00  0.0000E+000  
  395.50  0.0000E+000  
  396.00  0.0000E+000  
  396.50  0.0000E+000  
  397.00  0.0000E+000  
  397.50  0.0000E+000  
  398.00  0.0000E+000  
  398.50  0.0000E+000  
  399.00  0.0000E+000  
  399.50  0.0000E+000  
  400.00  0.0000E+000  
  400.50  0.0000E+000  
  401.00  0.0000E+000  
  401.50  0.0000E+000  
  402.00  0.0000E+000  
  402.50  0.0000E+000  
  403.00  0.0000E+000  
  403.50  0.0000E+000  
  404.00  0.0000E+000  
  404.50  0.0000E+000  
  405.00  0.0000E+000  
  405.50  0.0000E+000  
  406.00  0.0000E+000  
  406.50  0.0000E+000  
  407.00  0.0000E+000  
  407.50  0.0000E+000  
  408.00  0.0000E+000  
  408.50  0.0000E+000  
  409.00  0.0000E+000  
  409.50  0.0000E+000  
  410.00  0.0000E+000  
  410.50  0.0000E+000  
  411.00  0.0000E+000  
  411.50  0.0000E+000  
  412.00  2.3254E-006  
  412.50  0.0000E+000  
  413.00  3.4446E-005  
  413.50  1.1260E-004  
  414.00  1.4025E-004  
  414.50  1.6660E-004  
  415.00  1.5658E-004  
  415.50  1.3247E-004  
  416.00  1.5768E-004  
  416.50  1.7620E-004  
  417.00  2.5435E-004  
  417.50  3.3340E-004  
  418.00  4.1596E-004  
  418.50  4.4818E-004  
  419.00  4.5801E-004  
  419.50  4.9546E-004  
  420.00  5.6385E-004  
  420.50  6.6233E-004  
  421.00  7.3846E-004  
  421.50  8.0443E-004  
  422.00  8.7878E-004  
  422.50  9.7140E-004  
  423.00  1.0804E-003  
  423.50  1.1213E-003  
  424.00  1.1538E-003  
  424.50  1.2143E-003  
  425.00  1.3143E-003  
  425.50  1.4297E-003  
  426.00  1.4972E-003  
  426.50  1.5187E-003  
  427.00  1.5823E-003  
  427.50  1.6766E-003  
  428.00  1.8190E-003  
  428.50  1.9314E-003  
  429.00  2.0445E-003  
  429.50  2.1609E-003  
  430.00  2.2782E-003  
  430.50  2.3776E-003  
  431.00  2.4194E-003  
  431.50  2.4650E-003  
  432.00  2.5549E-003  
  432.50  2.6637E-003  
  433.00  2.7618E-003  
  433.50  2.7969E-003  
  434.00  2.8611E-003  
  434.50  3.0053E-003  
  435.00  3.1246E-003  
  435.50  3.1712E-003  
  436.00  3.1891E-003  
  436.50  3.2417E-003  
  437.00  3.4239E-003  
  437.50  3.5706E-003  
  438.00  3.6310E-003  
  438.50  3.6804E-003  
  439.00  3.7400E-003  
  439.50  3.8875E-003  
  440.00  4.0218E-003  
  440.50  4.1405E-003  
  441.00  4.2421E-003  
  441.50  4.3669E-003  
  442.00  4.4575E-003  
  442.50  4.5011E-003  
  443.00  4.5159E-003  
  443.50  4.4727E-003  
  444.00  4.5079E-003  
  444.50  4.5734E-003  
  445.00  4.6820E-003  
  445.50  4.7763E-003  
  446.00  4.7835E-003  
  446.50  4.8137E-003  
  447.00  4.8635E-003  
  447.50  4.9266E-003  
  448.00  4.9953E-003  
  448.50  5.0444E-003  
  449.00  4.9943E-003  
  449.50  4.9271E-003  
  450.00  4.8452E-003  
  450.50  4.8257E-003  
  451.00  4.8795E-003  
  451.50  4.9539E-003  
  452.00  4.9911E-003  
  452.50  5.0215E-003  
  453.00  5.0035E-003  
  453.50  4.9034E-003  
  454.00  4.8051E-003  
  454.50  4.7277E-003  
  455.00  4.7389E-003  
  455.50  4.7881E-003  
  456.00  4.8038E-003  
  456.50  4.8074E-003  
  457.00  4.8181E-003  
  457.50  4.8068E-003  
  458.00  4.7934E-003  
  458.50  4.7388E-003  
  459.00  4.6604E-003  
  459.50  4.6357E-003  
  460.00  4.6061E-003  
  460.50  4.6071E-003  
  461.00  4.5937E-003  
  461.50  4.4917E-003  
  462.00  4.4570E-003  
  462.50  4.3739E-003  
  463.00  4.3237E-003  
  463.50  4.2672E-003  
  464.00  4.1508E-003  
  464.50  4.0462E-003  
  465.00  3.9470E-003  
  465.50  3.8544E-003  
  466.00  3.7937E-003  
  466.50  3.7739E-003  
  467.00  3.7370E-003  
  467.50  3.7255E-003  
  468.00  3.6861E-003  
  468.50  3.6719E-003  
  469.00  3.6819E-003  
  469.50  3.7107E-003  
  470.00  3.7166E-003  
  470.50  3.6931E-003  
  471.00  3.6443E-003  
  471.50  3.5772E-003  
  472.00  3.5591E-003  
  472.50  3.5676E-003  
  473.00  3.5966E-003  
  473.50  3.5782E-003  
  474.00  3.5287E-003  
  474.50  3.4758E-003  
  475.00  3.3942E-003  
  475.50  3.3714E-003  
  476.00  3.3633E-003  
  476.50  3.4276E-003  
  477.00  3.4747E-003  
  477.50  3.4944E-003  
  478.00  3.4745E-003  
  478.50  3.4704E-003  
  479.00  3.4444E-003  
  479.50  3.4399E-003  
  480.00  3.4475E-003  
  480.50  3.4470E-003  
  481.00  3.4671E-003  
  481.50  3.4998E-003  
  482.00  3.5650E-003  
  482.50  3.6376E-003  
  483.00  3.6550E-003  
  483.50  3.6771E-003  
  484.00  3.6984E-003  
  484.50  3.7469E-003  
  485.00  3.7864E-003  
  485.50  3.8208E-003  
  486.00  3.8654E-003  
  486.50  3.9448E-003  
  487.00  4.0240E-003  
  487.50  4.0953E-003  
  488.00  4.1327E-003  
  488.50  4.1261E-003  
  489.00  4.1355E-003  
  489.50  4.1727E-003  
  490.00  4.2697E-003  
  490.50  4.3739E-003  
  491.00  4.4693E-003  
  491.50  4.5668E-003  
  492.00  4.6315E-003  
  492.50  4.7014E-003  
  493.00  4.7294E-003  
  493.50  4.7603E-003  
  494.00  4.8055E-003  
  494.50  4.8719E-003  
  495.00  4.9616E-003  
  495.50  5.0603E-003  
  496.00  5.1388E-003  
  496.50  5.2129E-003  
  497.00  5.2815E-003  
  497.50  5.3755E-003  
  498.00  5.4997E-003  
  498.50  5.6168E-003  
  499.00  5.6921E-003  
  499.50  5.7290E-003  
  500.00  5.7546E-003  
  500.50  5.7953E-003  
  501.00  5.8687E-003  
  501.50  5.9918E-003  
  502.00  6.1362E-003  
  502.50  6.2493E-003  
  503.00  6.3202E-003  
  503.50  6.3776E-003  
  504.00  6.4576E-003  
  504.50  6.5413E-003  
  505.00  6.6355E-003  
  505.50  6.7299E-003  
  506.00  6.8234E-003  
  506.50  6.8889E-003  
  507.00  6.9379E-003  
  507.50  6.9911E-003  
  508.00  7.0609E-003  
  508.50  7.1240E-003  
  509.00  7.2106E-003  
  509.50  7.2863E-003  
  510.00  7.3703E-003  
  510.50  7.4783E-003  
  511.00  7.5703E-003  
  511.50  7.6517E-003  
  512.00  7.7284E-003  
  512.50  7.8102E-003  
  513.00  7.9405E-003  
  513.50  8.0726E-003  
  514.00  8.1653E-003  
  514.50  8.2314E-003  
  515.00  8.2944E-003  
  515.50  8.3781E-003  
  516.00  8.4871E-003  
  516.50  8.5714E-003  
  517.00  8.6522E-003  
  517.50  8.7416E-003  
  518.00  8.8006E-003  
  518.50  8.8457E-003  
  519.00  8.8706E-003  
  519.50  8.9405E-003  
  520.00  9.0837E-003  
  520.50  9.2339E-003  
  521.00  9.3246E-003  
  521.50  9.3815E-003  
  522.00  9.4105E-003  
  522.50  9.4892E-003  
  523.00  9.5999E-003  
  523.50  9.7662E-003  
  524.00  9.9370E-003  
  524.50  1.0063E-002  
  525.00  1.0136E-002  
  525.50  1.0181E-002  
  526.00  1.0238E-002  
  526.50  1.0322E-002  
  527.00  1.0393E-002  
  527.50  1.0509E-002  
  528.00  1.0600E-002  
  528.50  1.0705E-002  
  529.00  1.0815E-002  
  529.50  1.0916E-002  
  530.00  1.1025E-002  
  530.50  1.1120E-002  
  531.00  1.1233E-002  
  531.50  1.1336E-002  
  532.00  1.1432E-002  
  532.50  1.1516E-002  
  533.00  1.1582E-002  
  533.50  1.1690E-002  
  534.00  1.1800E-002  
  534.50  1.1940E-002  
  535.00  1.2061E-002  
  535.50  1.2158E-002  
  536.00  1.2246E-002  
  536.50  1.2325E-002  
  537.00  1.2426E-002  
  537.50  1.2597E-002  
  538.00  1.2736E-002  
  538.50  1.2845E-002  
  539.00  1.2906E-002  
  539.50  1.2982E-002  
  540.00  1.3112E-002  
  540.50  1.3284E-002  
  541.00  1.3422E-002  
  541.50  1.3543E-002  
  542.00  1.3633E-002  
  542.50  1.3732E-002  
  543.00  1.3809E-002  
  543.50  1.3904E-002  
  544.00  1.3990E-002  
  544.50  1.4135E-002  
  545.00  1.4274E-002  
  545.50  1.4398E-002  
  546.00  1.4478E-002  
  546.50  1.4585E-002  
  547.00  1.4710E-002  
  547.50  1.4871E-002  
  548.00  1.5005E-002  
  548.50  1.5099E-002  
  549.00  1.5219E-002  
  549.50  1.5339E-002  
  550.00  1.5466E-002  
  550.50  1.5578E-002  
  551.00  1.5708E-002  
  551.50  1.5868E-002  
  552.00  1.6006E-002  
  552.50  1.6112E-002  
  553.00  1.6260E-002  
  553.50  1.6412E-002  
  554.00  1.6589E-002  
  554.50  1.6710E-002  
  555.00  1.6874E-002  
  555.50  1.6991E-002  
  556.00  1.7135E-002  
  556.50  1.7249E-002  
  557.00  1.7396E-002  
  557.50  1.7543E-002  
  558.00  1.7666E-002  
  558.50  1.7803E-002  
  559.00  1.7966E-002  
  559.50  1.8103E-002  
  560.00  1.8214E-002  
  560.50  1.8229E-002  
  561.00  1.8308E-002  
  561.50  1.8436E-002  
  562.00  1.8647E-002  
  562.50  1.8875E-002  
  563.00  1.8999E-002  
  563.50  1.9106E-002  
  564.00  1.9169E-002  
  564.50  1.9249E-002  
  565.00  1.9383E-002  
  565.50  1.9502E-002  
  566.00  1.9636E-002  
  566.50  1.9769E-002  
  567.00  1.9858E-002  
  567.50  1.9959E-002  
  568.00  2.0091E-002  
  568.50  2.0233E-002  
  569.00  2.0433E-002  
  569.50  2.0615E-002  
  570.00  2.0814E-002  
  570.50  2.0925E-002  
  571.00  2.1003E-002  
  571.50  2.1072E-002  
  572.00  2.1208E-002  
  572.50  2.1307E-002  
  573.00  2.1400E-002  
  573.50  2.1463E-002  
  574.00  2.1577E-002  
  574.50  2.1730E-002  
  575.00  2.1911E-002  
  575.50  2.2067E-002  
  576.00  2.2221E-002  
  576.50  2.2325E-002  
  577.00  2.2476E-002  
  577.50  2.2615E-002  
  578.00  2.2800E-002  
  578.50  2.3006E-002  
  579.00  2.3165E-002  
  579.50  2.3249E-002  
  580.00  2.3233E-002  
  580.50  2.3255E-002  
  581.00  2.3324E-002  
  581.50  2.3451E-002  
  582.00  2.3614E-002  
  582.50  2.3756E-002  
  583.00  2.3899E-002  
  583.50  2.4052E-002  
  584.00  2.4232E-002  
  584.50  2.4423E-002  
  585.00  2.4530E-002  
  585.50  2.4563E-002  
  586.00  2.4643E-002  
  586.50  2.4792E-002  
  587.00  2.4952E-002  
  587.50  2.5041E-002  
  588.00  2.5102E-002  
  588.50  2.5163E-002  
  589.00  2.5235E-002  
  589.50  2.5352E-002  
  590.00  2.5499E-002  
  590.50  2.5649E-002  
  591.00  2.5787E-002  
  591.50  2.5859E-002  
  592.00  2.5943E-002  
  592.50  2.5929E-002  
  593.00  2.5996E-002  
  593.50  2.6035E-002  
  594.00  2.6144E-002  
  594.50  2.6231E-002  
  595.00  2.6349E-002  
  595.50  2.6378E-002  
  596.00  2.6408E-002  
  596.50  2.6432E-002  
  597.00  2.6569E-002  
  597.50  2.6717E-002  
  598.00  2.6802E-002  
  598.50  2.6774E-002  
  599.00  2.6727E-002  
  599.50  2.6738E-002  
  600.00  2.6870E-002  
  600.50  2.6950E-002  
  601.00  2.7010E-002  
  601.50  2.7002E-002  
  602.00  2.7045E-002  
  602.50  2.7115E-002  
  603.00  2.7117E-002  
  603.50  2.7113E-002  
  604.00  2.7084E-002  
  604.50  2.7095E-002  
  605.00  2.7134E-002  
  605.50  2.7184E-002  
  606.00  2.7255E-002  
  606.50  2.7346E-002  
  607.00  2.7293E-002  
  607.50  2.7245E-002  
  608.00  2.7172E-002  
  608.50  2.7131E-002  
  609.00  2.7060E-002  
  609.50  2.7013E-002  
  610.00  2.7039E-002  
  610.50  2.7087E-002  
  611.00  2.7088E-002  
  611.50  2.7008E-002  
  612.00  2.6936E-002  
  612.50  2.6843E-002  
  613.00  2.6732E-002  
  613.50  2.6645E-002  
  614.00  2.6640E-002  
  614.50  2.6681E-002  
  615.00  2.6742E-002  
  615.50  2.6698E-002  
  616.00  2.6628E-002  
  616.50  2.6509E-002  
  617.00  2.6405E-002  
  617.50  2.6288E-002  
  618.00  2.6179E-002  
  618.50  2.6105E-002  
  619.00  2.6109E-002  
  619.50  2.6163E-002  
  620.00  2.6110E-002  
  620.50  2.5957E-002  
  621.00  2.5738E-002  
  621.50  2.5652E-002  
  622.00  2.5663E-002  
  622.50  2.5706E-002  
  623.00  2.5645E-002  
  623.50  2.5517E-002  
  624.00  2.5341E-002  
  624.50  2.5262E-002  
  625.00  2.5155E-002  
  625.50  2.5115E-002  
  626.00  2.5000E-002  
  626.50  2.4875E-002  
  627.00  2.4653E-002  
  627.50  2.4451E-002  
  628.00  2.4253E-002  
  628.50  2.4107E-002  
  629.00  2.3980E-002  
  629.50  2.3866E-002  
  630.00  2.3813E-002  
  630.50  2.3704E-002  
  631.00  2.3625E-002  
  631.50  2.3496E-002  
  632.00  2.3336E-002  
  632.50  2.3153E-002  
  633.00  2.2990E-002  
  633.50  2.2900E-002  
  634.00  2.2809E-002  
  634.50  2.2671E-002  
  635.00  2.2524E-002  
  635.50  2.2384E-002  
  636.00  2.2234E-002  
  636.50  2.2075E-002  
  637.00  2.1889E-002  
  637.50  2.1674E-002  
  638.00  2.1493E-002  
  638.50  2.1345E-002  
  639.00  2.1313E-002  
  639.50  2.1219E-002  
  640.00  2.1076E-002  
  640.50  2.0890E-002  
  641.00  2.0717E-002  
  641.50  2.0576E-002  
  642.00  2.0393E-002  
  642.50  2.0204E-002  
  643.00  1.9994E-002  
  643.50  1.9786E-002  
  644.00  1.9661E-002  
  644.50  1.9518E-002  
  645.00  1.9378E-002  
  645.50  1.9157E-002  
  646.00  1.9002E-002  
  646.50  1.8943E-002  
  647.00  1.8896E-002  
  647.50  1.8797E-002  
  648.00  1.8606E-002  
  648.50  1.8386E-002  
  649.00  1.8176E-002  
  649.50  1.7927E-002  
  650.00  1.7751E-002  
  650.50  1.7550E-002  
  651.00  1.7347E-002  
  651.50  1.7185E-002  
  652.00  1.7070E-002  
  652.50  1.7003E-002  
  653.00  1.6834E-002  
  653.50  1.6624E-002  
  654.00  1.6400E-002  
  654.50  1.6276E-002  
  655.00  1.6197E-002  
  655.50  1.6117E-002  
  656.00  1.5917E-002  
  656.50  1.5661E-002  
  657.00  1.5416E-002  
  657.50  1.5231E-002  
  658.00  1.5063E-002  
  658.50  1.4928E-002  
  659.00  1.4790E-002  
  659.50  1.4610E-002  
  660.00  1.4445E-002  
  660.50  1.4313E-002  
  661.00  1.4249E-002  
  661.50  1.4156E-002  
  662.00  1.3958E-002  
  662.50  1.3728E-002  
  663.00  1.3522E-002  
  663.50  1.3398E-002  
  664.00  1.3312E-002  
  664.50  1.3148E-002  
  665.00  1.2995E-002  
  665.50  1.2787E-002  
  666.00  1.2633E-002  
  666.50  1.2470E-002  
  667.00  1.2366E-002  
  667.50  1.2225E-002  
  668.00  1.2058E-002  
  668.50  1.1926E-002  
  669.00  1.1846E-002  
  669.50  1.1797E-002  
  670.00  1.1692E-002  
  670.50  1.1526E-002  
  671.00  1.1330E-002  
  671.50  1.1114E-002  
  672.00  1.0936E-002  
  672.50  1.0810E-002  
  673.00  1.0736E-002  
  673.50  1.0626E-002  
  674.00  1.0460E-002  
  674.50  1.0277E-002  
  675.00  1.0156E-002  
  675.50  1.0105E-002  
  676.00  1.0019E-002  
  676.50  9.9089E-003  
  677.00  9.7376E-003  
  677.50  9.5544E-003  
  678.00  9.4139E-003  
  678.50  9.3364E-003  
  679.00  9.2585E-003  
  679.50  9.1066E-003  
  680.00  8.9182E-003  
  680.50  8.8253E-003  
  681.00  8.7644E-003  
  681.50  8.6422E-003  
  682.00  8.4529E-003  
  682.50  8.3025E-003  
  683.00  8.1938E-003  
  683.50  8.0986E-003  
  684.00  7.9944E-003  
  684.50  7.9301E-003  
  685.00  7.7980E-003  
  685.50  7.7221E-003  
  686.00  7.6920E-003  
  686.50  7.6401E-003  
  687.00  7.4733E-003  
  687.50  7.2028E-003  
  688.00  7.0600E-003  
  688.50  6.9627E-003  
  689.00  6.9481E-003  
  689.50  6.9603E-003  
  690.00  7.0092E-003  
  690.50  6.9630E-003  
  691.00  6.7949E-003  
  691.50  6.6031E-003  
  692.00  6.4970E-003  
  692.50  6.3433E-003  
  693.00  6.1650E-003  
  693.50  6.0105E-003  
  694.00  5.9635E-003  
  694.50  5.9229E-003  
  695.00  5.9130E-003  
  695.50  5.7959E-003  
  696.00  5.6972E-003  
  696.50  5.5577E-003  
  697.00  5.5250E-003  
  697.50  5.4980E-003  
  698.00  5.5172E-003  
  698.50  5.4785E-003  
  699.00  5.3822E-003  
  699.50  5.2370E-003  
  700.00  5.0464E-003  
  700.50  4.9639E-003  
  701.00  4.9323E-003  
  701.50  4.9599E-003  
  702.00  4.8922E-003  
  702.50  4.8647E-003  
  703.00  4.7974E-003  
  703.50  4.7450E-003  
  704.00  4.6112E-003  
  704.50  4.5840E-003  
  705.00  4.4944E-003  
  705.50  4.4127E-003  
  706.00  4.2608E-003  
  706.50  4.1738E-003  
  707.00  4.1793E-003  
  707.50  4.1728E-003  
  708.00  4.1609E-003  
  708.50  4.0657E-003  
  709.00  3.9824E-003  
  709.50  3.9025E-003  
  710.00  3.7735E-003  
  710.50  3.6748E-003  
  711.00  3.5996E-003  
  711.50  3.6306E-003  
  712.00  3.6066E-003  
  712.50  3.5350E-003  
  713.00  3.4924E-003  
  713.50  3.3705E-003  
  714.00  3.2597E-003  
  714.50  3.1500E-003  
  715.00  3.1800E-003  
  715.50  3.2239E-003  
  716.00  3.1867E-003  
  716.50  3.1149E-003  
  717.00  3.0567E-003  
  717.50  3.0038E-003  
  718.00  2.9160E-003  
  718.50  2.8028E-003  
  719.00  2.6797E-003  
  719.50  2.6276E-003  
  720.00  2.5854E-003  
  720.50  2.6108E-003  
  721.00  2.5974E-003  
  721.50  2.5703E-003  
  722.00  2.4602E-003  
  722.50  2.3540E-003  
  723.00  2.3384E-003  
  723.50  2.4127E-003  
  724.00  2.4305E-003  
  724.50  2.3099E-003  
  725.00  2.2179E-003  
  725.50  2.2310E-003  
  726.00  2.2130E-003  
  726.50  2.1504E-003  
  727.00  2.0916E-003  
  727.50  2.1037E-003  
  728.00  2.0570E-003  
  728.50  2.0340E-003  
  729.00  1.9416E-003  
  729.50  1.8678E-003  
  730.00  1.7825E-003  
  730.50  1.8215E-003  
  731.00  1.8433E-003  
  731.50  1.8922E-003  
  732.00  1.8013E-003  
  732.50  1.6927E-003  
  733.00  1.5208E-003  
  733.50  1.5361E-003  
  734.00  1.5640E-003  
  734.50  1.5499E-003  
  735.00  1.5453E-003  
  735.50  1.5108E-003  
  736.00  1.5617E-003  
  736.50  1.5070E-003  
  737.00  1.4392E-003  
  737.50  1.3776E-003  
  738.00  1.3495E-003  
  738.50  1.4237E-003  
  739.00  1.4491E-003  
  739.50  1.4398E-003  
  740.00  1.2825E-003  
  740.50  1.1975E-003  
  741.00  1.1933E-003  
  741.50  1.1830E-003  
  742.00  1.1350E-003  
  742.50  1.0998E-003  
  743.00  1.0145E-003  
  743.50  9.6921E-004  
  744.00  9.9304E-004  
  744.50  1.1231E-003  
  745.00  1.1487E-003  
  745.50  1.1527E-003  
  746.00  1.0807E-003  
  746.50  9.6514E-004  
  747.00  8.9421E-004  
  747.50  9.1900E-004  
  748.00  9.0849E-004  
  748.50  8.8709E-004  
  749.00  8.8916E-004  
  749.50  9.8968E-004  
  750.00  1.0477E-003  
  750.50  1.2899E-003  
  751.00  1.4402E-003  
  751.50  1.3253E-003  
  752.00  8.1875E-004  
  752.50  6.6610E-004  
  753.00  7.4447E-004  
  753.50  8.2048E-004  
  754.00  6.6160E-004  
  754.50  5.0676E-004  
  755.00  5.3902E-004  
  755.50  7.2580E-004  
  756.00  7.9437E-004  
  756.50  6.6887E-004  
  757.00  5.6783E-004  
  757.50  4.1405E-004  
  758.00  4.4349E-004  
  758.50  5.2689E-004  
  759.00  6.1551E-004  
  759.50  5.6107E-004  
  760.00  3.6420E-004  
  760.50  1.9744E-004  
  761.00  1.7797E-004  
  761.50  2.6275E-004  
  762.00  4.7803E-004  
  762.50  4.4530E-004  
  763.00  3.9845E-004  
  763.50  2.8874E-004  
  764.00  3.6400E-004  
  764.50  4.0455E-004  
  765.00  2.7144E-004  
  765.50  1.4342E-004  
  766.00  4.3172E-005  
  766.50  3.9369E-005  
  767.00  8.6602E-005  
  767.50  2.4974E-004  
  768.00  3.2221E-004  
  768.50  3.5729E-004  
  769.00  2.9810E-004  
  769.50  1.8302E-004  
  770.00  1.1322E-004  
  770.50  8.6842E-005  
  771.00  2.2780E-004  
  771.50  3.3661E-004  
  772.00  2.6714E-004  
  772.50  2.2216E-005  
  773.00  0.0000E+000  
  773.50  0.0000E+000  
  774.00  0.0000E+000  
  774.50  0.0000E+000  
  775.00  0.0000E+000  
  775.50  0.0000E+000  
  776.00  0.0000E+000  
  776.50  0.0000E+000  
  777.00  0.0000E+000  
  777.50  3.1810E-005  
  778.00  1.2311E-004  
  778.50  4.8855E-005  
  779.00  0.0000E+000  
  779.50  0.0000E+000  
  780.00  0.0000E+000  
  780.50  0.0000E+000  
  781.00  0.0000E+000  
  781.50  0.0000E+000  
  782.00  0.0000E+000  
  782.50  0.0000E+000  
  783.00  0.0000E+000  
  783.50  0.0000E+000  
  784.00  0.0000E+000  
  784.50  0.0000E+000  
  785.00  0.0000E+000  
  785.50  0.0000E+000  
  786.00  0.0000E+000  
  786.50  0.0000E+000  
  787.00  0.0000E+000  
  787.50  0.0000E+000  
  788.00  0.0000E+000  
  788.50  0.0000E+000  
  789.00  5.1261E-006  
  789.50  0.0000E+000  
  790.00  0.0000E+000  
  790.50  0.0000E+000  
  791.00  0.0000E+000  
  791.50  0.0000E+000  
  792.00  0.0000E+000  
  792.50  0.0000E+000  
  793.00  0.0000E+000  
  793.50  0.0000E+000  
  794.00  0.0000E+000  
  794.50  0.0000E+000  
  795.00  0.0000E+000  
  795.50  0.0000E+000  
  796.00  0.0000E+000  
  796.50  0.0000E+000  
  797.00  0.0000E+000  
  797.50  0.0000E+000  
  798.00  0.0000E+000  
  798.50  0.0000E+000  
  799.00  0.0000E+000  
  799.50  0.0000E+000  
  800.00  0.0000E+000  
  800.50  0.0000E+000  
  801.00  0.0000E+000  
  801.50  0.0000E+000  
  802.00  0.0000E+000  
  802.50  0.0000E+000  
  803.00  0.0000E+000  
  803.50  0.0000E+000  
  804.00  0.0000E+000  
  804.50  0.0000E+000  
  805.00  0.0000E+000  
  805.50  0.0000E+000  
  806.00  0.0000E+000  
  806.50  0.0000E+000  
  807.00  0.0000E+000  
  807.50  0.0000E+000  
  808.00  0.0000E+000  
  808.50  0.0000E+000  
  809.00  0.0000E+000  
  809.50  0.0000E+000  
  810.00  0.0000E+000  
  810.50  0.0000E+000  
  811.00  0.0000E+000  
  811.50  0.0000E+000  
  812.00  0.0000E+000  
  812.50  0.0000E+000  
  813.00  0.0000E+000  
  813.50  0.0000E+000  
  814.00  0.0000E+000  
  814.50  0.0000E+000  
  815.00  0.0000E+000  
  815.50  0.0000E+000  
  816.00  0.0000E+000  
  816.50  0.0000E+000  
  817.00  0.0000E+000  
  817.50  0.0000E+000  
  818.00  0.0000E+000  
  818.50  0.0000E+000  
  819.00  0.0000E+000  
  819.50  0.0000E+000  
  820.00  0.0000E+000  
  820.50  0.0000E+000  
  821.00  0.0000E+000  
  821.50  0.0000E+000  
  822.00  0.0000E+000  
  822.50  0.0000E+000  
  823.00  0.0000E+000  
  823.50  0.0000E+000  
  824.00  0.0000E+000  
  824.50  0.0000E+000  
  825.00  0.0000E+000  
  825.50  0.0000E+000  
  826.00  0.0000E+000  
  826.50  0.0000E+000  
  827.00  0.0000E+000  
  827.50  0.0000E+000  
  828.00  0.0000E+000  
  828.50  0.0000E+000  
  829.00  0.0000E+000  
  829.50  0.0000E+000  
  830.00  0.0000E+000  
  830.50  0.0000E+000  
  831.00  0.0000E+000  
  831.50  0.0000E+000  
  832.00  0.0000E+000  
  832.50  0.0000E+000  
  833.00  0.0000E+000  
  833.50  0.0000E+000  
  834.00  0.0000E+000  
  834.50  0.0000E+000  
  835.00  0.0000E+000  
  835.50  0.0000E+000  
  836.00  0.0000E+000  
  836.50  0.0000E+000  
  837.00  0.0000E+000  
  837.50  0.0000E+000  
  838.00  0.0000E+000  
  838.50  0.0000E+000  
  839.00  0.0000E+000  
  839.50  0.0000E+000  
  840.00  0.0000E+000  
  840.50  0.0000E+000  
  841.00  0.0000E+000  
  841.50  0.0000E+000  
  842.00  0.0000E+000  
  842.50  0.0000E+000  
  843.00  0.0000E+000  
  843.50  0.0000E+000  
  844.00  0.0000E+000  
  844.50  0.0000E+000  
  845.00  0.0000E+000  
  845.50  0.0000E+000  
  846.00  0.0000E+000  
  846.50  0.0000E+000  
  847.00  0.0000E+000  
  847.50  0.0000E+000  
  848.00  0.0000E+000  
  848.50  0.0000E+000  
  849.00  0.0000E+000  
  849.50  0.0000E+000  
  850.00  0.0000E+000  
  850.50  0.0000E+000  
  851.00  0.0000E+000  
  851.50  0.0000E+000  
  852.00  0.0000E+000  
  852.50  0.0000E+000  
  853.00  0.0000E+000  
  853.50  0.0000E+000  
  854.00  0.0000E+000  
  854.50  0.0000E+000  
  855.00  0.0000E+000  
  855.50  0.0000E+000  
  856.00  0.0000E+000  
  856.50  0.0000E+000  
  857.00  0.0000E+000  
  857.50  0.0000E+000  
  858.00  0.0000E+000  
  858.50  0.0000E+000  
  859.00  0.0000E+000  
  859.50  0.0000E+000  
  860.00  0.0000E+000  
  860.50  0.0000E+000  
  861.00  0.0000E+000  
  861.50  0.0000E+000  
  862.00  0.0000E+000  
  862.50  0.0000E+000  
  863.00  0.0000E+000  
  863.50  0.0000E+000  
  864.00  0.0000E+000  
  864.50  0.0000E+000  
  865.00  0.0000E+000  
  865.50  0.0000E+000  
  866.00  0.0000E+000  
  866.50  0.0000E+000  
  867.00  0.0000E+000  
  867.50  0.0000E+000  
  868.00  0.0000E+000  
  868.50  0.0000E+000  
  869.00  0.0000E+000  
  869.50  0.0000E+000  
  870.00  0.0000E+000  
  870.50  0.0000E+000  
  871.00  0.0000E+000  
  871.50  0.0000E+000  
  872.00  0.0000E+000  
  872.50  0.0000E+000  
  873.00  0.0000E+000  
  873.50  0.0000E+000  
  874.00  0.0000E+000  
  874.50  0.0000E+000  
  875.00  0.0000E+000  
  875.50  0.0000E+000  
  876.00  0.0000E+000  
  876.50  0.0000E+000  
  877.00  0.0000E+000  
  877.50  0.0000E+000  
  878.00  0.0000E+000  
  878.50  0.0000E+000  
  879.00  0.0000E+000  
  879.50  0.0000E+000  
  880.00  0.0000E+000  
  880.50  0.0000E+000  
  881.00  0.0000E+000  
  881.50  0.0000E+000  
  882.00  0.0000E+000  
  882.50  0.0000E+000  
  883.00  0.0000E+000  
  883.50  0.0000E+000  
  884.00  0.0000E+000  
  884.50  0.0000E+000  
  885.00  0.0000E+000  
  885.50  0.0000E+000  
  886.00  0.0000E+000  
  886.50  0.0000E+000  
  887.00  0.0000E+000  
  887.50  0.0000E+000  
  888.00  0.0000E+000  
  888.50  0.0000E+000  
  889.00  0.0000E+000  
  889.50  0.0000E+000  
  890.00  0.0000E+000  
  890.50  0.0000E+000  
  891.00  0.0000E+000  
  891.50  0.0000E+000  
  892.00  0.0000E+000  
  892.50  0.0000E+000  
  893.00  0.0000E+000  
  893.50  0.0000E+000  
  894.00  0.0000E+000  
  894.50  0.0000E+000  
  895.00  0.0000E+000  
  895.50  0.0000E+000  
  896.00  0.0000E+000  
  896.50  0.0000E+000  
  897.00  0.0000E+000  
  897.50  0.0000E+000  
  898.00  0.0000E+000  
  898.50  0.0000E+000  
  899.00  0.0000E+000  
  899.50  0.0000E+000  
