
# From lspdd.org
# 
# Name: DEL Standard PAR30LN Domestique
# Indice spectral Valeur 
# MSI 0.47 
# SLI 0.66 
# IPI 0.74 
# Pourcentage de bleu 27.7 
# Caractéristique Valeur 
# CCT calculée (K) 3717 
# CCT du fabricant (K) 4000 
# Tension (V) 120 
# Puissance (W) 15.0 
# Efficacité lumineuse (Lum/W) 56.0 
#
# Image: '/app/system/img_2s/2507/medium_image2.JPG?1413486010'
# Image: '/app/system/img_1s/2507/medium_image1.JPG?1413486013'
# 

  273.00  0.0000E+000  
  273.50  0.0000E+000  
  274.00  0.0000E+000  
  274.50  0.0000E+000  
  275.00  0.0000E+000  
  275.50  0.0000E+000  
  276.00  0.0000E+000  
  276.50  0.0000E+000  
  277.00  0.0000E+000  
  277.50  0.0000E+000  
  278.00  0.0000E+000  
  278.50  0.0000E+000  
  279.00  0.0000E+000  
  279.50  0.0000E+000  
  280.00  0.0000E+000  
  280.50  0.0000E+000  
  281.00  0.0000E+000  
  281.50  0.0000E+000  
  282.00  0.0000E+000  
  282.50  0.0000E+000  
  283.00  0.0000E+000  
  283.50  0.0000E+000  
  284.00  0.0000E+000  
  284.50  0.0000E+000  
  285.00  0.0000E+000  
  285.50  0.0000E+000  
  286.00  0.0000E+000  
  286.50  0.0000E+000  
  287.00  0.0000E+000  
  287.50  0.0000E+000  
  288.00  0.0000E+000  
  288.50  0.0000E+000  
  289.00  0.0000E+000  
  289.50  0.0000E+000  
  290.00  0.0000E+000  
  290.50  0.0000E+000  
  291.00  0.0000E+000  
  291.50  0.0000E+000  
  292.00  0.0000E+000  
  292.50  0.0000E+000  
  293.00  0.0000E+000  
  293.50  0.0000E+000  
  294.00  0.0000E+000  
  294.50  0.0000E+000  
  295.00  0.0000E+000  
  295.50  0.0000E+000  
  296.00  0.0000E+000  
  296.50  0.0000E+000  
  297.00  0.0000E+000  
  297.50  0.0000E+000  
  298.00  0.0000E+000  
  298.50  0.0000E+000  
  299.00  0.0000E+000  
  299.50  0.0000E+000  
  300.00  0.0000E+000  
  300.50  0.0000E+000  
  301.00  0.0000E+000  
  301.50  0.0000E+000  
  302.00  0.0000E+000  
  302.50  0.0000E+000  
  303.00  3.7539E-006  
  303.50  4.8708E-005  
  304.00  1.1471E-004  
  304.50  1.0248E-004  
  305.00  6.7438E-005  
  305.50  5.5398E-005  
  306.00  2.4527E-005  
  306.50  3.1016E-005  
  307.00  2.1025E-005  
  307.50  1.7454E-005  
  308.00  5.6329E-006  
  308.50  0.0000E+000  
  309.00  0.0000E+000  
  309.50  0.0000E+000  
  310.00  1.1366E-005  
  310.50  3.0026E-005  
  311.00  2.8593E-005  
  311.50  0.0000E+000  
  312.00  0.0000E+000  
  312.50  0.0000E+000  
  313.00  0.0000E+000  
  313.50  0.0000E+000  
  314.00  0.0000E+000  
  314.50  0.0000E+000  
  315.00  2.6271E-005  
  315.50  5.6191E-005  
  316.00  8.8155E-005  
  316.50  8.9105E-005  
  317.00  2.1152E-005  
  317.50  0.0000E+000  
  318.00  0.0000E+000  
  318.50  0.0000E+000  
  319.00  0.0000E+000  
  319.50  0.0000E+000  
  320.00  0.0000E+000  
  320.50  0.0000E+000  
  321.00  4.0604E-006  
  321.50  2.6899E-005  
  322.00  5.7319E-005  
  322.50  5.5030E-005  
  323.00  5.4657E-005  
  323.50  4.4175E-005  
  324.00  3.3163E-005  
  324.50  2.0595E-005  
  325.00  8.4488E-006  
  325.50  6.2675E-005  
  326.00  7.4504E-005  
  326.50  1.0692E-004  
  327.00  9.7987E-005  
  327.50  5.7823E-005  
  328.00  5.3037E-005  
  328.50  2.1041E-005  
  329.00  8.7717E-006  
  329.50  0.0000E+000  
  330.00  0.0000E+000  
  330.50  0.0000E+000  
  331.00  0.0000E+000  
  331.50  8.2103E-005  
  332.00  1.3956E-004  
  332.50  1.1662E-004  
  333.00  9.7448E-005  
  333.50  8.1378E-005  
  334.00  1.1180E-004  
  334.50  1.2693E-004  
  335.00  1.0402E-004  
  335.50  7.1904E-005  
  336.00  4.2895E-005  
  336.50  7.7431E-005  
  337.00  8.3187E-005  
  337.50  1.2009E-004  
  338.00  1.0774E-004  
  338.50  1.1348E-004  
  339.00  1.2115E-004  
  339.50  1.0760E-004  
  340.00  1.4077E-004  
  340.50  1.7127E-004  
  341.00  1.8356E-004  
  341.50  2.1210E-004  
  342.00  2.1896E-004  
  342.50  1.7053E-004  
  343.00  8.8569E-005  
  343.50  4.2018E-006  
  344.00  0.0000E+000  
  344.50  3.1344E-005  
  345.00  1.2412E-004  
  345.50  2.0911E-004  
  346.00  2.2891E-004  
  346.50  2.2836E-004  
  347.00  1.9026E-004  
  347.50  1.0097E-004  
  348.00  8.4667E-005  
  348.50  8.4267E-005  
  349.00  7.7676E-005  
  349.50  1.0012E-004  
  350.00  9.0532E-005  
  350.50  9.1732E-005  
  351.00  1.0923E-004  
  351.50  1.0502E-004  
  352.00  9.2897E-005  
  352.50  1.1099E-004  
  353.00  1.2339E-004  
  353.50  1.2298E-004  
  354.00  1.5069E-004  
  354.50  1.5791E-004  
  355.00  1.8745E-004  
  355.50  1.9419E-004  
  356.00  1.3344E-004  
  356.50  7.2997E-005  
  357.00  6.0201E-005  
  357.50  7.4928E-005  
  358.00  1.3997E-004  
  358.50  1.5379E-004  
  359.00  1.5169E-004  
  359.50  1.6916E-004  
  360.00  1.8870E-004  
  360.50  2.3121E-004  
  361.00  2.2968E-004  
  361.50  2.2919E-004  
  362.00  2.6223E-004  
  362.50  2.8842E-004  
  363.00  3.0348E-004  
  363.50  2.8600E-004  
  364.00  2.4833E-004  
  364.50  2.4173E-004  
  365.00  2.0698E-004  
  365.50  1.7714E-004  
  366.00  1.3777E-004  
  366.50  1.3271E-004  
  367.00  1.7341E-004  
  367.50  1.8986E-004  
  368.00  1.9790E-004  
  368.50  2.2713E-004  
  369.00  2.7623E-004  
  369.50  3.5458E-004  
  370.00  3.7038E-004  
  370.50  3.5743E-004  
  371.00  3.2288E-004  
  371.50  2.6901E-004  
  372.00  2.9006E-004  
  372.50  2.8180E-004  
  373.00  3.1126E-004  
  373.50  2.9171E-004  
  374.00  2.5074E-004  
  374.50  2.3322E-004  
  375.00  2.1943E-004  
  375.50  2.7448E-004  
  376.00  3.0499E-004  
  376.50  3.1463E-004  
  377.00  3.3728E-004  
  377.50  2.9922E-004  
  378.00  3.0859E-004  
  378.50  3.1777E-004  
  379.00  3.0863E-004  
  379.50  3.6661E-004  
  380.00  3.8305E-004  
  380.50  3.9011E-004  
  381.00  3.8221E-004  
  381.50  3.3983E-004  
  382.00  3.3476E-004  
  382.50  3.5419E-004  
  383.00  3.5795E-004  
  383.50  3.8865E-004  
  384.00  3.8854E-004  
  384.50  4.1328E-004  
  385.00  4.7822E-004  
  385.50  5.1956E-004  
  386.00  5.4584E-004  
  386.50  5.5483E-004  
  387.00  5.3767E-004  
  387.50  5.5081E-004  
  388.00  5.2725E-004  
  388.50  5.2331E-004  
  389.00  5.0648E-004  
  389.50  4.9641E-004  
  390.00  5.1929E-004  
  390.50  5.1339E-004  
  391.00  5.5390E-004  
  391.50  5.9084E-004  
  392.00  5.8710E-004  
  392.50  5.7790E-004  
  393.00  5.7476E-004  
  393.50  6.1193E-004  
  394.00  6.4579E-004  
  394.50  6.3534E-004  
  395.00  5.8843E-004  
  395.50  5.5850E-004  
  396.00  5.9890E-004  
  396.50  6.8603E-004  
  397.00  7.5590E-004  
  397.50  8.0082E-004  
  398.00  7.4931E-004  
  398.50  7.2956E-004  
  399.00  6.8864E-004  
  399.50  7.1319E-004  
  400.00  8.2094E-004  
  400.50  8.8277E-004  
  401.00  9.4281E-004  
  401.50  9.7135E-004  
  402.00  9.7851E-004  
  402.50  1.0055E-003  
  403.00  1.0348E-003  
  403.50  1.0603E-003  
  404.00  1.1704E-003  
  404.50  1.2606E-003  
  405.00  1.3383E-003  
  405.50  1.3486E-003  
  406.00  1.3229E-003  
  406.50  1.4015E-003  
  407.00  1.5160E-003  
  407.50  1.6465E-003  
  408.00  1.7938E-003  
  408.50  1.8184E-003  
  409.00  1.8721E-003  
  409.50  1.9557E-003  
  410.00  2.0864E-003  
  410.50  2.2791E-003  
  411.00  2.4567E-003  
  411.50  2.6456E-003  
  412.00  2.8570E-003  
  412.50  3.0457E-003  
  413.00  3.2030E-003  
  413.50  3.3828E-003  
  414.00  3.5662E-003  
  414.50  3.8131E-003  
  415.00  4.0647E-003  
  415.50  4.3555E-003  
  416.00  4.7058E-003  
  416.50  5.0410E-003  
  417.00  5.4195E-003  
  417.50  5.7724E-003  
  418.00  6.1797E-003  
  418.50  6.6016E-003  
  419.00  7.0498E-003  
  419.50  7.5143E-003  
  420.00  8.0325E-003  
  420.50  8.6321E-003  
  421.00  9.2611E-003  
  421.50  9.8926E-003  
  422.00  1.0558E-002  
  422.50  1.1240E-002  
  423.00  1.2044E-002  
  423.50  1.2928E-002  
  424.00  1.3829E-002  
  424.50  1.4704E-002  
  425.00  1.5618E-002  
  425.50  1.6595E-002  
  426.00  1.7741E-002  
  426.50  1.8952E-002  
  427.00  2.0249E-002  
  427.50  2.1598E-002  
  428.00  2.2996E-002  
  428.50  2.4409E-002  
  429.00  2.5945E-002  
  429.50  2.7634E-002  
  430.00  2.9368E-002  
  430.50  3.1215E-002  
  431.00  3.2980E-002  
  431.50  3.4835E-002  
  432.00  3.6896E-002  
  432.50  3.9098E-002  
  433.00  4.1399E-002  
  433.50  4.3626E-002  
  434.00  4.5963E-002  
  434.50  4.8501E-002  
  435.00  5.1217E-002  
  435.50  5.3976E-002  
  436.00  5.6837E-002  
  436.50  5.9737E-002  
  437.00  6.2905E-002  
  437.50  6.6134E-002  
  438.00  6.9358E-002  
  438.50  7.2552E-002  
  439.00  7.5905E-002  
  439.50  7.9664E-002  
  440.00  8.3747E-002  
  440.50  8.8343E-002  
  441.00  9.3034E-002  
  441.50  9.7903E-002  
  442.00  1.0301E-001  
  442.50  1.0812E-001  
  443.00  1.1385E-001  
  443.50  1.1966E-001  
  444.00  1.2561E-001  
  444.50  1.3168E-001  
  445.00  1.3774E-001  
  445.50  1.4387E-001  
  446.00  1.5008E-001  
  446.50  1.5606E-001  
  447.00  1.6180E-001  
  447.50  1.6716E-001  
  448.00  1.7205E-001  
  448.50  1.7637E-001  
  449.00  1.8010E-001  
  449.50  1.8308E-001  
  450.00  1.8542E-001  
  450.50  1.8675E-001  
  451.00  1.8732E-001  
  451.50  1.8676E-001  
  452.00  1.8556E-001  
  452.50  1.8355E-001  
  453.00  1.8054E-001  
  453.50  1.7673E-001  
  454.00  1.7225E-001  
  454.50  1.6754E-001  
  455.00  1.6306E-001  
  455.50  1.5790E-001  
  456.00  1.5234E-001  
  456.50  1.4678E-001  
  457.00  1.4117E-001  
  457.50  1.3586E-001  
  458.00  1.3055E-001  
  458.50  1.2537E-001  
  459.00  1.2068E-001  
  459.50  1.1637E-001  
  460.00  1.1251E-001  
  460.50  1.0907E-001  
  461.00  1.0591E-001  
  461.50  1.0289E-001  
  462.00  1.0015E-001  
  462.50  9.7601E-002  
  463.00  9.5327E-002  
  463.50  9.3181E-002  
  464.00  9.1070E-002  
  464.50  8.9143E-002  
  465.00  8.7270E-002  
  465.50  8.5456E-002  
  466.00  8.3543E-002  
  466.50  8.1705E-002  
  467.00  7.9886E-002  
  467.50  7.8082E-002  
  468.00  7.6277E-002  
  468.50  7.4401E-002  
  469.00  7.2471E-002  
  469.50  7.0446E-002  
  470.00  6.8491E-002  
  470.50  6.6702E-002  
  471.00  6.4971E-002  
  471.50  6.3205E-002  
  472.00  6.1395E-002  
  472.50  5.9688E-002  
  473.00  5.8183E-002  
  473.50  5.6922E-002  
  474.00  5.5692E-002  
  474.50  5.4405E-002  
  475.00  5.3046E-002  
  475.50  5.1801E-002  
  476.00  5.0706E-002  
  476.50  4.9879E-002  
  477.00  4.9163E-002  
  477.50  4.8504E-002  
  478.00  4.7855E-002  
  478.50  4.7330E-002  
  479.00  4.7064E-002  
  479.50  4.6943E-002  
  480.00  4.6953E-002  
  480.50  4.6856E-002  
  481.00  4.6689E-002  
  481.50  4.6552E-002  
  482.00  4.6575E-002  
  482.50  4.6622E-002  
  483.00  4.6659E-002  
  483.50  4.6830E-002  
  484.00  4.7010E-002  
  484.50  4.7244E-002  
  485.00  4.7457E-002  
  485.50  4.7678E-002  
  486.00  4.7948E-002  
  486.50  4.8344E-002  
  487.00  4.8772E-002  
  487.50  4.9232E-002  
  488.00  4.9716E-002  
  488.50  5.0179E-002  
  489.00  5.0733E-002  
  489.50  5.1408E-002  
  490.00  5.2126E-002  
  490.50  5.2850E-002  
  491.00  5.3569E-002  
  491.50  5.4244E-002  
  492.00  5.5043E-002  
  492.50  5.6013E-002  
  493.00  5.7084E-002  
  493.50  5.8221E-002  
  494.00  5.9205E-002  
  494.50  6.0187E-002  
  495.00  6.1220E-002  
  495.50  6.2338E-002  
  496.00  6.3447E-002  
  496.50  6.4627E-002  
  497.00  6.5953E-002  
  497.50  6.7453E-002  
  498.00  6.8935E-002  
  498.50  7.0255E-002  
  499.00  7.1536E-002  
  499.50  7.2876E-002  
  500.00  7.4243E-002  
  500.50  7.5501E-002  
  501.00  7.6717E-002  
  501.50  7.7999E-002  
  502.00  7.9460E-002  
  502.50  8.0952E-002  
  503.00  8.2384E-002  
  503.50  8.3813E-002  
  504.00  8.5282E-002  
  504.50  8.6725E-002  
  505.00  8.8109E-002  
  505.50  8.9448E-002  
  506.00  9.0763E-002  
  506.50  9.2103E-002  
  507.00  9.3399E-002  
  507.50  9.4661E-002  
  508.00  9.5914E-002  
  508.50  9.7142E-002  
  509.00  9.8316E-002  
  509.50  9.9448E-002  
  510.00  1.0061E-001  
  510.50  1.0177E-001  
  511.00  1.0297E-001  
  511.50  1.0407E-001  
  512.00  1.0519E-001  
  512.50  1.0612E-001  
  513.00  1.0705E-001  
  513.50  1.0784E-001  
  514.00  1.0868E-001  
  514.50  1.0970E-001  
  515.00  1.1063E-001  
  515.50  1.1157E-001  
  516.00  1.1236E-001  
  516.50  1.1309E-001  
  517.00  1.1387E-001  
  517.50  1.1459E-001  
  518.00  1.1536E-001  
  518.50  1.1611E-001  
  519.00  1.1684E-001  
  519.50  1.1754E-001  
  520.00  1.1817E-001  
  520.50  1.1880E-001  
  521.00  1.1938E-001  
  521.50  1.1998E-001  
  522.00  1.2057E-001  
  522.50  1.2122E-001  
  523.00  1.2181E-001  
  523.50  1.2245E-001  
  524.00  1.2303E-001  
  524.50  1.2353E-001  
  525.00  1.2403E-001  
  525.50  1.2451E-001  
  526.00  1.2504E-001  
  526.50  1.2558E-001  
  527.00  1.2614E-001  
  527.50  1.2670E-001  
  528.00  1.2721E-001  
  528.50  1.2772E-001  
  529.00  1.2817E-001  
  529.50  1.2863E-001  
  530.00  1.2906E-001  
  530.50  1.2951E-001  
  531.00  1.3001E-001  
  531.50  1.3050E-001  
  532.00  1.3100E-001  
  532.50  1.3150E-001  
  533.00  1.3195E-001  
  533.50  1.3236E-001  
  534.00  1.3262E-001  
  534.50  1.3299E-001  
  535.00  1.3346E-001  
  535.50  1.3392E-001  
  536.00  1.3438E-001  
  536.50  1.3474E-001  
  537.00  1.3517E-001  
  537.50  1.3560E-001  
  538.00  1.3604E-001  
  538.50  1.3646E-001  
  539.00  1.3689E-001  
  539.50  1.3728E-001  
  540.00  1.3769E-001  
  540.50  1.3812E-001  
  541.00  1.3852E-001  
  541.50  1.3888E-001  
  542.00  1.3920E-001  
  542.50  1.3962E-001  
  543.00  1.4006E-001  
  543.50  1.4044E-001  
  544.00  1.4082E-001  
  544.50  1.4114E-001  
  545.00  1.4150E-001  
  545.50  1.4185E-001  
  546.00  1.4213E-001  
  546.50  1.4245E-001  
  547.00  1.4278E-001  
  547.50  1.4315E-001  
  548.00  1.4354E-001  
  548.50  1.4398E-001  
  549.00  1.4432E-001  
  549.50  1.4466E-001  
  550.00  1.4493E-001  
  550.50  1.4523E-001  
  551.00  1.4559E-001  
  551.50  1.4598E-001  
  552.00  1.4636E-001  
  552.50  1.4672E-001  
  553.00  1.4707E-001  
  553.50  1.4739E-001  
  554.00  1.4770E-001  
  554.50  1.4797E-001  
  555.00  1.4820E-001  
  555.50  1.4851E-001  
  556.00  1.4888E-001  
  556.50  1.4929E-001  
  557.00  1.4973E-001  
  557.50  1.5018E-001  
  558.00  1.5064E-001  
  558.50  1.5104E-001  
  559.00  1.5136E-001  
  559.50  1.5172E-001  
  560.00  1.5205E-001  
  560.50  1.5231E-001  
  561.00  1.5260E-001  
  561.50  1.5287E-001  
  562.00  1.5325E-001  
  562.50  1.5347E-001  
  563.00  1.5369E-001  
  563.50  1.5387E-001  
  564.00  1.5417E-001  
  564.50  1.5448E-001  
  565.00  1.5477E-001  
  565.50  1.5504E-001  
  566.00  1.5528E-001  
  566.50  1.5554E-001  
  567.00  1.5572E-001  
  567.50  1.5591E-001  
  568.00  1.5619E-001  
  568.50  1.5655E-001  
  569.00  1.5691E-001  
  569.50  1.5718E-001  
  570.00  1.5738E-001  
  570.50  1.5760E-001  
  571.00  1.5786E-001  
  571.50  1.5819E-001  
  572.00  1.5847E-001  
  572.50  1.5871E-001  
  573.00  1.5893E-001  
  573.50  1.5918E-001  
  574.00  1.5939E-001  
  574.50  1.5955E-001  
  575.00  1.5974E-001  
  575.50  1.5998E-001  
  576.00  1.6029E-001  
  576.50  1.6058E-001  
  577.00  1.6087E-001  
  577.50  1.6113E-001  
  578.00  1.6133E-001  
  578.50  1.6157E-001  
  579.00  1.6177E-001  
  579.50  1.6194E-001  
  580.00  1.6208E-001  
  580.50  1.6228E-001  
  581.00  1.6255E-001  
  581.50  1.6280E-001  
  582.00  1.6291E-001  
  582.50  1.6304E-001  
  583.00  1.6320E-001  
  583.50  1.6348E-001  
  584.00  1.6371E-001  
  584.50  1.6391E-001  
  585.00  1.6397E-001  
  585.50  1.6411E-001  
  586.00  1.6427E-001  
  586.50  1.6464E-001  
  587.00  1.6489E-001  
  587.50  1.6511E-001  
  588.00  1.6527E-001  
  588.50  1.6546E-001  
  589.00  1.6571E-001  
  589.50  1.6590E-001  
  590.00  1.6613E-001  
  590.50  1.6626E-001  
  591.00  1.6648E-001  
  591.50  1.6658E-001  
  592.00  1.6667E-001  
  592.50  1.6677E-001  
  593.00  1.6699E-001  
  593.50  1.6718E-001  
  594.00  1.6735E-001  
  594.50  1.6742E-001  
  595.00  1.6753E-001  
  595.50  1.6755E-001  
  596.00  1.6769E-001  
  596.50  1.6789E-001  
  597.00  1.6817E-001  
  597.50  1.6829E-001  
  598.00  1.6839E-001  
  598.50  1.6845E-001  
  599.00  1.6856E-001  
  599.50  1.6858E-001  
  600.00  1.6861E-001  
  600.50  1.6867E-001  
  601.00  1.6891E-001  
  601.50  1.6912E-001  
  602.00  1.6928E-001  
  602.50  1.6932E-001  
  603.00  1.6937E-001  
  603.50  1.6949E-001  
  604.00  1.6966E-001  
  604.50  1.6973E-001  
  605.00  1.6973E-001  
  605.50  1.6967E-001  
  606.00  1.6972E-001  
  606.50  1.6998E-001  
  607.00  1.7021E-001  
  607.50  1.7031E-001  
  608.00  1.7032E-001  
  608.50  1.7042E-001  
  609.00  1.7064E-001  
  609.50  1.7079E-001  
  610.00  1.7087E-001  
  610.50  1.7092E-001  
  611.00  1.7091E-001  
  611.50  1.7083E-001  
  612.00  1.7065E-001  
  612.50  1.7061E-001  
  613.00  1.7057E-001  
  613.50  1.7072E-001  
  614.00  1.7084E-001  
  614.50  1.7091E-001  
  615.00  1.7097E-001  
  615.50  1.7094E-001  
  616.00  1.7087E-001  
  616.50  1.7073E-001  
  617.00  1.7051E-001  
  617.50  1.7037E-001  
  618.00  1.7024E-001  
  618.50  1.7012E-001  
  619.00  1.6986E-001  
  619.50  1.6972E-001  
  620.00  1.6974E-001  
  620.50  1.6983E-001  
  621.00  1.6968E-001  
  621.50  1.6928E-001  
  622.00  1.6901E-001  
  622.50  1.6889E-001  
  623.00  1.6879E-001  
  623.50  1.6870E-001  
  624.00  1.6838E-001  
  624.50  1.6806E-001  
  625.00  1.6773E-001  
  625.50  1.6751E-001  
  626.00  1.6732E-001  
  626.50  1.6701E-001  
  627.00  1.6662E-001  
  627.50  1.6629E-001  
  628.00  1.6602E-001  
  628.50  1.6583E-001  
  629.00  1.6559E-001  
  629.50  1.6521E-001  
  630.00  1.6487E-001  
  630.50  1.6454E-001  
  631.00  1.6426E-001  
  631.50  1.6408E-001  
  632.00  1.6367E-001  
  632.50  1.6302E-001  
  633.00  1.6217E-001  
  633.50  1.6159E-001  
  634.00  1.6123E-001  
  634.50  1.6098E-001  
  635.00  1.6059E-001  
  635.50  1.6000E-001  
  636.00  1.5932E-001  
  636.50  1.5859E-001  
  637.00  1.5811E-001  
  637.50  1.5770E-001  
  638.00  1.5733E-001  
  638.50  1.5685E-001  
  639.00  1.5631E-001  
  639.50  1.5571E-001  
  640.00  1.5506E-001  
  640.50  1.5427E-001  
  641.00  1.5347E-001  
  641.50  1.5281E-001  
  642.00  1.5220E-001  
  642.50  1.5154E-001  
  643.00  1.5071E-001  
  643.50  1.5000E-001  
  644.00  1.4956E-001  
  644.50  1.4909E-001  
  645.00  1.4855E-001  
  645.50  1.4773E-001  
  646.00  1.4689E-001  
  646.50  1.4591E-001  
  647.00  1.4504E-001  
  647.50  1.4426E-001  
  648.00  1.4349E-001  
  648.50  1.4272E-001  
  649.00  1.4186E-001  
  649.50  1.4099E-001  
  650.00  1.4010E-001  
  650.50  1.3928E-001  
  651.00  1.3858E-001  
  651.50  1.3776E-001  
  652.00  1.3691E-001  
  652.50  1.3605E-001  
  653.00  1.3526E-001  
  653.50  1.3442E-001  
  654.00  1.3355E-001  
  654.50  1.3255E-001  
  655.00  1.3163E-001  
  655.50  1.3064E-001  
  656.00  1.2991E-001  
  656.50  1.2902E-001  
  657.00  1.2814E-001  
  657.50  1.2721E-001  
  658.00  1.2627E-001  
  658.50  1.2530E-001  
  659.00  1.2438E-001  
  659.50  1.2361E-001  
  660.00  1.2273E-001  
  660.50  1.2169E-001  
  661.00  1.2052E-001  
  661.50  1.1951E-001  
  662.00  1.1852E-001  
  662.50  1.1756E-001  
  663.00  1.1659E-001  
  663.50  1.1564E-001  
  664.00  1.1453E-001  
  664.50  1.1331E-001  
  665.00  1.1220E-001  
  665.50  1.1119E-001  
  666.00  1.1017E-001  
  666.50  1.0929E-001  
  667.00  1.0841E-001  
  667.50  1.0752E-001  
  668.00  1.0644E-001  
  668.50  1.0562E-001  
  669.00  1.0488E-001  
  669.50  1.0378E-001  
  670.00  1.0251E-001  
  670.50  1.0143E-001  
  671.00  1.0053E-001  
  671.50  9.9526E-002  
  672.00  9.8526E-002  
  672.50  9.7622E-002  
  673.00  9.6719E-002  
  673.50  9.5592E-002  
  674.00  9.4508E-002  
  674.50  9.3639E-002  
  675.00  9.2831E-002  
  675.50  9.2193E-002  
  676.00  9.1255E-002  
  676.50  9.0266E-002  
  677.00  8.9007E-002  
  677.50  8.8036E-002  
  678.00  8.7135E-002  
  678.50  8.6211E-002  
  679.00  8.5163E-002  
  679.50  8.4223E-002  
  680.00  8.3389E-002  
  680.50  8.2698E-002  
  681.00  8.1795E-002  
  681.50  8.0896E-002  
  682.00  7.9873E-002  
  682.50  7.9051E-002  
  683.00  7.8253E-002  
  683.50  7.7356E-002  
  684.00  7.6257E-002  
  684.50  7.5225E-002  
  685.00  7.4428E-002  
  685.50  7.3819E-002  
  686.00  7.3148E-002  
  686.50  7.2399E-002  
  687.00  7.1636E-002  
  687.50  7.0792E-002  
  688.00  6.9793E-002  
  688.50  6.8840E-002  
  689.00  6.7817E-002  
  689.50  6.7023E-002  
  690.00  6.6203E-002  
  690.50  6.5559E-002  
  691.00  6.4888E-002  
  691.50  6.4247E-002  
  692.00  6.3535E-002  
  692.50  6.2885E-002  
  693.00  6.2139E-002  
  693.50  6.1486E-002  
  694.00  6.0726E-002  
  694.50  6.0030E-002  
  695.00  5.9247E-002  
  695.50  5.8426E-002  
  696.00  5.7680E-002  
  696.50  5.6934E-002  
  697.00  5.6156E-002  
  697.50  5.5359E-002  
  698.00  5.4546E-002  
  698.50  5.3741E-002  
  699.00  5.3120E-002  
  699.50  5.2533E-002  
  700.00  5.1898E-002  
  700.50  5.1117E-002  
  701.00  5.0453E-002  
  701.50  4.9758E-002  
  702.00  4.9129E-002  
  702.50  4.8468E-002  
  703.00  4.7898E-002  
  703.50  4.7246E-002  
  704.00  4.6695E-002  
  704.50  4.6114E-002  
  705.00  4.5463E-002  
  705.50  4.4725E-002  
  706.00  4.4078E-002  
  706.50  4.3565E-002  
  707.00  4.2955E-002  
  707.50  4.2346E-002  
  708.00  4.1666E-002  
  708.50  4.1203E-002  
  709.00  4.0645E-002  
  709.50  4.0122E-002  
  710.00  3.9392E-002  
  710.50  3.8657E-002  
  711.00  3.8058E-002  
  711.50  3.7599E-002  
  712.00  3.7096E-002  
  712.50  3.6678E-002  
  713.00  3.6239E-002  
  713.50  3.5848E-002  
  714.00  3.5200E-002  
  714.50  3.4587E-002  
  715.00  3.3952E-002  
  715.50  3.3422E-002  
  716.00  3.2988E-002  
  716.50  3.2640E-002  
  717.00  3.2220E-002  
  717.50  3.1814E-002  
  718.00  3.1418E-002  
  718.50  3.1039E-002  
  719.00  3.0568E-002  
  719.50  3.0127E-002  
  720.00  2.9656E-002  
  720.50  2.9196E-002  
  721.00  2.8710E-002  
  721.50  2.8224E-002  
  722.00  2.7740E-002  
  722.50  2.7287E-002  
  723.00  2.6917E-002  
  723.50  2.6548E-002  
  724.00  2.6153E-002  
  724.50  2.5710E-002  
  725.00  2.5388E-002  
  725.50  2.5098E-002  
  726.00  2.4834E-002  
  726.50  2.4254E-002  
  727.00  2.3734E-002  
  727.50  2.3317E-002  
  728.00  2.3101E-002  
  728.50  2.2780E-002  
  729.00  2.2524E-002  
  729.50  2.2298E-002  
  730.00  2.2127E-002  
  730.50  2.1739E-002  
  731.00  2.1348E-002  
  731.50  2.0862E-002  
  732.00  2.0556E-002  
  732.50  2.0188E-002  
  733.00  1.9904E-002  
  733.50  1.9558E-002  
  734.00  1.9341E-002  
  734.50  1.9116E-002  
  735.00  1.8847E-002  
  735.50  1.8569E-002  
  736.00  1.8280E-002  
  736.50  1.8043E-002  
  737.00  1.7679E-002  
  737.50  1.7414E-002  
  738.00  1.7196E-002  
  738.50  1.7081E-002  
  739.00  1.6865E-002  
  739.50  1.6533E-002  
  740.00  1.6159E-002  
  740.50  1.5974E-002  
  741.00  1.5690E-002  
  741.50  1.5283E-002  
  742.00  1.5025E-002  
  742.50  1.4895E-002  
  743.00  1.4737E-002  
  743.50  1.4484E-002  
  744.00  1.4251E-002  
  744.50  1.3856E-002  
  745.00  1.3473E-002  
  745.50  1.3325E-002  
  746.00  1.3145E-002  
  746.50  1.3010E-002  
  747.00  1.2907E-002  
  747.50  1.2772E-002  
  748.00  1.2229E-002  
  748.50  1.1855E-002  
  749.00  1.1781E-002  
  749.50  1.1979E-002  
  750.00  1.2063E-002  
  750.50  1.1670E-002  
  751.00  1.1179E-002  
  751.50  1.0835E-002  
  752.00  1.0960E-002  
  752.50  1.0920E-002  
  753.00  1.0661E-002  
  753.50  1.0409E-002  
  754.00  1.0338E-002  
  754.50  1.0333E-002  
  755.00  1.0251E-002  
  755.50  1.0002E-002  
  756.00  9.8076E-003  
  756.50  9.8033E-003  
  757.00  9.7856E-003  
  757.50  9.5852E-003  
  758.00  9.3076E-003  
  758.50  9.1527E-003  
  759.00  8.9968E-003  
  759.50  8.7426E-003  
  760.00  8.3678E-003  
  760.50  8.1933E-003  
  761.00  8.3034E-003  
  761.50  8.4434E-003  
  762.00  8.3504E-003  
  762.50  7.9129E-003  
  763.00  7.6098E-003  
  763.50  7.4637E-003  
  764.00  7.3719E-003  
  764.50  7.1659E-003  
  765.00  7.0789E-003  
  765.50  7.1699E-003  
  766.00  7.2817E-003  
  766.50  7.1452E-003  
  767.00  6.7851E-003  
  767.50  6.4685E-003  
  768.00  6.3893E-003  
  768.50  6.4837E-003  
  769.00  6.4414E-003  
  769.50  6.1896E-003  
  770.00  5.9930E-003  
  770.50  5.9248E-003  
  771.00  5.8535E-003  
  771.50  5.5058E-003  
  772.00  5.2517E-003  
  772.50  5.1762E-003  
  773.00  5.3074E-003  
  773.50  5.3618E-003  
  774.00  5.4037E-003  
  774.50  5.2370E-003  
  775.00  5.0820E-003  
  775.50  5.0949E-003  
  776.00  5.1755E-003  
  776.50  5.0178E-003  
  777.00  4.7878E-003  
  777.50  4.5689E-003  
  778.00  4.4775E-003  
  778.50  4.4634E-003  
  779.00  4.3255E-003  
  779.50  4.1930E-003  
  780.00  4.1804E-003  
  780.50  4.2059E-003  
  781.00  4.1487E-003  
  781.50  4.1628E-003  
  782.00  4.2302E-003  
  782.50  4.1415E-003  
  783.00  3.8486E-003  
  783.50  3.5665E-003  
  784.00  3.4386E-003  
  784.50  3.4064E-003  
  785.00  3.4404E-003  
  785.50  3.3841E-003  
  786.00  3.2408E-003  
  786.50  3.1706E-003  
  787.00  3.2071E-003  
  787.50  3.3481E-003  
  788.00  3.0971E-003  
  788.50  2.8744E-003  
  789.00  2.7061E-003  
  789.50  2.7406E-003  
  790.00  2.6621E-003  
  790.50  2.6332E-003  
  791.00  2.7393E-003  
  791.50  2.9158E-003  
  792.00  2.9607E-003  
  792.50  2.9394E-003  
  793.00  2.8570E-003  
  793.50  2.5688E-003  
  794.00  2.4701E-003  
  794.50  2.4786E-003  
  795.00  2.5768E-003  
  795.50  2.5260E-003  
  796.00  2.2267E-003  
  796.50  1.9400E-003  
  797.00  1.8109E-003  
  797.50  1.7303E-003  
  798.00  1.7031E-003  
  798.50  1.6180E-003  
  799.00  1.9219E-003  
  799.50  2.1097E-003  
  800.00  2.1178E-003  
  800.50  2.0006E-003  
  801.00  1.7962E-003  
  801.50  1.6212E-003  
  802.00  1.4656E-003  
  802.50  1.4296E-003  
  803.00  1.4148E-003  
  803.50  1.3605E-003  
  804.00  1.2747E-003  
  804.50  1.1084E-003  
  805.00  1.0634E-003  
  805.50  1.0991E-003  
  806.00  1.3201E-003  
  806.50  1.3511E-003  
  807.00  1.4163E-003  
  807.50  1.3114E-003  
  808.00  1.3340E-003  
  808.50  1.2467E-003  
  809.00  1.1955E-003  
  809.50  1.1336E-003  
  810.00  8.8828E-004  
  810.50  6.8169E-004  
  811.00  7.0363E-004  
  811.50  9.0867E-004  
  812.00  1.2695E-003  
  812.50  1.3992E-003  
  813.00  1.2735E-003  
  813.50  9.0740E-004  
  814.00  7.0426E-004  
  814.50  7.8231E-004  
  815.00  1.0135E-003  
  815.50  8.6646E-004  
  816.00  7.2783E-004  
  816.50  6.9504E-004  
  817.00  7.6273E-004  
  817.50  5.2784E-004  
  818.00  6.4253E-004  
  818.50  5.7913E-004  
  819.00  7.8836E-004  
  819.50  5.6876E-004  
  820.00  3.9919E-004  
  820.50  3.0884E-004  
  821.00  5.6501E-004  
  821.50  3.3730E-004  
  822.00  2.8055E-004  
  822.50  4.8952E-004  
  823.00  5.8693E-004  
  823.50  2.7902E-004  
  824.00  1.8621E-005  
  824.50  0.0000E+000  
  825.00  0.0000E+000  
  825.50  0.0000E+000  
  826.00  8.9542E-005  
  826.50  0.0000E+000  
  827.00  6.2361E-005  
  827.50  1.4907E-004  
  828.00  1.4796E-004  
  828.50  1.1621E-004  
  829.00  1.6816E-005  
  829.50  0.0000E+000  
  830.00  0.0000E+000  
  830.50  0.0000E+000  
  831.00  0.0000E+000  
  831.50  0.0000E+000  
  832.00  0.0000E+000  
  832.50  9.0649E-006  
  833.00  0.0000E+000  
  833.50  0.0000E+000  
  834.00  0.0000E+000  
  834.50  0.0000E+000  
  835.00  8.2581E-007  
  835.50  0.0000E+000  
  836.00  0.0000E+000  
  836.50  0.0000E+000  
  837.00  0.0000E+000  
  837.50  0.0000E+000  
  838.00  0.0000E+000  
  838.50  0.0000E+000  
  839.00  0.0000E+000  
  839.50  0.0000E+000  
  840.00  0.0000E+000  
  840.50  0.0000E+000  
  841.00  0.0000E+000  
  841.50  0.0000E+000  
  842.00  0.0000E+000  
  842.50  0.0000E+000  
  843.00  0.0000E+000  
  843.50  0.0000E+000  
  844.00  0.0000E+000  
  844.50  0.0000E+000  
  845.00  0.0000E+000  
  845.50  0.0000E+000  
  846.00  0.0000E+000  
  846.50  0.0000E+000  
  847.00  0.0000E+000  
  847.50  0.0000E+000  
  848.00  0.0000E+000  
  848.50  0.0000E+000  
  849.00  0.0000E+000  
  849.50  0.0000E+000  
  850.00  0.0000E+000  
  850.50  0.0000E+000  
  851.00  0.0000E+000  
  851.50  0.0000E+000  
  852.00  0.0000E+000  
  852.50  0.0000E+000  
  853.00  0.0000E+000  
  853.50  0.0000E+000  
  854.00  0.0000E+000  
  854.50  0.0000E+000  
  855.00  0.0000E+000  
  855.50  0.0000E+000  
  856.00  0.0000E+000  
  856.50  2.3649E-005  
  857.00  0.0000E+000  
  857.50  0.0000E+000  
  858.00  0.0000E+000  
  858.50  0.0000E+000  
  859.00  0.0000E+000  
  859.50  0.0000E+000  
  860.00  0.0000E+000  
  860.50  0.0000E+000  
  861.00  0.0000E+000  
  861.50  0.0000E+000  
  862.00  0.0000E+000  
  862.50  0.0000E+000  
  863.00  0.0000E+000  
  863.50  0.0000E+000  
  864.00  0.0000E+000  
  864.50  0.0000E+000  
  865.00  0.0000E+000  
  865.50  0.0000E+000  
  866.00  4.6800E-005  
  866.50  1.6841E-005  
  867.00  0.0000E+000  
  867.50  0.0000E+000  
  868.00  0.0000E+000  
  868.50  0.0000E+000  
  869.00  0.0000E+000  
  869.50  0.0000E+000  
  870.00  0.0000E+000  
  870.50  0.0000E+000  
  871.00  0.0000E+000  
  871.50  0.0000E+000  
  872.00  0.0000E+000  
  872.50  0.0000E+000  
  873.00  0.0000E+000  
  873.50  0.0000E+000  
  874.00  0.0000E+000  
  874.50  0.0000E+000  
  875.00  0.0000E+000  
  875.50  0.0000E+000  
  876.00  0.0000E+000  
  876.50  0.0000E+000  
  877.00  0.0000E+000  
  877.50  0.0000E+000  
  878.00  0.0000E+000  
  878.50  0.0000E+000  
  879.00  0.0000E+000  
  879.50  0.0000E+000  
  880.00  8.7005E-005  
  880.50  6.8799E-005  
  881.00  2.0632E-006  
  881.50  0.0000E+000  
  882.00  0.0000E+000  
  882.50  7.4033E-005  
  883.00  3.7926E-004  
  883.50  0.0000E+000  
  884.00  0.0000E+000  
  884.50  0.0000E+000  
  885.00  0.0000E+000  
  885.50  0.0000E+000  
  886.00  0.0000E+000  
  886.50  1.5234E-005  
  887.00  1.0264E-003  
  887.50  6.9669E-004  
  888.00  0.0000E+000  
  888.50  0.0000E+000  
  889.00  0.0000E+000  
  889.50  1.5300E-005  
  890.00  8.3519E-004  
  890.50  6.3043E-004  
  891.00  1.9103E-004  
  891.50  1.4975E-004  
  892.00  2.5027E-008  
  892.50  0.0000E+000  
  893.00  9.1476E-004  
  893.50  2.0264E-003  
  894.00  1.6323E-003  
  894.50  1.3973E-003  
  895.00  1.4117E-003  
  895.50  2.2846E-003  
  896.00  1.9897E-003  
  896.50  8.3863E-004  
  897.00  3.4927E-005  
  897.50  5.4315E-007  
  898.00  4.7371E-004  
  898.50  9.6217E-004  
  899.00  1.1258E-003  
  899.50  3.0306E-005  
