
# From lspdd.org
# 
# Name: LFC GE T8 G13 Domestique
# Indice spectral Valeur 
# MSI 0.37 
# SLI 0.59 
# IPI 0.57 
# Pourcentage de bleu 22.7 
# Caractéristique Valeur 
# CCT calculée (K) 3621 
# CCT du fabricant (K) 4000 
# Tension (V) ND 
# Puissance (W) 32.0 
# Efficacité lumineuse (Lum/W) ND 
#
# Image: '/app/system/img_1s/2510/medium_image1.JPG?1413486022'
# 

  273.00  0.0000E+000  
  273.50  0.0000E+000  
  274.00  0.0000E+000  
  274.50  0.0000E+000  
  275.00  0.0000E+000  
  275.50  0.0000E+000  
  276.00  0.0000E+000  
  276.50  0.0000E+000  
  277.00  0.0000E+000  
  277.50  0.0000E+000  
  278.00  0.0000E+000  
  278.50  0.0000E+000  
  279.00  0.0000E+000  
  279.50  0.0000E+000  
  280.00  0.0000E+000  
  280.50  0.0000E+000  
  281.00  0.0000E+000  
  281.50  0.0000E+000  
  282.00  0.0000E+000  
  282.50  0.0000E+000  
  283.00  0.0000E+000  
  283.50  0.0000E+000  
  284.00  0.0000E+000  
  284.50  0.0000E+000  
  285.00  0.0000E+000  
  285.50  0.0000E+000  
  286.00  0.0000E+000  
  286.50  0.0000E+000  
  287.00  0.0000E+000  
  287.50  0.0000E+000  
  288.00  0.0000E+000  
  288.50  0.0000E+000  
  289.00  0.0000E+000  
  289.50  0.0000E+000  
  290.00  0.0000E+000  
  290.50  0.0000E+000  
  291.00  0.0000E+000  
  291.50  0.0000E+000  
  292.00  0.0000E+000  
  292.50  0.0000E+000  
  293.00  0.0000E+000  
  293.50  0.0000E+000  
  294.00  0.0000E+000  
  294.50  0.0000E+000  
  295.00  0.0000E+000  
  295.50  0.0000E+000  
  296.00  0.0000E+000  
  296.50  0.0000E+000  
  297.00  0.0000E+000  
  297.50  0.0000E+000  
  298.00  0.0000E+000  
  298.50  0.0000E+000  
  299.00  0.0000E+000  
  299.50  0.0000E+000  
  300.00  0.0000E+000  
  300.50  0.0000E+000  
  301.00  0.0000E+000  
  301.50  0.0000E+000  
  302.00  0.0000E+000  
  302.50  0.0000E+000  
  303.00  0.0000E+000  
  303.50  0.0000E+000  
  304.00  0.0000E+000  
  304.50  0.0000E+000  
  305.00  0.0000E+000  
  305.50  0.0000E+000  
  306.00  0.0000E+000  
  306.50  0.0000E+000  
  307.00  0.0000E+000  
  307.50  0.0000E+000  
  308.00  0.0000E+000  
  308.50  0.0000E+000  
  309.00  0.0000E+000  
  309.50  0.0000E+000  
  310.00  0.0000E+000  
  310.50  0.0000E+000  
  311.00  0.0000E+000  
  311.50  0.0000E+000  
  312.00  0.0000E+000  
  312.50  0.0000E+000  
  313.00  0.0000E+000  
  313.50  0.0000E+000  
  314.00  0.0000E+000  
  314.50  0.0000E+000  
  315.00  0.0000E+000  
  315.50  0.0000E+000  
  316.00  0.0000E+000  
  316.50  0.0000E+000  
  317.00  0.0000E+000  
  317.50  0.0000E+000  
  318.00  0.0000E+000  
  318.50  0.0000E+000  
  319.00  0.0000E+000  
  319.50  0.0000E+000  
  320.00  0.0000E+000  
  320.50  0.0000E+000  
  321.00  0.0000E+000  
  321.50  0.0000E+000  
  322.00  0.0000E+000  
  322.50  0.0000E+000  
  323.00  0.0000E+000  
  323.50  0.0000E+000  
  324.00  0.0000E+000  
  324.50  0.0000E+000  
  325.00  0.0000E+000  
  325.50  0.0000E+000  
  326.00  0.0000E+000  
  326.50  0.0000E+000  
  327.00  0.0000E+000  
  327.50  0.0000E+000  
  328.00  0.0000E+000  
  328.50  0.0000E+000  
  329.00  0.0000E+000  
  329.50  0.0000E+000  
  330.00  0.0000E+000  
  330.50  0.0000E+000  
  331.00  0.0000E+000  
  331.50  0.0000E+000  
  332.00  0.0000E+000  
  332.50  0.0000E+000  
  333.00  0.0000E+000  
  333.50  0.0000E+000  
  334.00  0.0000E+000  
  334.50  0.0000E+000  
  335.00  0.0000E+000  
  335.50  0.0000E+000  
  336.00  0.0000E+000  
  336.50  0.0000E+000  
  337.00  0.0000E+000  
  337.50  0.0000E+000  
  338.00  0.0000E+000  
  338.50  0.0000E+000  
  339.00  0.0000E+000  
  339.50  0.0000E+000  
  340.00  0.0000E+000  
  340.50  0.0000E+000  
  341.00  0.0000E+000  
  341.50  0.0000E+000  
  342.00  0.0000E+000  
  342.50  0.0000E+000  
  343.00  0.0000E+000  
  343.50  0.0000E+000  
  344.00  0.0000E+000  
  344.50  0.0000E+000  
  345.00  0.0000E+000  
  345.50  0.0000E+000  
  346.00  0.0000E+000  
  346.50  0.0000E+000  
  347.00  0.0000E+000  
  347.50  0.0000E+000  
  348.00  0.0000E+000  
  348.50  0.0000E+000  
  349.00  0.0000E+000  
  349.50  0.0000E+000  
  350.00  0.0000E+000  
  350.50  0.0000E+000  
  351.00  0.0000E+000  
  351.50  0.0000E+000  
  352.00  0.0000E+000  
  352.50  0.0000E+000  
  353.00  0.0000E+000  
  353.50  0.0000E+000  
  354.00  0.0000E+000  
  354.50  0.0000E+000  
  355.00  0.0000E+000  
  355.50  0.0000E+000  
  356.00  0.0000E+000  
  356.50  0.0000E+000  
  357.00  0.0000E+000  
  357.50  0.0000E+000  
  358.00  0.0000E+000  
  358.50  0.0000E+000  
  359.00  0.0000E+000  
  359.50  0.0000E+000  
  360.00  0.0000E+000  
  360.50  0.0000E+000  
  361.00  0.0000E+000  
  361.50  0.0000E+000  
  362.00  0.0000E+000  
  362.50  0.0000E+000  
  363.00  0.0000E+000  
  363.50  2.3732E-004  
  364.00  8.9849E-004  
  364.50  1.5955E-003  
  365.00  1.9933E-003  
  365.50  1.8993E-003  
  366.00  1.3377E-003  
  366.50  6.8170E-004  
  367.00  1.9314E-004  
  367.50  0.0000E+000  
  368.00  0.0000E+000  
  368.50  0.0000E+000  
  369.00  0.0000E+000  
  369.50  0.0000E+000  
  370.00  0.0000E+000  
  370.50  0.0000E+000  
  371.00  0.0000E+000  
  371.50  0.0000E+000  
  372.00  0.0000E+000  
  372.50  0.0000E+000  
  373.00  0.0000E+000  
  373.50  0.0000E+000  
  374.00  0.0000E+000  
  374.50  0.0000E+000  
  375.00  0.0000E+000  
  375.50  0.0000E+000  
  376.00  0.0000E+000  
  376.50  0.0000E+000  
  377.00  0.0000E+000  
  377.50  0.0000E+000  
  378.00  0.0000E+000  
  378.50  0.0000E+000  
  379.00  0.0000E+000  
  379.50  0.0000E+000  
  380.00  0.0000E+000  
  380.50  0.0000E+000  
  381.00  0.0000E+000  
  381.50  0.0000E+000  
  382.00  0.0000E+000  
  382.50  0.0000E+000  
  383.00  0.0000E+000  
  383.50  0.0000E+000  
  384.00  0.0000E+000  
  384.50  0.0000E+000  
  385.00  0.0000E+000  
  385.50  0.0000E+000  
  386.00  0.0000E+000  
  386.50  0.0000E+000  
  387.00  0.0000E+000  
  387.50  0.0000E+000  
  388.00  0.0000E+000  
  388.50  0.0000E+000  
  389.00  0.0000E+000  
  389.50  0.0000E+000  
  390.00  0.0000E+000  
  390.50  0.0000E+000  
  391.00  0.0000E+000  
  391.50  0.0000E+000  
  392.00  0.0000E+000  
  392.50  0.0000E+000  
  393.00  0.0000E+000  
  393.50  0.0000E+000  
  394.00  0.0000E+000  
  394.50  0.0000E+000  
  395.00  0.0000E+000  
  395.50  0.0000E+000  
  396.00  0.0000E+000  
  396.50  0.0000E+000  
  397.00  0.0000E+000  
  397.50  0.0000E+000  
  398.00  0.0000E+000  
  398.50  0.0000E+000  
  399.00  0.0000E+000  
  399.50  0.0000E+000  
  400.00  0.0000E+000  
  400.50  0.0000E+000  
  401.00  0.0000E+000  
  401.50  1.6542E-005  
  402.00  1.1450E-004  
  402.50  4.7898E-004  
  403.00  2.4154E-003  
  403.50  6.2012E-003  
  404.00  1.0449E-002  
  404.50  1.2557E-002  
  405.00  1.1409E-002  
  405.50  7.5868E-003  
  406.00  3.9013E-003  
  406.50  1.8601E-003  
  407.00  1.3132E-003  
  407.50  1.1933E-003  
  408.00  1.0641E-003  
  408.50  8.2305E-004  
  409.00  5.6143E-004  
  409.50  4.4950E-004  
  410.00  4.4664E-004  
  410.50  4.6749E-004  
  411.00  4.9036E-004  
  411.50  5.2055E-004  
  412.00  5.8401E-004  
  412.50  6.6730E-004  
  413.00  7.4662E-004  
  413.50  8.0830E-004  
  414.00  8.2806E-004  
  414.50  9.0385E-004  
  415.00  1.0035E-003  
  415.50  1.0952E-003  
  416.00  1.2129E-003  
  416.50  1.2944E-003  
  417.00  1.3293E-003  
  417.50  1.3844E-003  
  418.00  1.4764E-003  
  418.50  1.5272E-003  
  419.00  1.5767E-003  
  419.50  1.6125E-003  
  420.00  1.6404E-003  
  420.50  1.7464E-003  
  421.00  1.8906E-003  
  421.50  2.0429E-003  
  422.00  2.1785E-003  
  422.50  2.3112E-003  
  423.00  2.4518E-003  
  423.50  2.5317E-003  
  424.00  2.6186E-003  
  424.50  2.7096E-003  
  425.00  2.8272E-003  
  425.50  2.9618E-003  
  426.00  3.0609E-003  
  426.50  3.1279E-003  
  427.00  3.2192E-003  
  427.50  3.3786E-003  
  428.00  3.5743E-003  
  428.50  3.7553E-003  
  429.00  3.8978E-003  
  429.50  4.0061E-003  
  430.00  4.1194E-003  
  430.50  4.2499E-003  
  431.00  4.3610E-003  
  431.50  4.4955E-003  
  432.00  4.7029E-003  
  432.50  5.0360E-003  
  433.00  5.5850E-003  
  433.50  7.2496E-003  
  434.00  1.3947E-002  
  434.50  3.1953E-002  
  435.00  5.6651E-002  
  435.50  7.4974E-002  
  436.00  7.3307E-002  
  436.50  5.5069E-002  
  437.00  3.1801E-002  
  437.50  1.5954E-002  
  438.00  9.4821E-003  
  438.50  7.6363E-003  
  439.00  6.9639E-003  
  439.50  6.8071E-003  
  440.00  6.7265E-003  
  440.50  6.6949E-003  
  441.00  6.6764E-003  
  441.50  6.6355E-003  
  442.00  6.5702E-003  
  442.50  6.5264E-003  
  443.00  6.5191E-003  
  443.50  6.5474E-003  
  444.00  6.6679E-003  
  444.50  6.8230E-003  
  445.00  6.9658E-003  
  445.50  7.0073E-003  
  446.00  7.0078E-003  
  446.50  6.9995E-003  
  447.00  7.0136E-003  
  447.50  7.0911E-003  
  448.00  7.1447E-003  
  448.50  7.1426E-003  
  449.00  7.0973E-003  
  449.50  7.0280E-003  
  450.00  6.9767E-003  
  450.50  7.0186E-003  
  451.00  7.0534E-003  
  451.50  7.1048E-003  
  452.00  7.0643E-003  
  452.50  7.0166E-003  
  453.00  6.9677E-003  
  453.50  6.9376E-003  
  454.00  6.9381E-003  
  454.50  6.9408E-003  
  455.00  6.9841E-003  
  455.50  7.0282E-003  
  456.00  7.0400E-003  
  456.50  6.9637E-003  
  457.00  6.9233E-003  
  457.50  6.8600E-003  
  458.00  6.8015E-003  
  458.50  6.7556E-003  
  459.00  6.6569E-003  
  459.50  6.6387E-003  
  460.00  6.6362E-003  
  460.50  6.6915E-003  
  461.00  6.7209E-003  
  461.50  6.6520E-003  
  462.00  6.5279E-003  
  462.50  6.3877E-003  
  463.00  6.3119E-003  
  463.50  6.2596E-003  
  464.00  6.1629E-003  
  464.50  6.0809E-003  
  465.00  6.0455E-003  
  465.50  6.0627E-003  
  466.00  6.0785E-003  
  466.50  6.0703E-003  
  467.00  5.9746E-003  
  467.50  5.8536E-003  
  468.00  5.7502E-003  
  468.50  5.6729E-003  
  469.00  5.6085E-003  
  469.50  5.5225E-003  
  470.00  5.4111E-003  
  470.50  5.3485E-003  
  471.00  5.3098E-003  
  471.50  5.2644E-003  
  472.00  5.2180E-003  
  472.50  5.1638E-003  
  473.00  5.1553E-003  
  473.50  5.0926E-003  
  474.00  5.0213E-003  
  474.50  4.9626E-003  
  475.00  4.8607E-003  
  475.50  4.8319E-003  
  476.00  4.7555E-003  
  476.50  4.7509E-003  
  477.00  4.7714E-003  
  477.50  4.7600E-003  
  478.00  4.7791E-003  
  478.50  4.7794E-003  
  479.00  4.8128E-003  
  479.50  4.9154E-003  
  480.00  5.1163E-003  
  480.50  5.4331E-003  
  481.00  5.8563E-003  
  481.50  6.4377E-003  
  482.00  7.2325E-003  
  482.50  8.3064E-003  
  483.00  9.5663E-003  
  483.50  1.1020E-002  
  484.00  1.2635E-002  
  484.50  1.4508E-002  
  485.00  1.6557E-002  
  485.50  1.8597E-002  
  486.00  2.0256E-002  
  486.50  2.1197E-002  
  487.00  2.1398E-002  
  487.50  2.0917E-002  
  488.00  1.9933E-002  
  488.50  1.8706E-002  
  489.00  1.7456E-002  
  489.50  1.6336E-002  
  490.00  1.5506E-002  
  490.50  1.4831E-002  
  491.00  1.4361E-002  
  491.50  1.3880E-002  
  492.00  1.3299E-002  
  492.50  1.2615E-002  
  493.00  1.1912E-002  
  493.50  1.1279E-002  
  494.00  1.0717E-002  
  494.50  1.0190E-002  
  495.00  9.6589E-003  
  495.50  9.1233E-003  
  496.00  8.6276E-003  
  496.50  8.2174E-003  
  497.00  7.8581E-003  
  497.50  7.4969E-003  
  498.00  7.0974E-003  
  498.50  6.6463E-003  
  499.00  6.1852E-003  
  499.50  5.7560E-003  
  500.00  5.3697E-003  
  500.50  5.0452E-003  
  501.00  4.7354E-003  
  501.50  4.4504E-003  
  502.00  4.2194E-003  
  502.50  4.0532E-003  
  503.00  3.9001E-003  
  503.50  3.7291E-003  
  504.00  3.5843E-003  
  504.50  3.4791E-003  
  505.00  3.4340E-003  
  505.50  3.4062E-003  
  506.00  3.3561E-003  
  506.50  3.3219E-003  
  507.00  3.2888E-003  
  507.50  3.2854E-003  
  508.00  3.3334E-003  
  508.50  3.3659E-003  
  509.00  3.3940E-003  
  509.50  3.3899E-003  
  510.00  3.3848E-003  
  510.50  3.3958E-003  
  511.00  3.4424E-003  
  511.50  3.4670E-003  
  512.00  3.4708E-003  
  512.50  3.4523E-003  
  513.00  3.4459E-003  
  513.50  3.4549E-003  
  514.00  3.4540E-003  
  514.50  3.4451E-003  
  515.00  3.4098E-003  
  515.50  3.3802E-003  
  516.00  3.3493E-003  
  516.50  3.3190E-003  
  517.00  3.2783E-003  
  517.50  3.2208E-003  
  518.00  3.1570E-003  
  518.50  3.1042E-003  
  519.00  3.0697E-003  
  519.50  3.0303E-003  
  520.00  2.9834E-003  
  520.50  2.9357E-003  
  521.00  2.8998E-003  
  521.50  2.8752E-003  
  522.00  2.8277E-003  
  522.50  2.7965E-003  
  523.00  2.7698E-003  
  523.50  2.7505E-003  
  524.00  2.7446E-003  
  524.50  2.7226E-003  
  525.00  2.7181E-003  
  525.50  2.6899E-003  
  526.00  2.6513E-003  
  526.50  2.6447E-003  
  527.00  2.6670E-003  
  527.50  2.7236E-003  
  528.00  2.7619E-003  
  528.50  2.7755E-003  
  529.00  2.7602E-003  
  529.50  2.7697E-003  
  530.00  2.7729E-003  
  530.50  2.8183E-003  
  531.00  2.9157E-003  
  531.50  3.1292E-003  
  532.00  3.5079E-003  
  532.50  4.0759E-003  
  533.00  4.6428E-003  
  533.50  4.9763E-003  
  534.00  5.0366E-003  
  534.50  4.9785E-003  
  535.00  5.1500E-003  
  535.50  5.7545E-003  
  536.00  6.9491E-003  
  536.50  8.8365E-003  
  537.00  1.1286E-002  
  537.50  1.4036E-002  
  538.00  1.6974E-002  
  538.50  2.0689E-002  
  539.00  2.6417E-002  
  539.50  3.5896E-002  
  540.00  5.0879E-002  
  540.50  7.0793E-002  
  541.00  9.0822E-002  
  541.50  1.0481E-001  
  542.00  1.0791E-001  
  542.50  1.0311E-001  
  543.00  9.6286E-002  
  543.50  9.1802E-002  
  544.00  9.2042E-002  
  544.50  9.7386E-002  
  545.00  1.0760E-001  
  545.50  1.1790E-001  
  546.00  1.1943E-001  
  546.50  1.1016E-001  
  547.00  9.3158E-002  
  547.50  7.6469E-002  
  548.00  6.4693E-002  
  548.50  5.6341E-002  
  549.00  4.9588E-002  
  549.50  4.3407E-002  
  550.00  3.7820E-002  
  550.50  3.2761E-002  
  551.00  2.8373E-002  
  551.50  2.4594E-002  
  552.00  2.1407E-002  
  552.50  1.8662E-002  
  553.00  1.6248E-002  
  553.50  1.4084E-002  
  554.00  1.2071E-002  
  554.50  1.0263E-002  
  555.00  8.6625E-003  
  555.50  7.4418E-003  
  556.00  6.5165E-003  
  556.50  5.8404E-003  
  557.00  5.2976E-003  
  557.50  4.8619E-003  
  558.00  4.4545E-003  
  558.50  4.1393E-003  
  559.00  3.8445E-003  
  559.50  3.6014E-003  
  560.00  3.3708E-003  
  560.50  3.1337E-003  
  561.00  2.9766E-003  
  561.50  2.8480E-003  
  562.00  2.7408E-003  
  562.50  2.6528E-003  
  563.00  2.5390E-003  
  563.50  2.4427E-003  
  564.00  2.3481E-003  
  564.50  2.2592E-003  
  565.00  2.1673E-003  
  565.50  2.0408E-003  
  566.00  1.9576E-003  
  566.50  1.9027E-003  
  567.00  1.8881E-003  
  567.50  1.8644E-003  
  568.00  1.8435E-003  
  568.50  1.8647E-003  
  569.00  1.8508E-003  
  569.50  1.7665E-003  
  570.00  1.6441E-003  
  570.50  1.5094E-003  
  571.00  1.4299E-003  
  571.50  1.3814E-003  
  572.00  1.3522E-003  
  572.50  1.3233E-003  
  573.00  1.3307E-003  
  573.50  1.3776E-003  
  574.00  1.5163E-003  
  574.50  1.7284E-003  
  575.00  2.3693E-003  
  575.50  4.0733E-003  
  576.00  6.9973E-003  
  576.50  9.9373E-003  
  577.00  1.1439E-002  
  577.50  1.1202E-002  
  578.00  1.0950E-002  
  578.50  1.1915E-002  
  579.00  1.3487E-002  
  579.50  1.4665E-002  
  580.00  1.5118E-002  
  580.50  1.5117E-002  
  581.00  1.5240E-002  
  581.50  1.5969E-002  
  582.00  1.7818E-002  
  582.50  2.0153E-002  
  583.00  2.2053E-002  
  583.50  2.2975E-002  
  584.00  2.2872E-002  
  584.50  2.1987E-002  
  585.00  2.0886E-002  
  585.50  2.0667E-002  
  586.00  2.2321E-002  
  586.50  2.5988E-002  
  587.00  2.9114E-002  
  587.50  2.8975E-002  
  588.00  2.5062E-002  
  588.50  1.9604E-002  
  589.00  1.5399E-002  
  589.50  1.3160E-002  
  590.00  1.2620E-002  
  590.50  1.3004E-002  
  591.00  1.4206E-002  
  591.50  1.6424E-002  
  592.00  1.9608E-002  
  592.50  2.2742E-002  
  593.00  2.4114E-002  
  593.50  2.2403E-002  
  594.00  1.8490E-002  
  594.50  1.4191E-002  
  595.00  1.1164E-002  
  595.50  9.4777E-003  
  596.00  8.7866E-003  
  596.50  8.4635E-003  
  597.00  8.5482E-003  
  597.50  9.2729E-003  
  598.00  1.0788E-002  
  598.50  1.2928E-002  
  599.00  1.4887E-002  
  599.50  1.5669E-002  
  600.00  1.4812E-002  
  600.50  1.2728E-002  
  601.00  1.0277E-002  
  601.50  8.1821E-003  
  602.00  6.8011E-003  
  602.50  5.9790E-003  
  603.00  5.6509E-003  
  603.50  5.6401E-003  
  604.00  5.8503E-003  
  604.50  6.1990E-003  
  605.00  6.6141E-003  
  605.50  7.0623E-003  
  606.00  7.6722E-003  
  606.50  8.5988E-003  
  607.00  9.9876E-003  
  607.50  1.1987E-002  
  608.00  1.5117E-002  
  608.50  2.0644E-002  
  609.00  3.1350E-002  
  609.50  5.5518E-002  
  610.00  9.5696E-002  
  610.50  1.4269E-001  
  611.00  1.7791E-001  
  611.50  1.8664E-001  
  612.00  1.6692E-001  
  612.50  1.3482E-001  
  613.00  1.0362E-001  
  613.50  8.3079E-002  
  614.00  7.1320E-002  
  614.50  6.2744E-002  
  615.00  5.3623E-002  
  615.50  4.3529E-002  
  616.00  3.4040E-002  
  616.50  2.6446E-002  
  617.00  2.1386E-002  
  617.50  1.8102E-002  
  618.00  1.6096E-002  
  618.50  1.5062E-002  
  619.00  1.4687E-002  
  619.50  1.4963E-002  
  620.00  1.5585E-002  
  620.50  1.6248E-002  
  621.00  1.6720E-002  
  621.50  1.6930E-002  
  622.00  1.7231E-002  
  622.50  1.7771E-002  
  623.00  1.8526E-002  
  623.50  1.9198E-002  
  624.00  1.9620E-002  
  624.50  1.9805E-002  
  625.00  1.9894E-002  
  625.50  1.9882E-002  
  626.00  1.9680E-002  
  626.50  1.9244E-002  
  627.00  1.8491E-002  
  627.50  1.7611E-002  
  628.00  1.6726E-002  
  628.50  1.6251E-002  
  629.00  1.6795E-002  
  629.50  1.8926E-002  
  630.00  2.3002E-002  
  630.50  2.7086E-002  
  631.00  2.8417E-002  
  631.50  2.5113E-002  
  632.00  1.8822E-002  
  632.50  1.2371E-002  
  633.00  7.9229E-003  
  633.50  5.4123E-003  
  634.00  4.3464E-003  
  634.50  3.8124E-003  
  635.00  3.5421E-003  
  635.50  3.3087E-003  
  636.00  3.0851E-003  
  636.50  2.8858E-003  
  637.00  2.7183E-003  
  637.50  2.5537E-003  
  638.00  2.4069E-003  
  638.50  2.2985E-003  
  639.00  2.2481E-003  
  639.50  2.2141E-003  
  640.00  2.1887E-003  
  640.50  2.2009E-003  
  641.00  2.2113E-003  
  641.50  2.1685E-003  
  642.00  2.1489E-003  
  642.50  2.1645E-003  
  643.00  2.2316E-003  
  643.50  2.2459E-003  
  644.00  2.2901E-003  
  644.50  2.3571E-003  
  645.00  2.4642E-003  
  645.50  2.4665E-003  
  646.00  2.4016E-003  
  646.50  2.3422E-003  
  647.00  2.3375E-003  
  647.50  2.3618E-003  
  648.00  2.4765E-003  
  648.50  2.8141E-003  
  649.00  3.7219E-003  
  649.50  5.3396E-003  
  650.00  7.1107E-003  
  650.50  8.1148E-003  
  651.00  7.6808E-003  
  651.50  6.3880E-003  
  652.00  5.1857E-003  
  652.50  4.5635E-003  
  653.00  4.3436E-003  
  653.50  4.0957E-003  
  654.00  3.7130E-003  
  654.50  3.2822E-003  
  655.00  2.9156E-003  
  655.50  2.6969E-003  
  656.00  2.5929E-003  
  656.50  2.6344E-003  
  657.00  2.7486E-003  
  657.50  2.8685E-003  
  658.00  2.8409E-003  
  658.50  2.5851E-003  
  659.00  2.1942E-003  
  659.50  1.8512E-003  
  660.00  1.6727E-003  
  660.50  1.7232E-003  
  661.00  2.2301E-003  
  661.50  3.1949E-003  
  662.00  4.2858E-003  
  662.50  4.9038E-003  
  663.00  4.7021E-003  
  663.50  3.9143E-003  
  664.00  3.0020E-003  
  664.50  2.3171E-003  
  665.00  1.9373E-003  
  665.50  1.7457E-003  
  666.00  1.6730E-003  
  666.50  1.6898E-003  
  667.00  1.6876E-003  
  667.50  1.6543E-003  
  668.00  1.5889E-003  
  668.50  1.5021E-003  
  669.00  1.4763E-003  
  669.50  1.4534E-003  
  670.00  1.4577E-003  
  670.50  1.4824E-003  
  671.00  1.4636E-003  
  671.50  1.4405E-003  
  672.00  1.3985E-003  
  672.50  1.3734E-003  
  673.00  1.3084E-003  
  673.50  1.2010E-003  
  674.00  1.1149E-003  
  674.50  1.0590E-003  
  675.00  1.0318E-003  
  675.50  9.9206E-004  
  676.00  9.9723E-004  
  676.50  1.0421E-003  
  677.00  1.0644E-003  
  677.50  1.0783E-003  
  678.00  1.0579E-003  
  678.50  1.0774E-003  
  679.00  1.1562E-003  
  679.50  1.2840E-003  
  680.00  1.4586E-003  
  680.50  1.5604E-003  
  681.00  1.5663E-003  
  681.50  1.4674E-003  
  682.00  1.3585E-003  
  682.50  1.3122E-003  
  683.00  1.2638E-003  
  683.50  1.2268E-003  
  684.00  1.1627E-003  
  684.50  1.1428E-003  
  685.00  1.2529E-003  
  685.50  1.5709E-003  
  686.00  2.2019E-003  
  686.50  3.0086E-003  
  687.00  3.8826E-003  
  687.50  4.3573E-003  
  688.00  4.2427E-003  
  688.50  3.4773E-003  
  689.00  2.5062E-003  
  689.50  1.6779E-003  
  690.00  1.1704E-003  
  690.50  8.5844E-004  
  691.00  6.8695E-004  
  691.50  5.9257E-004  
  692.00  6.6351E-004  
  692.50  1.1925E-003  
  693.00  2.0559E-003  
  693.50  2.8146E-003  
  694.00  2.7752E-003  
  694.50  2.0413E-003  
  695.00  1.1442E-003  
  695.50  4.3574E-004  
  696.00  7.5815E-005  
  696.50  0.0000E+000  
  697.00  2.0127E-006  
  697.50  0.0000E+000  
  698.00  0.0000E+000  
  698.50  0.0000E+000  
  699.00  0.0000E+000  
  699.50  0.0000E+000  
  700.00  3.7957E-005  
  700.50  4.3330E-005  
  701.00  7.3521E-005  
  701.50  1.8168E-004  
  702.00  2.6459E-004  
  702.50  3.6145E-004  
  703.00  5.0421E-004  
  703.50  8.2764E-004  
  704.00  1.2712E-003  
  704.50  1.8587E-003  
  705.00  2.7835E-003  
  705.50  4.3462E-003  
  706.00  6.5835E-003  
  706.50  8.9217E-003  
  707.00  1.0342E-002  
  707.50  1.0435E-002  
  708.00  1.0401E-002  
  708.50  1.0936E-002  
  709.00  1.1441E-002  
  709.50  1.0249E-002  
  710.00  7.6849E-003  
  710.50  5.3531E-003  
  711.00  4.9292E-003  
  711.50  6.5541E-003  
  712.00  8.6463E-003  
  712.50  9.3872E-003  
  713.00  7.9590E-003  
  713.50  5.2305E-003  
  714.00  2.7522E-003  
  714.50  1.1653E-003  
  715.00  3.9966E-004  
  715.50  8.5998E-005  
  716.00  0.0000E+000  
  716.50  0.0000E+000  
  717.00  0.0000E+000  
  717.50  0.0000E+000  
  718.00  0.0000E+000  
  718.50  0.0000E+000  
  719.00  0.0000E+000  
  719.50  0.0000E+000  
  720.00  0.0000E+000  
  720.50  0.0000E+000  
  721.00  0.0000E+000  
  721.50  0.0000E+000  
  722.00  0.0000E+000  
  722.50  0.0000E+000  
  723.00  0.0000E+000  
  723.50  0.0000E+000  
  724.00  0.0000E+000  
  724.50  0.0000E+000  
  725.00  0.0000E+000  
  725.50  0.0000E+000  
  726.00  0.0000E+000  
  726.50  0.0000E+000  
  727.00  0.0000E+000  
  727.50  0.0000E+000  
  728.00  0.0000E+000  
  728.50  0.0000E+000  
  729.00  0.0000E+000  
  729.50  0.0000E+000  
  730.00  0.0000E+000  
  730.50  0.0000E+000  
  731.00  0.0000E+000  
  731.50  0.0000E+000  
  732.00  0.0000E+000  
  732.50  0.0000E+000  
  733.00  0.0000E+000  
  733.50  0.0000E+000  
  734.00  0.0000E+000  
  734.50  0.0000E+000  
  735.00  0.0000E+000  
  735.50  0.0000E+000  
  736.00  0.0000E+000  
  736.50  0.0000E+000  
  737.00  0.0000E+000  
  737.50  0.0000E+000  
  738.00  0.0000E+000  
  738.50  0.0000E+000  
  739.00  0.0000E+000  
  739.50  0.0000E+000  
  740.00  0.0000E+000  
  740.50  0.0000E+000  
  741.00  0.0000E+000  
  741.50  0.0000E+000  
  742.00  0.0000E+000  
  742.50  0.0000E+000  
  743.00  0.0000E+000  
  743.50  0.0000E+000  
  744.00  0.0000E+000  
  744.50  0.0000E+000  
  745.00  0.0000E+000  
  745.50  0.0000E+000  
  746.00  0.0000E+000  
  746.50  0.0000E+000  
  747.00  0.0000E+000  
  747.50  0.0000E+000  
  748.00  0.0000E+000  
  748.50  0.0000E+000  
  749.00  0.0000E+000  
  749.50  0.0000E+000  
  750.00  0.0000E+000  
  750.50  0.0000E+000  
  751.00  0.0000E+000  
  751.50  0.0000E+000  
  752.00  0.0000E+000  
  752.50  0.0000E+000  
  753.00  0.0000E+000  
  753.50  0.0000E+000  
  754.00  0.0000E+000  
  754.50  0.0000E+000  
  755.00  0.0000E+000  
  755.50  0.0000E+000  
  756.00  0.0000E+000  
  756.50  0.0000E+000  
  757.00  0.0000E+000  
  757.50  0.0000E+000  
  758.00  0.0000E+000  
  758.50  0.0000E+000  
  759.00  0.0000E+000  
  759.50  0.0000E+000  
  760.00  0.0000E+000  
  760.50  0.0000E+000  
  761.00  0.0000E+000  
  761.50  0.0000E+000  
  762.00  0.0000E+000  
  762.50  0.0000E+000  
  763.00  0.0000E+000  
  763.50  0.0000E+000  
  764.00  0.0000E+000  
  764.50  0.0000E+000  
  765.00  0.0000E+000  
  765.50  0.0000E+000  
  766.00  0.0000E+000  
  766.50  0.0000E+000  
  767.00  0.0000E+000  
  767.50  0.0000E+000  
  768.00  0.0000E+000  
  768.50  0.0000E+000  
  769.00  0.0000E+000  
  769.50  0.0000E+000  
  770.00  0.0000E+000  
  770.50  0.0000E+000  
  771.00  0.0000E+000  
  771.50  0.0000E+000  
  772.00  0.0000E+000  
  772.50  0.0000E+000  
  773.00  0.0000E+000  
  773.50  0.0000E+000  
  774.00  0.0000E+000  
  774.50  0.0000E+000  
  775.00  0.0000E+000  
  775.50  0.0000E+000  
  776.00  0.0000E+000  
  776.50  0.0000E+000  
  777.00  0.0000E+000  
  777.50  0.0000E+000  
  778.00  0.0000E+000  
  778.50  0.0000E+000  
  779.00  0.0000E+000  
  779.50  0.0000E+000  
  780.00  0.0000E+000  
  780.50  0.0000E+000  
  781.00  0.0000E+000  
  781.50  0.0000E+000  
  782.00  0.0000E+000  
  782.50  0.0000E+000  
  783.00  0.0000E+000  
  783.50  0.0000E+000  
  784.00  0.0000E+000  
  784.50  0.0000E+000  
  785.00  0.0000E+000  
  785.50  0.0000E+000  
  786.00  0.0000E+000  
  786.50  0.0000E+000  
  787.00  0.0000E+000  
  787.50  0.0000E+000  
  788.00  0.0000E+000  
  788.50  0.0000E+000  
  789.00  0.0000E+000  
  789.50  0.0000E+000  
  790.00  0.0000E+000  
  790.50  0.0000E+000  
  791.00  0.0000E+000  
  791.50  0.0000E+000  
  792.00  0.0000E+000  
  792.50  0.0000E+000  
  793.00  0.0000E+000  
  793.50  0.0000E+000  
  794.00  0.0000E+000  
  794.50  0.0000E+000  
  795.00  0.0000E+000  
  795.50  0.0000E+000  
  796.00  0.0000E+000  
  796.50  0.0000E+000  
  797.00  0.0000E+000  
  797.50  0.0000E+000  
  798.00  0.0000E+000  
  798.50  0.0000E+000  
  799.00  0.0000E+000  
  799.50  0.0000E+000  
  800.00  0.0000E+000  
  800.50  0.0000E+000  
  801.00  0.0000E+000  
  801.50  0.0000E+000  
  802.00  0.0000E+000  
  802.50  0.0000E+000  
  803.00  0.0000E+000  
  803.50  0.0000E+000  
  804.00  0.0000E+000  
  804.50  0.0000E+000  
  805.00  0.0000E+000  
  805.50  0.0000E+000  
  806.00  0.0000E+000  
  806.50  0.0000E+000  
  807.00  0.0000E+000  
  807.50  0.0000E+000  
  808.00  0.0000E+000  
  808.50  0.0000E+000  
  809.00  0.0000E+000  
  809.50  0.0000E+000  
  810.00  0.0000E+000  
  810.50  0.0000E+000  
  811.00  0.0000E+000  
  811.50  0.0000E+000  
  812.00  0.0000E+000  
  812.50  0.0000E+000  
  813.00  0.0000E+000  
  813.50  0.0000E+000  
  814.00  0.0000E+000  
  814.50  0.0000E+000  
  815.00  0.0000E+000  
  815.50  0.0000E+000  
  816.00  0.0000E+000  
  816.50  0.0000E+000  
  817.00  0.0000E+000  
  817.50  0.0000E+000  
  818.00  0.0000E+000  
  818.50  0.0000E+000  
  819.00  0.0000E+000  
  819.50  0.0000E+000  
  820.00  0.0000E+000  
  820.50  0.0000E+000  
  821.00  0.0000E+000  
  821.50  0.0000E+000  
  822.00  0.0000E+000  
  822.50  0.0000E+000  
  823.00  0.0000E+000  
  823.50  0.0000E+000  
  824.00  0.0000E+000  
  824.50  0.0000E+000  
  825.00  0.0000E+000  
  825.50  0.0000E+000  
  826.00  0.0000E+000  
  826.50  0.0000E+000  
  827.00  0.0000E+000  
  827.50  0.0000E+000  
  828.00  0.0000E+000  
  828.50  0.0000E+000  
  829.00  0.0000E+000  
  829.50  0.0000E+000  
  830.00  0.0000E+000  
  830.50  0.0000E+000  
  831.00  0.0000E+000  
  831.50  0.0000E+000  
  832.00  0.0000E+000  
  832.50  0.0000E+000  
  833.00  0.0000E+000  
  833.50  0.0000E+000  
  834.00  0.0000E+000  
  834.50  0.0000E+000  
  835.00  0.0000E+000  
  835.50  0.0000E+000  
  836.00  0.0000E+000  
  836.50  0.0000E+000  
  837.00  0.0000E+000  
  837.50  0.0000E+000  
  838.00  0.0000E+000  
  838.50  0.0000E+000  
  839.00  0.0000E+000  
  839.50  0.0000E+000  
  840.00  0.0000E+000  
  840.50  0.0000E+000  
  841.00  0.0000E+000  
  841.50  0.0000E+000  
  842.00  0.0000E+000  
  842.50  0.0000E+000  
  843.00  0.0000E+000  
  843.50  0.0000E+000  
  844.00  0.0000E+000  
  844.50  0.0000E+000  
  845.00  0.0000E+000  
  845.50  0.0000E+000  
  846.00  0.0000E+000  
  846.50  0.0000E+000  
  847.00  0.0000E+000  
  847.50  0.0000E+000  
  848.00  0.0000E+000  
  848.50  0.0000E+000  
  849.00  0.0000E+000  
  849.50  0.0000E+000  
  850.00  0.0000E+000  
  850.50  0.0000E+000  
  851.00  0.0000E+000  
  851.50  0.0000E+000  
  852.00  0.0000E+000  
  852.50  0.0000E+000  
  853.00  0.0000E+000  
  853.50  0.0000E+000  
  854.00  0.0000E+000  
  854.50  0.0000E+000  
  855.00  0.0000E+000  
  855.50  0.0000E+000  
  856.00  0.0000E+000  
  856.50  0.0000E+000  
  857.00  0.0000E+000  
  857.50  0.0000E+000  
  858.00  0.0000E+000  
  858.50  0.0000E+000  
  859.00  0.0000E+000  
  859.50  0.0000E+000  
  860.00  0.0000E+000  
  860.50  0.0000E+000  
  861.00  0.0000E+000  
  861.50  0.0000E+000  
  862.00  0.0000E+000  
  862.50  0.0000E+000  
  863.00  0.0000E+000  
  863.50  0.0000E+000  
  864.00  0.0000E+000  
  864.50  0.0000E+000  
  865.00  0.0000E+000  
  865.50  0.0000E+000  
  866.00  0.0000E+000  
  866.50  0.0000E+000  
  867.00  0.0000E+000  
  867.50  0.0000E+000  
  868.00  0.0000E+000  
  868.50  0.0000E+000  
  869.00  0.0000E+000  
  869.50  0.0000E+000  
  870.00  0.0000E+000  
  870.50  0.0000E+000  
  871.00  0.0000E+000  
  871.50  0.0000E+000  
  872.00  0.0000E+000  
  872.50  0.0000E+000  
  873.00  0.0000E+000  
  873.50  0.0000E+000  
  874.00  0.0000E+000  
  874.50  0.0000E+000  
  875.00  0.0000E+000  
  875.50  0.0000E+000  
  876.00  0.0000E+000  
  876.50  0.0000E+000  
  877.00  0.0000E+000  
  877.50  0.0000E+000  
  878.00  0.0000E+000  
  878.50  0.0000E+000  
  879.00  0.0000E+000  
  879.50  0.0000E+000  
  880.00  0.0000E+000  
  880.50  0.0000E+000  
  881.00  0.0000E+000  
  881.50  0.0000E+000  
  882.00  0.0000E+000  
  882.50  0.0000E+000  
  883.00  0.0000E+000  
  883.50  0.0000E+000  
  884.00  0.0000E+000  
  884.50  0.0000E+000  
  885.00  0.0000E+000  
  885.50  0.0000E+000  
  886.00  0.0000E+000  
  886.50  0.0000E+000  
  887.00  0.0000E+000  
  887.50  0.0000E+000  
  888.00  0.0000E+000  
  888.50  0.0000E+000  
  889.00  0.0000E+000  
  889.50  0.0000E+000  
  890.00  0.0000E+000  
  890.50  0.0000E+000  
  891.00  0.0000E+000  
  891.50  0.0000E+000  
  892.00  0.0000E+000  
  892.50  0.0000E+000  
  893.00  0.0000E+000  
  893.50  0.0000E+000  
  894.00  0.0000E+000  
  894.50  0.0000E+000  
  895.00  0.0000E+000  
  895.50  0.0000E+000  
  896.00  0.0000E+000  
  896.50  0.0000E+000  
  897.00  0.0000E+000  
  897.50  0.0000E+000  
  898.00  0.0000E+000  
  898.50  0.0000E+000  
  899.00  0.0000E+000  
  899.50  0.0000E+000  
