
# From lspdd.org
# 
# Name: Halo Globe Fan Domestique
# Indice spectral Valeur 
# MSI 0.29 
# SLI 0.51 
# IPI 0.94 
# Pourcentage de bleu 12.6 
# Caractéristique Valeur 
# CCT calculée (K) 2654 
# CCT du fabricant (K) 2660 
# Tension (V) 120 
# Puissance (W) 29.0 
# Efficacité lumineuse (Lum/W) 11.9 
#
# Image: '/app/system/img_2s/2513/medium_image2.JPG?1413486037'
# Image: '/app/system/img_1s/2513/medium_image1.JPG?1413486041'
# 

  273.00  0.0000E+000  
  273.50  0.0000E+000  
  274.00  0.0000E+000  
  274.50  0.0000E+000  
  275.00  0.0000E+000  
  275.50  0.0000E+000  
  276.00  0.0000E+000  
  276.50  0.0000E+000  
  277.00  0.0000E+000  
  277.50  0.0000E+000  
  278.00  0.0000E+000  
  278.50  0.0000E+000  
  279.00  0.0000E+000  
  279.50  0.0000E+000  
  280.00  0.0000E+000  
  280.50  0.0000E+000  
  281.00  0.0000E+000  
  281.50  0.0000E+000  
  282.00  0.0000E+000  
  282.50  0.0000E+000  
  283.00  0.0000E+000  
  283.50  0.0000E+000  
  284.00  0.0000E+000  
  284.50  0.0000E+000  
  285.00  0.0000E+000  
  285.50  0.0000E+000  
  286.00  0.0000E+000  
  286.50  0.0000E+000  
  287.00  0.0000E+000  
  287.50  0.0000E+000  
  288.00  0.0000E+000  
  288.50  0.0000E+000  
  289.00  0.0000E+000  
  289.50  0.0000E+000  
  290.00  0.0000E+000  
  290.50  0.0000E+000  
  291.00  0.0000E+000  
  291.50  0.0000E+000  
  292.00  0.0000E+000  
  292.50  0.0000E+000  
  293.00  0.0000E+000  
  293.50  0.0000E+000  
  294.00  0.0000E+000  
  294.50  0.0000E+000  
  295.00  0.0000E+000  
  295.50  0.0000E+000  
  296.00  0.0000E+000  
  296.50  0.0000E+000  
  297.00  0.0000E+000  
  297.50  0.0000E+000  
  298.00  0.0000E+000  
  298.50  0.0000E+000  
  299.00  0.0000E+000  
  299.50  0.0000E+000  
  300.00  0.0000E+000  
  300.50  0.0000E+000  
  301.00  3.0646E-005  
  301.50  1.4544E-004  
  302.00  1.6203E-004  
  302.50  1.1348E-004  
  303.00  3.5849E-005  
  303.50  0.0000E+000  
  304.00  0.0000E+000  
  304.50  0.0000E+000  
  305.00  0.0000E+000  
  305.50  0.0000E+000  
  306.00  3.8447E-007  
  306.50  6.0647E-005  
  307.00  1.0811E-004  
  307.50  7.0660E-005  
  308.00  3.0615E-005  
  308.50  1.6386E-006  
  309.00  0.0000E+000  
  309.50  2.6387E-006  
  310.00  8.9701E-006  
  310.50  0.0000E+000  
  311.00  0.0000E+000  
  311.50  0.0000E+000  
  312.00  0.0000E+000  
  312.50  0.0000E+000  
  313.00  0.0000E+000  
  313.50  0.0000E+000  
  314.00  0.0000E+000  
  314.50  5.4741E-006  
  315.00  3.7361E-005  
  315.50  6.2321E-005  
  316.00  7.3657E-005  
  316.50  2.2146E-005  
  317.00  0.0000E+000  
  317.50  0.0000E+000  
  318.00  0.0000E+000  
  318.50  0.0000E+000  
  319.00  0.0000E+000  
  319.50  1.4897E-005  
  320.00  5.7443E-005  
  320.50  1.2730E-004  
  321.00  1.7428E-004  
  321.50  1.5039E-004  
  322.00  1.3456E-004  
  322.50  1.1404E-004  
  323.00  8.0765E-005  
  323.50  9.0874E-005  
  324.00  6.4626E-005  
  324.50  3.2433E-005  
  325.00  2.5346E-005  
  325.50  5.8281E-006  
  326.00  0.0000E+000  
  326.50  0.0000E+000  
  327.00  0.0000E+000  
  327.50  0.0000E+000  
  328.00  0.0000E+000  
  328.50  0.0000E+000  
  329.00  0.0000E+000  
  329.50  0.0000E+000  
  330.00  1.2590E-006  
  330.50  1.8056E-005  
  331.00  5.2203E-005  
  331.50  5.6296E-005  
  332.00  1.2944E-005  
  332.50  2.3473E-006  
  333.00  0.0000E+000  
  333.50  0.0000E+000  
  334.00  4.7746E-006  
  334.50  1.8759E-005  
  335.00  5.0626E-005  
  335.50  5.7711E-005  
  336.00  4.5503E-005  
  336.50  6.1666E-005  
  337.00  1.5710E-005  
  337.50  1.2254E-005  
  338.00  4.2864E-005  
  338.50  9.4496E-005  
  339.00  1.1829E-004  
  339.50  9.6640E-005  
  340.00  5.6764E-005  
  340.50  8.9674E-006  
  341.00  1.6169E-005  
  341.50  6.2955E-007  
  342.00  0.0000E+000  
  342.50  0.0000E+000  
  343.00  0.0000E+000  
  343.50  0.0000E+000  
  344.00  0.0000E+000  
  344.50  0.0000E+000  
  345.00  0.0000E+000  
  345.50  4.2593E-006  
  346.00  1.9449E-006  
  346.50  1.2465E-005  
  347.00  1.7293E-005  
  347.50  2.5217E-007  
  348.00  0.0000E+000  
  348.50  0.0000E+000  
  349.00  0.0000E+000  
  349.50  0.0000E+000  
  350.00  2.0042E-005  
  350.50  7.0678E-006  
  351.00  0.0000E+000  
  351.50  0.0000E+000  
  352.00  0.0000E+000  
  352.50  1.1269E-005  
  353.00  7.3620E-005  
  353.50  1.0386E-004  
  354.00  5.6397E-005  
  354.50  2.5369E-006  
  355.00  0.0000E+000  
  355.50  0.0000E+000  
  356.00  0.0000E+000  
  356.50  0.0000E+000  
  357.00  0.0000E+000  
  357.50  0.0000E+000  
  358.00  0.0000E+000  
  358.50  5.7160E-006  
  359.00  5.7970E-005  
  359.50  1.2118E-004  
  360.00  1.4768E-004  
  360.50  1.0543E-004  
  361.00  1.1538E-004  
  361.50  1.1135E-004  
  362.00  1.1876E-004  
  362.50  1.4205E-004  
  363.00  1.2416E-004  
  363.50  1.0968E-004  
  364.00  9.0046E-005  
  364.50  8.8535E-005  
  365.00  1.3362E-004  
  365.50  1.5591E-004  
  366.00  1.9779E-004  
  366.50  2.0622E-004  
  367.00  1.8910E-004  
  367.50  1.3776E-004  
  368.00  8.9739E-005  
  368.50  4.9814E-005  
  369.00  3.4108E-006  
  369.50  6.2104E-008  
  370.00  0.0000E+000  
  370.50  0.0000E+000  
  371.00  0.0000E+000  
  371.50  0.0000E+000  
  372.00  1.9568E-005  
  372.50  7.5979E-005  
  373.00  1.4875E-004  
  373.50  1.7649E-004  
  374.00  1.7982E-004  
  374.50  1.6676E-004  
  375.00  1.1739E-004  
  375.50  7.3318E-005  
  376.00  3.5039E-005  
  376.50  3.5927E-005  
  377.00  4.5914E-005  
  377.50  7.7762E-005  
  378.00  8.7035E-005  
  378.50  1.3626E-004  
  379.00  1.2517E-004  
  379.50  1.2250E-004  
  380.00  1.0263E-004  
  380.50  5.7250E-005  
  381.00  9.1983E-007  
  381.50  0.0000E+000  
  382.00  0.0000E+000  
  382.50  7.1865E-006  
  383.00  6.7970E-005  
  383.50  9.7000E-005  
  384.00  1.3122E-004  
  384.50  1.2262E-004  
  385.00  1.6960E-004  
  385.50  2.5345E-004  
  386.00  2.4040E-004  
  386.50  2.0231E-004  
  387.00  1.5673E-004  
  387.50  1.7009E-004  
  388.00  2.6153E-004  
  388.50  3.3398E-004  
  389.00  3.6342E-004  
  389.50  3.3572E-004  
  390.00  3.0826E-004  
  390.50  3.2189E-004  
  391.00  3.9025E-004  
  391.50  4.6820E-004  
  392.00  5.1424E-004  
  392.50  5.2853E-004  
  393.00  5.6721E-004  
  393.50  5.7556E-004  
  394.00  5.8126E-004  
  394.50  5.9178E-004  
  395.00  5.8371E-004  
  395.50  6.0139E-004  
  396.00  6.1705E-004  
  396.50  6.0353E-004  
  397.00  6.1323E-004  
  397.50  6.3438E-004  
  398.00  6.6888E-004  
  398.50  7.1527E-004  
  399.00  7.3614E-004  
  399.50  7.5864E-004  
  400.00  7.7992E-004  
  400.50  8.0830E-004  
  401.00  8.5510E-004  
  401.50  9.3385E-004  
  402.00  1.0105E-003  
  402.50  1.0449E-003  
  403.00  1.0219E-003  
  403.50  9.6072E-004  
  404.00  8.7964E-004  
  404.50  8.5010E-004  
  405.00  8.3418E-004  
  405.50  8.7725E-004  
  406.00  9.6967E-004  
  406.50  1.0521E-003  
  407.00  1.0973E-003  
  407.50  1.0765E-003  
  408.00  1.0405E-003  
  408.50  1.0061E-003  
  409.00  1.0346E-003  
  409.50  1.0754E-003  
  410.00  1.0987E-003  
  410.50  1.1447E-003  
  411.00  1.1621E-003  
  411.50  1.1766E-003  
  412.00  1.1830E-003  
  412.50  1.1666E-003  
  413.00  1.1497E-003  
  413.50  1.1895E-003  
  414.00  1.2312E-003  
  414.50  1.2733E-003  
  415.00  1.3211E-003  
  415.50  1.3566E-003  
  416.00  1.3914E-003  
  416.50  1.4522E-003  
  417.00  1.4967E-003  
  417.50  1.5133E-003  
  418.00  1.4748E-003  
  418.50  1.4721E-003  
  419.00  1.4490E-003  
  419.50  1.4448E-003  
  420.00  1.4538E-003  
  420.50  1.3855E-003  
  421.00  1.3807E-003  
  421.50  1.3859E-003  
  422.00  1.4452E-003  
  422.50  1.5242E-003  
  423.00  1.5983E-003  
  423.50  1.6107E-003  
  424.00  1.6190E-003  
  424.50  1.6024E-003  
  425.00  1.6032E-003  
  425.50  1.6271E-003  
  426.00  1.6188E-003  
  426.50  1.6599E-003  
  427.00  1.7052E-003  
  427.50  1.7436E-003  
  428.00  1.7670E-003  
  428.50  1.7848E-003  
  429.00  1.8000E-003  
  429.50  1.8093E-003  
  430.00  1.8166E-003  
  430.50  1.8064E-003  
  431.00  1.7845E-003  
  431.50  1.7613E-003  
  432.00  1.7600E-003  
  432.50  1.8234E-003  
  433.00  1.9266E-003  
  433.50  1.9738E-003  
  434.00  1.9933E-003  
  434.50  1.9572E-003  
  435.00  1.9407E-003  
  435.50  1.9486E-003  
  436.00  2.0276E-003  
  436.50  2.0999E-003  
  437.00  2.1693E-003  
  437.50  2.1548E-003  
  438.00  2.0744E-003  
  438.50  2.0866E-003  
  439.00  2.1537E-003  
  439.50  2.2430E-003  
  440.00  2.2518E-003  
  440.50  2.2131E-003  
  441.00  2.2112E-003  
  441.50  2.2295E-003  
  442.00  2.2541E-003  
  442.50  2.2596E-003  
  443.00  2.2568E-003  
  443.50  2.2907E-003  
  444.00  2.3055E-003  
  444.50  2.3239E-003  
  445.00  2.3378E-003  
  445.50  2.3971E-003  
  446.00  2.4012E-003  
  446.50  2.4203E-003  
  447.00  2.4002E-003  
  447.50  2.4136E-003  
  448.00  2.4777E-003  
  448.50  2.5526E-003  
  449.00  2.5854E-003  
  449.50  2.5442E-003  
  450.00  2.4906E-003  
  450.50  2.4421E-003  
  451.00  2.4843E-003  
  451.50  2.5610E-003  
  452.00  2.6471E-003  
  452.50  2.7226E-003  
  453.00  2.7796E-003  
  453.50  2.8392E-003  
  454.00  2.8581E-003  
  454.50  2.8735E-003  
  455.00  2.8931E-003  
  455.50  2.8886E-003  
  456.00  2.8844E-003  
  456.50  2.8478E-003  
  457.00  2.8413E-003  
  457.50  2.8687E-003  
  458.00  2.9152E-003  
  458.50  2.9436E-003  
  459.00  2.9485E-003  
  459.50  2.9584E-003  
  460.00  2.9447E-003  
  460.50  2.9276E-003  
  461.00  2.9549E-003  
  461.50  3.0134E-003  
  462.00  3.1154E-003  
  462.50  3.1850E-003  
  463.00  3.2130E-003  
  463.50  3.2086E-003  
  464.00  3.2145E-003  
  464.50  3.2137E-003  
  465.00  3.2234E-003  
  465.50  3.2490E-003  
  466.00  3.2661E-003  
  466.50  3.2968E-003  
  467.00  3.3106E-003  
  467.50  3.3186E-003  
  468.00  3.3324E-003  
  468.50  3.3973E-003  
  469.00  3.4537E-003  
  469.50  3.5318E-003  
  470.00  3.5464E-003  
  470.50  3.5106E-003  
  471.00  3.5239E-003  
  471.50  3.5161E-003  
  472.00  3.5444E-003  
  472.50  3.5902E-003  
  473.00  3.6299E-003  
  473.50  3.6752E-003  
  474.00  3.6989E-003  
  474.50  3.6762E-003  
  475.00  3.6572E-003  
  475.50  3.6684E-003  
  476.00  3.7078E-003  
  476.50  3.7765E-003  
  477.00  3.8138E-003  
  477.50  3.8294E-003  
  478.00  3.8418E-003  
  478.50  3.8235E-003  
  479.00  3.8456E-003  
  479.50  3.8752E-003  
  480.00  3.9835E-003  
  480.50  4.0552E-003  
  481.00  4.0875E-003  
  481.50  4.1000E-003  
  482.00  4.1304E-003  
  482.50  4.1699E-003  
  483.00  4.1689E-003  
  483.50  4.1306E-003  
  484.00  4.0986E-003  
  484.50  4.1089E-003  
  485.00  4.1503E-003  
  485.50  4.1940E-003  
  486.00  4.2304E-003  
  486.50  4.2614E-003  
  487.00  4.2678E-003  
  487.50  4.3010E-003  
  488.00  4.3303E-003  
  488.50  4.3697E-003  
  489.00  4.3958E-003  
  489.50  4.3882E-003  
  490.00  4.4177E-003  
  490.50  4.4448E-003  
  491.00  4.4926E-003  
  491.50  4.5364E-003  
  492.00  4.5712E-003  
  492.50  4.5889E-003  
  493.00  4.6221E-003  
  493.50  4.6442E-003  
  494.00  4.6546E-003  
  494.50  4.6758E-003  
  495.00  4.6800E-003  
  495.50  4.7204E-003  
  496.00  4.7691E-003  
  496.50  4.8361E-003  
  497.00  4.9133E-003  
  497.50  4.9546E-003  
  498.00  4.9880E-003  
  498.50  5.0104E-003  
  499.00  5.0674E-003  
  499.50  5.1038E-003  
  500.00  5.1055E-003  
  500.50  5.0735E-003  
  501.00  5.0940E-003  
  501.50  5.1691E-003  
  502.00  5.2166E-003  
  502.50  5.2545E-003  
  503.00  5.2675E-003  
  503.50  5.3281E-003  
  504.00  5.4046E-003  
  504.50  5.4820E-003  
  505.00  5.4869E-003  
  505.50  5.4999E-003  
  506.00  5.5031E-003  
  506.50  5.5403E-003  
  507.00  5.5949E-003  
  507.50  5.6584E-003  
  508.00  5.7321E-003  
  508.50  5.7832E-003  
  509.00  5.8229E-003  
  509.50  5.8347E-003  
  510.00  5.8666E-003  
  510.50  5.9339E-003  
  511.00  6.0106E-003  
  511.50  6.0816E-003  
  512.00  6.1117E-003  
  512.50  6.1318E-003  
  513.00  6.1290E-003  
  513.50  6.1301E-003  
  514.00  6.1820E-003  
  514.50  6.2689E-003  
  515.00  6.3683E-003  
  515.50  6.4431E-003  
  516.00  6.4692E-003  
  516.50  6.4770E-003  
  517.00  6.5078E-003  
  517.50  6.5280E-003  
  518.00  6.5737E-003  
  518.50  6.6150E-003  
  519.00  6.6312E-003  
  519.50  6.6740E-003  
  520.00  6.7245E-003  
  520.50  6.7754E-003  
  521.00  6.8322E-003  
  521.50  6.8895E-003  
  522.00  6.9788E-003  
  522.50  7.0513E-003  
  523.00  7.1145E-003  
  523.50  7.1735E-003  
  524.00  7.2336E-003  
  524.50  7.2993E-003  
  525.00  7.3145E-003  
  525.50  7.3308E-003  
  526.00  7.3486E-003  
  526.50  7.3987E-003  
  527.00  7.4751E-003  
  527.50  7.5385E-003  
  528.00  7.5942E-003  
  528.50  7.6482E-003  
  529.00  7.7168E-003  
  529.50  7.8112E-003  
  530.00  7.8743E-003  
  530.50  7.9022E-003  
  531.00  7.9317E-003  
  531.50  7.9796E-003  
  532.00  8.0567E-003  
  532.50  8.1056E-003  
  533.00  8.1612E-003  
  533.50  8.2129E-003  
  534.00  8.2788E-003  
  534.50  8.3031E-003  
  535.00  8.3287E-003  
  535.50  8.3386E-003  
  536.00  8.3901E-003  
  536.50  8.4424E-003  
  537.00  8.5394E-003  
  537.50  8.6380E-003  
  538.00  8.7170E-003  
  538.50  8.7667E-003  
  539.00  8.8251E-003  
  539.50  8.8824E-003  
  540.00  8.9210E-003  
  540.50  8.9205E-003  
  541.00  8.9248E-003  
  541.50  8.9876E-003  
  542.00  9.0606E-003  
  542.50  9.1207E-003  
  543.00  9.1940E-003  
  543.50  9.2500E-003  
  544.00  9.3280E-003  
  544.50  9.3383E-003  
  545.00  9.3889E-003  
  545.50  9.4213E-003  
  546.00  9.5188E-003  
  546.50  9.5912E-003  
  547.00  9.6081E-003  
  547.50  9.6375E-003  
  548.00  9.6931E-003  
  548.50  9.7526E-003  
  549.00  9.8311E-003  
  549.50  9.8967E-003  
  550.00  9.9657E-003  
  550.50  1.0047E-002  
  551.00  1.0077E-002  
  551.50  1.0090E-002  
  552.00  1.0110E-002  
  552.50  1.0109E-002  
  553.00  1.0133E-002  
  553.50  1.0198E-002  
  554.00  1.0257E-002  
  554.50  1.0330E-002  
  555.00  1.0387E-002  
  555.50  1.0471E-002  
  556.00  1.0567E-002  
  556.50  1.0614E-002  
  557.00  1.0663E-002  
  557.50  1.0692E-002  
  558.00  1.0751E-002  
  558.50  1.0833E-002  
  559.00  1.0935E-002  
  559.50  1.1031E-002  
  560.00  1.1075E-002  
  560.50  1.1108E-002  
  561.00  1.1125E-002  
  561.50  1.1145E-002  
  562.00  1.1159E-002  
  562.50  1.1174E-002  
  563.00  1.1204E-002  
  563.50  1.1249E-002  
  564.00  1.1295E-002  
  564.50  1.1388E-002  
  565.00  1.1450E-002  
  565.50  1.1485E-002  
  566.00  1.1498E-002  
  566.50  1.1534E-002  
  567.00  1.1627E-002  
  567.50  1.1738E-002  
  568.00  1.1819E-002  
  568.50  1.1821E-002  
  569.00  1.1798E-002  
  569.50  1.1802E-002  
  570.00  1.1848E-002  
  570.50  1.1922E-002  
  571.00  1.1994E-002  
  571.50  1.2036E-002  
  572.00  1.2061E-002  
  572.50  1.2082E-002  
  573.00  1.2152E-002  
  573.50  1.2229E-002  
  574.00  1.2291E-002  
  574.50  1.2335E-002  
  575.00  1.2378E-002  
  575.50  1.2403E-002  
  576.00  1.2440E-002  
  576.50  1.2478E-002  
  577.00  1.2600E-002  
  577.50  1.2631E-002  
  578.00  1.2670E-002  
  578.50  1.2683E-002  
  579.00  1.2737E-002  
  579.50  1.2821E-002  
  580.00  1.2896E-002  
  580.50  1.2960E-002  
  581.00  1.3009E-002  
  581.50  1.3017E-002  
  582.00  1.3002E-002  
  582.50  1.3028E-002  
  583.00  1.3088E-002  
  583.50  1.3185E-002  
  584.00  1.3248E-002  
  584.50  1.3271E-002  
  585.00  1.3241E-002  
  585.50  1.3210E-002  
  586.00  1.3168E-002  
  586.50  1.3218E-002  
  587.00  1.3265E-002  
  587.50  1.3343E-002  
  588.00  1.3430E-002  
  588.50  1.3513E-002  
  589.00  1.3552E-002  
  589.50  1.3550E-002  
  590.00  1.3573E-002  
  590.50  1.3662E-002  
  591.00  1.3773E-002  
  591.50  1.3842E-002  
  592.00  1.3898E-002  
  592.50  1.3881E-002  
  593.00  1.3907E-002  
  593.50  1.3951E-002  
  594.00  1.4007E-002  
  594.50  1.4017E-002  
  595.00  1.4002E-002  
  595.50  1.4027E-002  
  596.00  1.4115E-002  
  596.50  1.4197E-002  
  597.00  1.4255E-002  
  597.50  1.4281E-002  
  598.00  1.4352E-002  
  598.50  1.4374E-002  
  599.00  1.4382E-002  
  599.50  1.4381E-002  
  600.00  1.4415E-002  
  600.50  1.4494E-002  
  601.00  1.4539E-002  
  601.50  1.4530E-002  
  602.00  1.4585E-002  
  602.50  1.4643E-002  
  603.00  1.4727E-002  
  603.50  1.4723E-002  
  604.00  1.4703E-002  
  604.50  1.4697E-002  
  605.00  1.4750E-002  
  605.50  1.4829E-002  
  606.00  1.4899E-002  
  606.50  1.4963E-002  
  607.00  1.4992E-002  
  607.50  1.5003E-002  
  608.00  1.4998E-002  
  608.50  1.4988E-002  
  609.00  1.4999E-002  
  609.50  1.5018E-002  
  610.00  1.5048E-002  
  610.50  1.5108E-002  
  611.00  1.5165E-002  
  611.50  1.5232E-002  
  612.00  1.5270E-002  
  612.50  1.5275E-002  
  613.00  1.5251E-002  
  613.50  1.5298E-002  
  614.00  1.5336E-002  
  614.50  1.5407E-002  
  615.00  1.5412E-002  
  615.50  1.5474E-002  
  616.00  1.5531E-002  
  616.50  1.5595E-002  
  617.00  1.5653E-002  
  617.50  1.5693E-002  
  618.00  1.5723E-002  
  618.50  1.5745E-002  
  619.00  1.5737E-002  
  619.50  1.5733E-002  
  620.00  1.5758E-002  
  620.50  1.5830E-002  
  621.00  1.5838E-002  
  621.50  1.5821E-002  
  622.00  1.5857E-002  
  622.50  1.5900E-002  
  623.00  1.5964E-002  
  623.50  1.5969E-002  
  624.00  1.5968E-002  
  624.50  1.5925E-002  
  625.00  1.5883E-002  
  625.50  1.5924E-002  
  626.00  1.6019E-002  
  626.50  1.6077E-002  
  627.00  1.6125E-002  
  627.50  1.6168E-002  
  628.00  1.6255E-002  
  628.50  1.6338E-002  
  629.00  1.6369E-002  
  629.50  1.6381E-002  
  630.00  1.6355E-002  
  630.50  1.6367E-002  
  631.00  1.6308E-002  
  631.50  1.6297E-002  
  632.00  1.6331E-002  
  632.50  1.6427E-002  
  633.00  1.6475E-002  
  633.50  1.6502E-002  
  634.00  1.6572E-002  
  634.50  1.6635E-002  
  635.00  1.6669E-002  
  635.50  1.6644E-002  
  636.00  1.6642E-002  
  636.50  1.6612E-002  
  637.00  1.6630E-002  
  637.50  1.6670E-002  
  638.00  1.6730E-002  
  638.50  1.6749E-002  
  639.00  1.6746E-002  
  639.50  1.6800E-002  
  640.00  1.6863E-002  
  640.50  1.6941E-002  
  641.00  1.6969E-002  
  641.50  1.7005E-002  
  642.00  1.7076E-002  
  642.50  1.7171E-002  
  643.00  1.7213E-002  
  643.50  1.7162E-002  
  644.00  1.7127E-002  
  644.50  1.7118E-002  
  645.00  1.7188E-002  
  645.50  1.7227E-002  
  646.00  1.7281E-002  
  646.50  1.7223E-002  
  647.00  1.7301E-002  
  647.50  1.7326E-002  
  648.00  1.7371E-002  
  648.50  1.7275E-002  
  649.00  1.7224E-002  
  649.50  1.7273E-002  
  650.00  1.7370E-002  
  650.50  1.7540E-002  
  651.00  1.7623E-002  
  651.50  1.7678E-002  
  652.00  1.7620E-002  
  652.50  1.7633E-002  
  653.00  1.7637E-002  
  653.50  1.7645E-002  
  654.00  1.7605E-002  
  654.50  1.7571E-002  
  655.00  1.7633E-002  
  655.50  1.7720E-002  
  656.00  1.7825E-002  
  656.50  1.7889E-002  
  657.00  1.7905E-002  
  657.50  1.7926E-002  
  658.00  1.7967E-002  
  658.50  1.7978E-002  
  659.00  1.7957E-002  
  659.50  1.7882E-002  
  660.00  1.7913E-002  
  660.50  1.7974E-002  
  661.00  1.8009E-002  
  661.50  1.8028E-002  
  662.00  1.8038E-002  
  662.50  1.8017E-002  
  663.00  1.7995E-002  
  663.50  1.7929E-002  
  664.00  1.7990E-002  
  664.50  1.8008E-002  
  665.00  1.8054E-002  
  665.50  1.8036E-002  
  666.00  1.8028E-002  
  666.50  1.8073E-002  
  667.00  1.8144E-002  
  667.50  1.8221E-002  
  668.00  1.8257E-002  
  668.50  1.8275E-002  
  669.00  1.8333E-002  
  669.50  1.8353E-002  
  670.00  1.8279E-002  
  670.50  1.8226E-002  
  671.00  1.8180E-002  
  671.50  1.8252E-002  
  672.00  1.8309E-002  
  672.50  1.8392E-002  
  673.00  1.8475E-002  
  673.50  1.8503E-002  
  674.00  1.8512E-002  
  674.50  1.8468E-002  
  675.00  1.8479E-002  
  675.50  1.8529E-002  
  676.00  1.8637E-002  
  676.50  1.8712E-002  
  677.00  1.8648E-002  
  677.50  1.8539E-002  
  678.00  1.8423E-002  
  678.50  1.8431E-002  
  679.00  1.8544E-002  
  679.50  1.8732E-002  
  680.00  1.8851E-002  
  680.50  1.8825E-002  
  681.00  1.8842E-002  
  681.50  1.8961E-002  
  682.00  1.9054E-002  
  682.50  1.9019E-002  
  683.00  1.8901E-002  
  683.50  1.8824E-002  
  684.00  1.8810E-002  
  684.50  1.8875E-002  
  685.00  1.8956E-002  
  685.50  1.9029E-002  
  686.00  1.9092E-002  
  686.50  1.9148E-002  
  687.00  1.9149E-002  
  687.50  1.9115E-002  
  688.00  1.9129E-002  
  688.50  1.9190E-002  
  689.00  1.9206E-002  
  689.50  1.9316E-002  
  690.00  1.9423E-002  
  690.50  1.9598E-002  
  691.00  1.9565E-002  
  691.50  1.9575E-002  
  692.00  1.9555E-002  
  692.50  1.9566E-002  
  693.00  1.9525E-002  
  693.50  1.9404E-002  
  694.00  1.9296E-002  
  694.50  1.9359E-002  
  695.00  1.9533E-002  
  695.50  1.9704E-002  
  696.00  1.9664E-002  
  696.50  1.9698E-002  
  697.00  1.9763E-002  
  697.50  1.9852E-002  
  698.00  1.9770E-002  
  698.50  1.9745E-002  
  699.00  1.9802E-002  
  699.50  1.9881E-002  
  700.00  1.9919E-002  
  700.50  1.9956E-002  
  701.00  1.9975E-002  
  701.50  1.9943E-002  
  702.00  1.9966E-002  
  702.50  2.0054E-002  
  703.00  2.0109E-002  
  703.50  2.0143E-002  
  704.00  2.0187E-002  
  704.50  2.0313E-002  
  705.00  2.0388E-002  
  705.50  2.0350E-002  
  706.00  2.0227E-002  
  706.50  2.0218E-002  
  707.00  2.0271E-002  
  707.50  2.0291E-002  
  708.00  2.0313E-002  
  708.50  2.0350E-002  
  709.00  2.0461E-002  
  709.50  2.0480E-002  
  710.00  2.0566E-002  
  710.50  2.0571E-002  
  711.00  2.0600E-002  
  711.50  2.0621E-002  
  712.00  2.0698E-002  
  712.50  2.0761E-002  
  713.00  2.0807E-002  
  713.50  2.0901E-002  
  714.00  2.0942E-002  
  714.50  2.0915E-002  
  715.00  2.0907E-002  
  715.50  2.0875E-002  
  716.00  2.0843E-002  
  716.50  2.0788E-002  
  717.00  2.0872E-002  
  717.50  2.1041E-002  
  718.00  2.1165E-002  
  718.50  2.1099E-002  
  719.00  2.1174E-002  
  719.50  2.1200E-002  
  720.00  2.1160E-002  
  720.50  2.0978E-002  
  721.00  2.0938E-002  
  721.50  2.0965E-002  
  722.00  2.1061E-002  
  722.50  2.1199E-002  
  723.00  2.1374E-002  
  723.50  2.1458E-002  
  724.00  2.1424E-002  
  724.50  2.1336E-002  
  725.00  2.1327E-002  
  725.50  2.1499E-002  
  726.00  2.1682E-002  
  726.50  2.1738E-002  
  727.00  2.1656E-002  
  727.50  2.1534E-002  
  728.00  2.1535E-002  
  728.50  2.1544E-002  
  729.00  2.1737E-002  
  729.50  2.1859E-002  
  730.00  2.1888E-002  
  730.50  2.1821E-002  
  731.00  2.1754E-002  
  731.50  2.1772E-002  
  732.00  2.1900E-002  
  732.50  2.2113E-002  
  733.00  2.2235E-002  
  733.50  2.2109E-002  
  734.00  2.1955E-002  
  734.50  2.1968E-002  
  735.00  2.2127E-002  
  735.50  2.2239E-002  
  736.00  2.2177E-002  
  736.50  2.2168E-002  
  737.00  2.2167E-002  
  737.50  2.2338E-002  
  738.00  2.2486E-002  
  738.50  2.2635E-002  
  739.00  2.2743E-002  
  739.50  2.2836E-002  
  740.00  2.2898E-002  
  740.50  2.2819E-002  
  741.00  2.2643E-002  
  741.50  2.2534E-002  
  742.00  2.2618E-002  
  742.50  2.2850E-002  
  743.00  2.2860E-002  
  743.50  2.2701E-002  
  744.00  2.2523E-002  
  744.50  2.2546E-002  
  745.00  2.2651E-002  
  745.50  2.2845E-002  
  746.00  2.3017E-002  
  746.50  2.3138E-002  
  747.00  2.3181E-002  
  747.50  2.3109E-002  
  748.00  2.2931E-002  
  748.50  2.2866E-002  
  749.00  2.2962E-002  
  749.50  2.3176E-002  
  750.00  2.3292E-002  
  750.50  2.3189E-002  
  751.00  2.3108E-002  
  751.50  2.2932E-002  
  752.00  2.2871E-002  
  752.50  2.2922E-002  
  753.00  2.3181E-002  
  753.50  2.3269E-002  
  754.00  2.3248E-002  
  754.50  2.3240E-002  
  755.00  2.3431E-002  
  755.50  2.3308E-002  
  756.00  2.3055E-002  
  756.50  2.2974E-002  
  757.00  2.3183E-002  
  757.50  2.3321E-002  
  758.00  2.3341E-002  
  758.50  2.3235E-002  
  759.00  2.3220E-002  
  759.50  2.3236E-002  
  760.00  2.3346E-002  
  760.50  2.3260E-002  
  761.00  2.3168E-002  
  761.50  2.3130E-002  
  762.00  2.3350E-002  
  762.50  2.3465E-002  
  763.00  2.3557E-002  
  763.50  2.3743E-002  
  764.00  2.4049E-002  
  764.50  2.4023E-002  
  765.00  2.3714E-002  
  765.50  2.3481E-002  
  766.00  2.3599E-002  
  766.50  2.3716E-002  
  767.00  2.3774E-002  
  767.50  2.3968E-002  
  768.00  2.4182E-002  
  768.50  2.4098E-002  
  769.00  2.3909E-002  
  769.50  2.3756E-002  
  770.00  2.3818E-002  
  770.50  2.3783E-002  
  771.00  2.3866E-002  
  771.50  2.3864E-002  
  772.00  2.3884E-002  
  772.50  2.4099E-002  
  773.00  2.4295E-002  
  773.50  2.4431E-002  
  774.00  2.4255E-002  
  774.50  2.4132E-002  
  775.00  2.4224E-002  
  775.50  2.4252E-002  
  776.00  2.4230E-002  
  776.50  2.4375E-002  
  777.00  2.4504E-002  
  777.50  2.4611E-002  
  778.00  2.4597E-002  
  778.50  2.4607E-002  
  779.00  2.4337E-002  
  779.50  2.4257E-002  
  780.00  2.4373E-002  
  780.50  2.4425E-002  
  781.00  2.4355E-002  
  781.50  2.4353E-002  
  782.00  2.4627E-002  
  782.50  2.4750E-002  
  783.00  2.4610E-002  
  783.50  2.4458E-002  
  784.00  2.4636E-002  
  784.50  2.5045E-002  
  785.00  2.5046E-002  
  785.50  2.4898E-002  
  786.00  2.4624E-002  
  786.50  2.4746E-002  
  787.00  2.4947E-002  
  787.50  2.4883E-002  
  788.00  2.4813E-002  
  788.50  2.4920E-002  
  789.00  2.5172E-002  
  789.50  2.5336E-002  
  790.00  2.5294E-002  
  790.50  2.5016E-002  
  791.00  2.5016E-002  
  791.50  2.5059E-002  
  792.00  2.5260E-002  
  792.50  2.5417E-002  
  793.00  2.5487E-002  
  793.50  2.5439E-002  
  794.00  2.5333E-002  
  794.50  2.5378E-002  
  795.00  2.5331E-002  
  795.50  2.5229E-002  
  796.00  2.5215E-002  
  796.50  2.5482E-002  
  797.00  2.6102E-002  
  797.50  2.6151E-002  
  798.00  2.6197E-002  
  798.50  2.6022E-002  
  799.00  2.6052E-002  
  799.50  2.5995E-002  
  800.00  2.5946E-002  
  800.50  2.5414E-002  
  801.00  2.5066E-002  
  801.50  2.5227E-002  
  802.00  2.5587E-002  
  802.50  2.5850E-002  
  803.00  2.6012E-002  
  803.50  2.5913E-002  
  804.00  2.5649E-002  
  804.50  2.5465E-002  
  805.00  2.5599E-002  
  805.50  2.5936E-002  
  806.00  2.5855E-002  
  806.50  2.5465E-002  
  807.00  2.5365E-002  
  807.50  2.5239E-002  
  808.00  2.5432E-002  
  808.50  2.5759E-002  
  809.00  2.6058E-002  
  809.50  2.6043E-002  
  810.00  2.6105E-002  
  810.50  2.6357E-002  
  811.00  2.6440E-002  
  811.50  2.6435E-002  
  812.00  2.6333E-002  
  812.50  2.6541E-002  
  813.00  2.6425E-002  
  813.50  2.6366E-002  
  814.00  2.6471E-002  
  814.50  2.6576E-002  
  815.00  2.6336E-002  
  815.50  2.5952E-002  
  816.00  2.5984E-002  
  816.50  2.6439E-002  
  817.00  2.6712E-002  
  817.50  2.6495E-002  
  818.00  2.6236E-002  
  818.50  2.6118E-002  
  819.00  2.6111E-002  
  819.50  2.6390E-002  
  820.00  2.6669E-002  
  820.50  2.6721E-002  
  821.00  2.6636E-002  
  821.50  2.6469E-002  
  822.00  2.6716E-002  
  822.50  2.7067E-002  
  823.00  2.7085E-002  
  823.50  2.7000E-002  
  824.00  2.7007E-002  
  824.50  2.6537E-002  
  825.00  2.6242E-002  
  825.50  2.6275E-002  
  826.00  2.6758E-002  
  826.50  2.6951E-002  
  827.00  2.6750E-002  
  827.50  2.6689E-002  
  828.00  2.6852E-002  
  828.50  2.7246E-002  
  829.00  2.7229E-002  
  829.50  2.7101E-002  
  830.00  2.7341E-002  
  830.50  2.7270E-002  
  831.00  2.6763E-002  
  831.50  2.6172E-002  
  832.00  2.5800E-002  
  832.50  2.6135E-002  
  833.00  2.6594E-002  
  833.50  2.6585E-002  
  834.00  2.6286E-002  
  834.50  2.6829E-002  
  835.00  2.6707E-002  
  835.50  2.6706E-002  
  836.00  2.7089E-002  
  836.50  2.7214E-002  
  837.00  2.7125E-002  
  837.50  2.6762E-002  
  838.00  2.6619E-002  
  838.50  2.6466E-002  
  839.00  2.6686E-002  
  839.50  2.7175E-002  
  840.00  2.7413E-002  
  840.50  2.7390E-002  
  841.00  2.7312E-002  
  841.50  2.6883E-002  
  842.00  2.6660E-002  
  842.50  2.6420E-002  
  843.00  2.6765E-002  
  843.50  2.6968E-002  
  844.00  2.7301E-002  
  844.50  2.7517E-002  
  845.00  2.7422E-002  
  845.50  2.7353E-002  
  846.00  2.7344E-002  
  846.50  2.7450E-002  
  847.00  2.7353E-002  
  847.50  2.7515E-002  
  848.00  2.7585E-002  
  848.50  2.7283E-002  
  849.00  2.7063E-002  
  849.50  2.6899E-002  
  850.00  2.7226E-002  
  850.50  2.7559E-002  
  851.00  2.7751E-002  
  851.50  2.7618E-002  
  852.00  2.7463E-002  
  852.50  2.7501E-002  
  853.00  2.7657E-002  
  853.50  2.7804E-002  
  854.00  2.7347E-002  
  854.50  2.7083E-002  
  855.00  2.7266E-002  
  855.50  2.7785E-002  
  856.00  2.7802E-002  
  856.50  2.8074E-002  
  857.00  2.7926E-002  
  857.50  2.7595E-002  
  858.00  2.8044E-002  
  858.50  2.8492E-002  
  859.00  2.8227E-002  
  859.50  2.8175E-002  
  860.00  2.8417E-002  
  860.50  2.8236E-002  
  861.00  2.7936E-002  
  861.50  2.8037E-002  
  862.00  2.7857E-002  
  862.50  2.6768E-002  
  863.00  2.6576E-002  
  863.50  2.7332E-002  
  864.00  2.7793E-002  
  864.50  2.8187E-002  
  865.00  2.8288E-002  
  865.50  2.8465E-002  
  866.00  2.8586E-002  
  866.50  2.8151E-002  
  867.00  2.8106E-002  
  867.50  2.8721E-002  
  868.00  2.8419E-002  
  868.50  2.7262E-002  
  869.00  2.6786E-002  
  869.50  2.7143E-002  
  870.00  2.7935E-002  
  870.50  2.8426E-002  
  871.00  2.8188E-002  
  871.50  2.7751E-002  
  872.00  2.7636E-002  
  872.50  2.7493E-002  
  873.00  2.7215E-002  
  873.50  2.7497E-002  
  874.00  2.8791E-002  
  874.50  2.8676E-002  
  875.00  2.7664E-002  
  875.50  2.7725E-002  
  876.00  2.7998E-002  
  876.50  2.7046E-002  
  877.00  2.7024E-002  
  877.50  2.7420E-002  
  878.00  2.7626E-002  
  878.50  2.8024E-002  
  879.00  2.9482E-002  
  879.50  2.9724E-002  
  880.00  2.8733E-002  
  880.50  2.8196E-002  
  881.00  2.7570E-002  
  881.50  2.7473E-002  
  882.00  2.7789E-002  
  882.50  2.7557E-002  
  883.00  2.7596E-002  
  883.50  2.7224E-002  
  884.00  2.7871E-002  
  884.50  2.9190E-002  
  885.00  3.0155E-002  
  885.50  3.0466E-002  
  886.00  2.9618E-002  
  886.50  2.8813E-002  
  887.00  2.8488E-002  
  887.50  2.7788E-002  
  888.00  2.7636E-002  
  888.50  2.8644E-002  
  889.00  2.8686E-002  
  889.50  2.7563E-002  
  890.00  2.7658E-002  
  890.50  2.8403E-002  
  891.00  2.8777E-002  
  891.50  2.8799E-002  
  892.00  2.9528E-002  
  892.50  2.9081E-002  
  893.00  2.7809E-002  
  893.50  2.8068E-002  
  894.00  2.8656E-002  
  894.50  2.7868E-002  
  895.00  2.7355E-002  
  895.50  2.7053E-002  
  896.00  2.7461E-002  
  896.50  2.8882E-002  
  897.00  2.8800E-002  
  897.50  2.8771E-002  
  898.00  2.9596E-002  
  898.50  2.9653E-002  
  899.00  2.8758E-002  
  899.50  5.6185E-004  
