
# From lspdd.org
# 
# Name: Halo Sylvania PAR38 Domestique
# Indice spectral Valeur 
# MSI 0.28 
# SLI 0.51 
# IPI 0.93 
# Pourcentage de bleu 12.6 
# Caractéristique Valeur 
# CCT calculée (K) 2680 
# CCT du fabricant (K) 3000 
# Tension (V) 120 
# Puissance (W) 65.0 
# Efficacité lumineuse (Lum/W) 11.0 
#
# Image: '/app/system/img_2s/2514/medium_image2.JPG?1413486044'
# Image: '/app/system/img_1s/2514/medium_image1.JPG?1413486048'
# 

  273.00  0.0000E+000  
  273.50  0.0000E+000  
  274.00  0.0000E+000  
  274.50  0.0000E+000  
  275.00  0.0000E+000  
  275.50  0.0000E+000  
  276.00  0.0000E+000  
  276.50  0.0000E+000  
  277.00  0.0000E+000  
  277.50  0.0000E+000  
  278.00  0.0000E+000  
  278.50  0.0000E+000  
  279.00  0.0000E+000  
  279.50  0.0000E+000  
  280.00  0.0000E+000  
  280.50  0.0000E+000  
  281.00  0.0000E+000  
  281.50  0.0000E+000  
  282.00  0.0000E+000  
  282.50  0.0000E+000  
  283.00  0.0000E+000  
  283.50  0.0000E+000  
  284.00  0.0000E+000  
  284.50  0.0000E+000  
  285.00  0.0000E+000  
  285.50  0.0000E+000  
  286.00  0.0000E+000  
  286.50  0.0000E+000  
  287.00  0.0000E+000  
  287.50  0.0000E+000  
  288.00  0.0000E+000  
  288.50  0.0000E+000  
  289.00  0.0000E+000  
  289.50  0.0000E+000  
  290.00  0.0000E+000  
  290.50  0.0000E+000  
  291.00  0.0000E+000  
  291.50  0.0000E+000  
  292.00  0.0000E+000  
  292.50  0.0000E+000  
  293.00  0.0000E+000  
  293.50  0.0000E+000  
  294.00  0.0000E+000  
  294.50  0.0000E+000  
  295.00  0.0000E+000  
  295.50  0.0000E+000  
  296.00  0.0000E+000  
  296.50  0.0000E+000  
  297.00  0.0000E+000  
  297.50  0.0000E+000  
  298.00  0.0000E+000  
  298.50  0.0000E+000  
  299.00  0.0000E+000  
  299.50  0.0000E+000  
  300.00  1.0976E-004  
  300.50  2.8821E-004  
  301.00  2.8618E-004  
  301.50  3.3743E-004  
  302.00  3.4473E-004  
  302.50  2.9709E-004  
  303.00  3.0895E-004  
  303.50  2.8819E-004  
  304.00  3.2506E-004  
  304.50  4.0512E-004  
  305.00  3.7176E-004  
  305.50  3.7013E-004  
  306.00  3.6920E-004  
  306.50  3.7009E-004  
  307.00  3.8651E-004  
  307.50  4.2534E-004  
  308.00  4.3559E-004  
  308.50  4.5266E-004  
  309.00  5.1100E-004  
  309.50  5.0262E-004  
  310.00  4.7407E-004  
  310.50  4.4861E-004  
  311.00  4.2924E-004  
  311.50  4.2916E-004  
  312.00  4.5141E-004  
  312.50  4.8255E-004  
  313.00  5.3979E-004  
  313.50  5.5187E-004  
  314.00  5.4394E-004  
  314.50  5.2203E-004  
  315.00  5.0989E-004  
  315.50  4.9131E-004  
  316.00  4.8751E-004  
  316.50  5.0522E-004  
  317.00  4.9004E-004  
  317.50  6.0453E-004  
  318.00  6.7225E-004  
  318.50  6.6649E-004  
  319.00  6.5495E-004  
  319.50  6.1595E-004  
  320.00  6.0394E-004  
  320.50  6.2949E-004  
  321.00  6.8802E-004  
  321.50  6.8515E-004  
  322.00  6.7811E-004  
  322.50  7.2852E-004  
  323.00  7.2864E-004  
  323.50  7.5155E-004  
  324.00  7.9230E-004  
  324.50  8.1992E-004  
  325.00  8.5990E-004  
  325.50  8.6328E-004  
  326.00  8.2238E-004  
  326.50  7.6619E-004  
  327.00  7.6275E-004  
  327.50  8.1720E-004  
  328.00  8.9433E-004  
  328.50  9.7905E-004  
  329.00  1.0195E-003  
  329.50  9.9755E-004  
  330.00  9.2732E-004  
  330.50  8.7727E-004  
  331.00  8.4610E-004  
  331.50  8.5553E-004  
  332.00  9.1372E-004  
  332.50  9.8286E-004  
  333.00  1.0545E-003  
  333.50  1.1297E-003  
  334.00  1.1728E-003  
  334.50  1.2032E-003  
  335.00  1.1916E-003  
  335.50  1.1996E-003  
  336.00  1.2368E-003  
  336.50  1.2689E-003  
  337.00  1.3355E-003  
  337.50  1.3956E-003  
  338.00  1.4343E-003  
  338.50  1.4465E-003  
  339.00  1.4680E-003  
  339.50  1.4739E-003  
  340.00  1.5186E-003  
  340.50  1.5663E-003  
  341.00  1.6006E-003  
  341.50  1.6502E-003  
  342.00  1.6848E-003  
  342.50  1.6945E-003  
  343.00  1.7233E-003  
  343.50  1.7644E-003  
  344.00  1.7963E-003  
  344.50  1.8620E-003  
  345.00  1.8982E-003  
  345.50  1.9223E-003  
  346.00  1.9747E-003  
  346.50  2.0407E-003  
  347.00  2.0741E-003  
  347.50  2.1017E-003  
  348.00  2.1370E-003  
  348.50  2.1712E-003  
  349.00  2.1959E-003  
  349.50  2.2506E-003  
  350.00  2.2901E-003  
  350.50  2.3346E-003  
  351.00  2.3857E-003  
  351.50  2.3990E-003  
  352.00  2.4359E-003  
  352.50  2.4759E-003  
  353.00  2.5541E-003  
  353.50  2.5638E-003  
  354.00  2.5926E-003  
  354.50  2.6617E-003  
  355.00  2.7175E-003  
  355.50  2.8713E-003  
  356.00  2.9707E-003  
  356.50  3.0043E-003  
  357.00  3.0424E-003  
  357.50  3.0167E-003  
  358.00  3.0370E-003  
  358.50  3.1085E-003  
  359.00  3.1914E-003  
  359.50  3.2389E-003  
  360.00  3.2734E-003  
  360.50  3.2877E-003  
  361.00  3.3204E-003  
  361.50  3.4291E-003  
  362.00  3.4566E-003  
  362.50  3.4775E-003  
  363.00  3.5191E-003  
  363.50  3.5787E-003  
  364.00  3.7845E-003  
  364.50  3.9330E-003  
  365.00  4.0718E-003  
  365.50  4.1829E-003  
  366.00  4.1322E-003  
  366.50  4.1154E-003  
  367.00  4.1120E-003  
  367.50  4.0843E-003  
  368.00  4.1415E-003  
  368.50  4.2045E-003  
  369.00  4.3108E-003  
  369.50  4.5430E-003  
  370.00  4.6865E-003  
  370.50  4.7809E-003  
  371.00  4.7936E-003  
  371.50  4.7531E-003  
  372.00  4.8086E-003  
  372.50  4.8580E-003  
  373.00  4.9316E-003  
  373.50  5.0281E-003  
  374.00  5.0733E-003  
  374.50  5.1946E-003  
  375.00  5.2953E-003  
  375.50  5.3598E-003  
  376.00  5.4424E-003  
  376.50  5.5174E-003  
  377.00  5.6012E-003  
  377.50  5.7193E-003  
  378.00  5.7656E-003  
  378.50  5.8123E-003  
  379.00  5.8680E-003  
  379.50  5.9668E-003  
  380.00  6.1280E-003  
  380.50  6.2794E-003  
  381.00  6.4142E-003  
  381.50  6.5398E-003  
  382.00  6.6377E-003  
  382.50  6.7221E-003  
  383.00  6.7694E-003  
  383.50  6.7957E-003  
  384.00  6.8338E-003  
  384.50  6.9259E-003  
  385.00  7.0879E-003  
  385.50  7.2392E-003  
  386.00  7.3963E-003  
  386.50  7.4905E-003  
  387.00  7.5226E-003  
  387.50  7.5403E-003  
  388.00  7.6113E-003  
  388.50  7.7013E-003  
  389.00  7.8234E-003  
  389.50  7.9197E-003  
  390.00  8.0178E-003  
  390.50  8.1265E-003  
  391.00  8.2367E-003  
  391.50  8.3979E-003  
  392.00  8.5167E-003  
  392.50  8.6115E-003  
  393.00  8.6672E-003  
  393.50  8.6892E-003  
  394.00  8.7507E-003  
  394.50  8.8800E-003  
  395.00  8.9902E-003  
  395.50  9.1205E-003  
  396.00  9.2874E-003  
  396.50  9.4215E-003  
  397.00  9.5113E-003  
  397.50  9.5848E-003  
  398.00  9.7194E-003  
  398.50  9.8334E-003  
  399.00  9.9748E-003  
  399.50  1.0065E-002  
  400.00  1.0116E-002  
  400.50  1.0228E-002  
  401.00  1.0369E-002  
  401.50  1.0517E-002  
  402.00  1.0660E-002  
  402.50  1.0760E-002  
  403.00  1.0852E-002  
  403.50  1.0939E-002  
  404.00  1.1047E-002  
  404.50  1.1227E-002  
  405.00  1.1411E-002  
  405.50  1.1610E-002  
  406.00  1.1790E-002  
  406.50  1.1846E-002  
  407.00  1.1932E-002  
  407.50  1.2034E-002  
  408.00  1.2212E-002  
  408.50  1.2333E-002  
  409.00  1.2467E-002  
  409.50  1.2591E-002  
  410.00  1.2732E-002  
  410.50  1.2905E-002  
  411.00  1.3055E-002  
  411.50  1.3171E-002  
  412.00  1.3304E-002  
  412.50  1.3428E-002  
  413.00  1.3563E-002  
  413.50  1.3678E-002  
  414.00  1.3780E-002  
  414.50  1.3849E-002  
  415.00  1.4042E-002  
  415.50  1.4306E-002  
  416.00  1.4618E-002  
  416.50  1.4860E-002  
  417.00  1.4968E-002  
  417.50  1.5012E-002  
  418.00  1.5048E-002  
  418.50  1.5141E-002  
  419.00  1.5263E-002  
  419.50  1.5469E-002  
  420.00  1.5658E-002  
  420.50  1.5837E-002  
  421.00  1.5996E-002  
  421.50  1.6119E-002  
  422.00  1.6298E-002  
  422.50  1.6472E-002  
  423.00  1.6681E-002  
  423.50  1.6844E-002  
  424.00  1.6982E-002  
  424.50  1.7098E-002  
  425.00  1.7274E-002  
  425.50  1.7426E-002  
  426.00  1.7611E-002  
  426.50  1.7819E-002  
  427.00  1.8050E-002  
  427.50  1.8366E-002  
  428.00  1.8622E-002  
  428.50  1.8792E-002  
  429.00  1.8960E-002  
  429.50  1.9144E-002  
  430.00  1.9224E-002  
  430.50  1.9355E-002  
  431.00  1.9427E-002  
  431.50  1.9542E-002  
  432.00  1.9854E-002  
  432.50  2.0146E-002  
  433.00  2.0420E-002  
  433.50  2.0602E-002  
  434.00  2.0732E-002  
  434.50  2.0859E-002  
  435.00  2.1068E-002  
  435.50  2.1337E-002  
  436.00  2.1521E-002  
  436.50  2.1748E-002  
  437.00  2.1933E-002  
  437.50  2.2130E-002  
  438.00  2.2389E-002  
  438.50  2.2557E-002  
  439.00  2.2761E-002  
  439.50  2.2945E-002  
  440.00  2.3188E-002  
  440.50  2.3489E-002  
  441.00  2.3709E-002  
  441.50  2.3870E-002  
  442.00  2.4000E-002  
  442.50  2.4132E-002  
  443.00  2.4368E-002  
  443.50  2.4579E-002  
  444.00  2.4829E-002  
  444.50  2.5061E-002  
  445.00  2.5321E-002  
  445.50  2.5555E-002  
  446.00  2.5849E-002  
  446.50  2.6112E-002  
  447.00  2.6355E-002  
  447.50  2.6577E-002  
  448.00  2.6715E-002  
  448.50  2.6825E-002  
  449.00  2.6995E-002  
  449.50  2.7222E-002  
  450.00  2.7498E-002  
  450.50  2.7798E-002  
  451.00  2.8072E-002  
  451.50  2.8308E-002  
  452.00  2.8561E-002  
  452.50  2.8758E-002  
  453.00  2.8875E-002  
  453.50  2.9020E-002  
  454.00  2.9163E-002  
  454.50  2.9372E-002  
  455.00  2.9768E-002  
  455.50  3.0105E-002  
  456.00  3.0405E-002  
  456.50  3.0675E-002  
  457.00  3.0857E-002  
  457.50  3.1135E-002  
  458.00  3.1407E-002  
  458.50  3.1643E-002  
  459.00  3.1919E-002  
  459.50  3.2104E-002  
  460.00  3.2334E-002  
  460.50  3.2660E-002  
  461.00  3.3044E-002  
  461.50  3.3393E-002  
  462.00  3.3659E-002  
  462.50  3.3925E-002  
  463.00  3.4286E-002  
  463.50  3.4632E-002  
  464.00  3.4956E-002  
  464.50  3.5199E-002  
  465.00  3.5477E-002  
  465.50  3.5818E-002  
  466.00  3.6061E-002  
  466.50  3.6299E-002  
  467.00  3.6442E-002  
  467.50  3.6614E-002  
  468.00  3.6874E-002  
  468.50  3.7217E-002  
  469.00  3.7564E-002  
  469.50  3.7864E-002  
  470.00  3.8195E-002  
  470.50  3.8566E-002  
  471.00  3.8963E-002  
  471.50  3.9301E-002  
  472.00  3.9499E-002  
  472.50  3.9634E-002  
  473.00  3.9828E-002  
  473.50  4.0154E-002  
  474.00  4.0512E-002  
  474.50  4.0912E-002  
  475.00  4.1096E-002  
  475.50  4.1391E-002  
  476.00  4.1621E-002  
  476.50  4.1943E-002  
  477.00  4.2308E-002  
  477.50  4.2561E-002  
  478.00  4.2852E-002  
  478.50  4.3268E-002  
  479.00  4.3724E-002  
  479.50  4.4273E-002  
  480.00  4.4687E-002  
  480.50  4.4981E-002  
  481.00  4.5211E-002  
  481.50  4.5371E-002  
  482.00  4.5597E-002  
  482.50  4.5879E-002  
  483.00  4.6049E-002  
  483.50  4.6306E-002  
  484.00  4.6595E-002  
  484.50  4.6883E-002  
  485.00  4.7240E-002  
  485.50  4.7535E-002  
  486.00  4.7813E-002  
  486.50  4.8152E-002  
  487.00  4.8465E-002  
  487.50  4.8831E-002  
  488.00  4.9252E-002  
  488.50  4.9649E-002  
  489.00  5.0109E-002  
  489.50  5.0514E-002  
  490.00  5.0910E-002  
  490.50  5.1292E-002  
  491.00  5.1701E-002  
  491.50  5.2086E-002  
  492.00  5.2477E-002  
  492.50  5.2767E-002  
  493.00  5.3097E-002  
  493.50  5.3495E-002  
  494.00  5.3891E-002  
  494.50  5.4311E-002  
  495.00  5.4658E-002  
  495.50  5.5039E-002  
  496.00  5.5408E-002  
  496.50  5.5858E-002  
  497.00  5.6292E-002  
  497.50  5.6756E-002  
  498.00  5.7184E-002  
  498.50  5.7546E-002  
  499.00  5.7914E-002  
  499.50  5.8279E-002  
  500.00  5.8708E-002  
  500.50  5.9133E-002  
  501.00  5.9533E-002  
  501.50  5.9940E-002  
  502.00  6.0425E-002  
  502.50  6.0927E-002  
  503.00  6.1434E-002  
  503.50  6.1943E-002  
  504.00  6.2559E-002  
  504.50  6.3117E-002  
  505.00  6.3570E-002  
  505.50  6.3936E-002  
  506.00  6.4272E-002  
  506.50  6.4716E-002  
  507.00  6.5236E-002  
  507.50  6.5832E-002  
  508.00  6.6422E-002  
  508.50  6.6955E-002  
  509.00  6.7394E-002  
  509.50  6.7894E-002  
  510.00  6.8497E-002  
  510.50  6.8992E-002  
  511.00  6.9490E-002  
  511.50  6.9952E-002  
  512.00  7.0565E-002  
  512.50  7.1268E-002  
  513.00  7.1954E-002  
  513.50  7.2575E-002  
  514.00  7.3166E-002  
  514.50  7.3709E-002  
  515.00  7.4211E-002  
  515.50  7.4711E-002  
  516.00  7.5275E-002  
  516.50  7.5857E-002  
  517.00  7.6442E-002  
  517.50  7.6974E-002  
  518.00  7.7545E-002  
  518.50  7.8253E-002  
  519.00  7.8843E-002  
  519.50  7.9358E-002  
  520.00  7.9806E-002  
  520.50  8.0316E-002  
  521.00  8.0991E-002  
  521.50  8.1637E-002  
  522.00  8.2286E-002  
  522.50  8.2930E-002  
  523.00  8.3515E-002  
  523.50  8.4074E-002  
  524.00  8.4639E-002  
  524.50  8.5277E-002  
  525.00  8.5880E-002  
  525.50  8.6434E-002  
  526.00  8.6935E-002  
  526.50  8.7468E-002  
  527.00  8.8039E-002  
  527.50  8.8668E-002  
  528.00  8.9259E-002  
  528.50  8.9907E-002  
  529.00  9.0563E-002  
  529.50  9.1197E-002  
  530.00  9.1808E-002  
  530.50  9.2395E-002  
  531.00  9.2964E-002  
  531.50  9.3603E-002  
  532.00  9.4208E-002  
  532.50  9.4884E-002  
  533.00  9.5574E-002  
  533.50  9.6162E-002  
  534.00  9.6640E-002  
  534.50  9.7152E-002  
  535.00  9.7793E-002  
  535.50  9.8473E-002  
  536.00  9.9041E-002  
  536.50  9.9491E-002  
  537.00  1.0004E-001  
  537.50  1.0058E-001  
  538.00  1.0116E-001  
  538.50  1.0173E-001  
  539.00  1.0232E-001  
  539.50  1.0290E-001  
  540.00  1.0352E-001  
  540.50  1.0426E-001  
  541.00  1.0489E-001  
  541.50  1.0553E-001  
  542.00  1.0605E-001  
  542.50  1.0668E-001  
  543.00  1.0737E-001  
  543.50  1.0800E-001  
  544.00  1.0851E-001  
  544.50  1.0902E-001  
  545.00  1.0955E-001  
  545.50  1.1016E-001  
  546.00  1.1072E-001  
  546.50  1.1138E-001  
  547.00  1.1203E-001  
  547.50  1.1261E-001  
  548.00  1.1312E-001  
  548.50  1.1362E-001  
  549.00  1.1418E-001  
  549.50  1.1471E-001  
  550.00  1.1526E-001  
  550.50  1.1589E-001  
  551.00  1.1663E-001  
  551.50  1.1740E-001  
  552.00  1.1800E-001  
  552.50  1.1857E-001  
  553.00  1.1915E-001  
  553.50  1.1976E-001  
  554.00  1.2038E-001  
  554.50  1.2090E-001  
  555.00  1.2129E-001  
  555.50  1.2184E-001  
  556.00  1.2246E-001  
  556.50  1.2305E-001  
  557.00  1.2367E-001  
  557.50  1.2425E-001  
  558.00  1.2492E-001  
  558.50  1.2557E-001  
  559.00  1.2616E-001  
  559.50  1.2673E-001  
  560.00  1.2730E-001  
  560.50  1.2774E-001  
  561.00  1.2826E-001  
  561.50  1.2872E-001  
  562.00  1.2923E-001  
  562.50  1.2974E-001  
  563.00  1.3020E-001  
  563.50  1.3073E-001  
  564.00  1.3118E-001  
  564.50  1.3165E-001  
  565.00  1.3211E-001  
  565.50  1.3266E-001  
  566.00  1.3322E-001  
  566.50  1.3373E-001  
  567.00  1.3409E-001  
  567.50  1.3447E-001  
  568.00  1.3491E-001  
  568.50  1.3538E-001  
  569.00  1.3577E-001  
  569.50  1.3624E-001  
  570.00  1.3681E-001  
  570.50  1.3746E-001  
  571.00  1.3797E-001  
  571.50  1.3842E-001  
  572.00  1.3886E-001  
  572.50  1.3935E-001  
  573.00  1.3988E-001  
  573.50  1.4030E-001  
  574.00  1.4072E-001  
  574.50  1.4110E-001  
  575.00  1.4153E-001  
  575.50  1.4202E-001  
  576.00  1.4258E-001  
  576.50  1.4316E-001  
  577.00  1.4372E-001  
  577.50  1.4424E-001  
  578.00  1.4472E-001  
  578.50  1.4524E-001  
  579.00  1.4578E-001  
  579.50  1.4628E-001  
  580.00  1.4673E-001  
  580.50  1.4718E-001  
  581.00  1.4752E-001  
  581.50  1.4789E-001  
  582.00  1.4826E-001  
  582.50  1.4865E-001  
  583.00  1.4905E-001  
  583.50  1.4959E-001  
  584.00  1.5013E-001  
  584.50  1.5070E-001  
  585.00  1.5103E-001  
  585.50  1.5138E-001  
  586.00  1.5179E-001  
  586.50  1.5231E-001  
  587.00  1.5280E-001  
  587.50  1.5318E-001  
  588.00  1.5362E-001  
  588.50  1.5413E-001  
  589.00  1.5459E-001  
  589.50  1.5500E-001  
  590.00  1.5547E-001  
  590.50  1.5597E-001  
  591.00  1.5650E-001  
  591.50  1.5695E-001  
  592.00  1.5735E-001  
  592.50  1.5772E-001  
  593.00  1.5809E-001  
  593.50  1.5836E-001  
  594.00  1.5884E-001  
  594.50  1.5936E-001  
  595.00  1.5995E-001  
  595.50  1.6033E-001  
  596.00  1.6060E-001  
  596.50  1.6095E-001  
  597.00  1.6139E-001  
  597.50  1.6176E-001  
  598.00  1.6202E-001  
  598.50  1.6227E-001  
  599.00  1.6265E-001  
  599.50  1.6317E-001  
  600.00  1.6364E-001  
  600.50  1.6410E-001  
  601.00  1.6456E-001  
  601.50  1.6502E-001  
  602.00  1.6544E-001  
  602.50  1.6584E-001  
  603.00  1.6624E-001  
  603.50  1.6664E-001  
  604.00  1.6696E-001  
  604.50  1.6728E-001  
  605.00  1.6750E-001  
  605.50  1.6786E-001  
  606.00  1.6821E-001  
  606.50  1.6875E-001  
  607.00  1.6917E-001  
  607.50  1.6952E-001  
  608.00  1.6988E-001  
  608.50  1.7036E-001  
  609.00  1.7091E-001  
  609.50  1.7142E-001  
  610.00  1.7178E-001  
  610.50  1.7204E-001  
  611.00  1.7235E-001  
  611.50  1.7279E-001  
  612.00  1.7325E-001  
  612.50  1.7371E-001  
  613.00  1.7403E-001  
  613.50  1.7440E-001  
  614.00  1.7480E-001  
  614.50  1.7529E-001  
  615.00  1.7582E-001  
  615.50  1.7621E-001  
  616.00  1.7647E-001  
  616.50  1.7666E-001  
  617.00  1.7700E-001  
  617.50  1.7737E-001  
  618.00  1.7777E-001  
  618.50  1.7810E-001  
  619.00  1.7841E-001  
  619.50  1.7873E-001  
  620.00  1.7922E-001  
  620.50  1.7967E-001  
  621.00  1.8019E-001  
  621.50  1.8053E-001  
  622.00  1.8087E-001  
  622.50  1.8110E-001  
  623.00  1.8139E-001  
  623.50  1.8174E-001  
  624.00  1.8218E-001  
  624.50  1.8261E-001  
  625.00  1.8301E-001  
  625.50  1.8336E-001  
  626.00  1.8359E-001  
  626.50  1.8381E-001  
  627.00  1.8419E-001  
  627.50  1.8467E-001  
  628.00  1.8512E-001  
  628.50  1.8534E-001  
  629.00  1.8562E-001  
  629.50  1.8583E-001  
  630.00  1.8633E-001  
  630.50  1.8678E-001  
  631.00  1.8727E-001  
  631.50  1.8766E-001  
  632.00  1.8789E-001  
  632.50  1.8803E-001  
  633.00  1.8817E-001  
  633.50  1.8839E-001  
  634.00  1.8880E-001  
  634.50  1.8927E-001  
  635.00  1.8971E-001  
  635.50  1.9006E-001  
  636.00  1.9038E-001  
  636.50  1.9070E-001  
  637.00  1.9114E-001  
  637.50  1.9147E-001  
  638.00  1.9176E-001  
  638.50  1.9206E-001  
  639.00  1.9242E-001  
  639.50  1.9278E-001  
  640.00  1.9316E-001  
  640.50  1.9331E-001  
  641.00  1.9354E-001  
  641.50  1.9384E-001  
  642.00  1.9427E-001  
  642.50  1.9469E-001  
  643.00  1.9481E-001  
  643.50  1.9493E-001  
  644.00  1.9526E-001  
  644.50  1.9566E-001  
  645.00  1.9611E-001  
  645.50  1.9649E-001  
  646.00  1.9671E-001  
  646.50  1.9684E-001  
  647.00  1.9710E-001  
  647.50  1.9759E-001  
  648.00  1.9807E-001  
  648.50  1.9846E-001  
  649.00  1.9868E-001  
  649.50  1.9889E-001  
  650.00  1.9902E-001  
  650.50  1.9921E-001  
  651.00  1.9949E-001  
  651.50  1.9971E-001  
  652.00  2.0003E-001  
  652.50  2.0039E-001  
  653.00  2.0077E-001  
  653.50  2.0089E-001  
  654.00  2.0114E-001  
  654.50  2.0143E-001  
  655.00  2.0184E-001  
  655.50  2.0208E-001  
  656.00  2.0232E-001  
  656.50  2.0250E-001  
  657.00  2.0265E-001  
  657.50  2.0286E-001  
  658.00  2.0341E-001  
  658.50  2.0387E-001  
  659.00  2.0401E-001  
  659.50  2.0395E-001  
  660.00  2.0412E-001  
  660.50  2.0464E-001  
  661.00  2.0495E-001  
  661.50  2.0527E-001  
  662.00  2.0537E-001  
  662.50  2.0568E-001  
  663.00  2.0579E-001  
  663.50  2.0605E-001  
  664.00  2.0604E-001  
  664.50  2.0615E-001  
  665.00  2.0620E-001  
  665.50  2.0658E-001  
  666.00  2.0674E-001  
  666.50  2.0687E-001  
  667.00  2.0702E-001  
  667.50  2.0748E-001  
  668.00  2.0773E-001  
  668.50  2.0781E-001  
  669.00  2.0804E-001  
  669.50  2.0850E-001  
  670.00  2.0885E-001  
  670.50  2.0877E-001  
  671.00  2.0869E-001  
  671.50  2.0877E-001  
  672.00  2.0890E-001  
  672.50  2.0916E-001  
  673.00  2.0934E-001  
  673.50  2.0956E-001  
  674.00  2.0996E-001  
  674.50  2.1050E-001  
  675.00  2.1092E-001  
  675.50  2.1095E-001  
  676.00  2.1081E-001  
  676.50  2.1090E-001  
  677.00  2.1106E-001  
  677.50  2.1126E-001  
  678.00  2.1125E-001  
  678.50  2.1148E-001  
  679.00  2.1171E-001  
  679.50  2.1230E-001  
  680.00  2.1252E-001  
  680.50  2.1272E-001  
  681.00  2.1256E-001  
  681.50  2.1261E-001  
  682.00  2.1306E-001  
  682.50  2.1358E-001  
  683.00  2.1390E-001  
  683.50  2.1408E-001  
  684.00  2.1428E-001  
  684.50  2.1438E-001  
  685.00  2.1454E-001  
  685.50  2.1454E-001  
  686.00  2.1468E-001  
  686.50  2.1475E-001  
  687.00  2.1539E-001  
  687.50  2.1602E-001  
  688.00  2.1608E-001  
  688.50  2.1593E-001  
  689.00  2.1569E-001  
  689.50  2.1575E-001  
  690.00  2.1602E-001  
  690.50  2.1645E-001  
  691.00  2.1681E-001  
  691.50  2.1691E-001  
  692.00  2.1708E-001  
  692.50  2.1752E-001  
  693.00  2.1778E-001  
  693.50  2.1813E-001  
  694.00  2.1832E-001  
  694.50  2.1864E-001  
  695.00  2.1882E-001  
  695.50  2.1901E-001  
  696.00  2.1925E-001  
  696.50  2.1964E-001  
  697.00  2.1966E-001  
  697.50  2.1978E-001  
  698.00  2.1958E-001  
  698.50  2.1983E-001  
  699.00  2.1975E-001  
  699.50  2.1986E-001  
  700.00  2.1992E-001  
  700.50  2.2030E-001  
  701.00  2.2106E-001  
  701.50  2.2183E-001  
  702.00  2.2203E-001  
  702.50  2.2220E-001  
  703.00  2.2213E-001  
  703.50  2.2241E-001  
  704.00  2.2257E-001  
  704.50  2.2282E-001  
  705.00  2.2321E-001  
  705.50  2.2282E-001  
  706.00  2.2275E-001  
  706.50  2.2284E-001  
  707.00  2.2332E-001  
  707.50  2.2370E-001  
  708.00  2.2387E-001  
  708.50  2.2407E-001  
  709.00  2.2398E-001  
  709.50  2.2420E-001  
  710.00  2.2407E-001  
  710.50  2.2408E-001  
  711.00  2.2409E-001  
  711.50  2.2439E-001  
  712.00  2.2460E-001  
  712.50  2.2514E-001  
  713.00  2.2563E-001  
  713.50  2.2571E-001  
  714.00  2.2571E-001  
  714.50  2.2590E-001  
  715.00  2.2616E-001  
  715.50  2.2646E-001  
  716.00  2.2686E-001  
  716.50  2.2671E-001  
  717.00  2.2635E-001  
  717.50  2.2623E-001  
  718.00  2.2691E-001  
  718.50  2.2734E-001  
  719.00  2.2774E-001  
  719.50  2.2797E-001  
  720.00  2.2806E-001  
  720.50  2.2795E-001  
  721.00  2.2773E-001  
  721.50  2.2769E-001  
  722.00  2.2756E-001  
  722.50  2.2772E-001  
  723.00  2.2807E-001  
  723.50  2.2833E-001  
  724.00  2.2842E-001  
  724.50  2.2855E-001  
  725.00  2.2897E-001  
  725.50  2.2958E-001  
  726.00  2.2976E-001  
  726.50  2.2977E-001  
  727.00  2.2966E-001  
  727.50  2.2966E-001  
  728.00  2.2947E-001  
  728.50  2.2982E-001  
  729.00  2.3043E-001  
  729.50  2.3078E-001  
  730.00  2.3089E-001  
  730.50  2.3136E-001  
  731.00  2.3177E-001  
  731.50  2.3179E-001  
  732.00  2.3198E-001  
  732.50  2.3184E-001  
  733.00  2.3184E-001  
  733.50  2.3186E-001  
  734.00  2.3270E-001  
  734.50  2.3302E-001  
  735.00  2.3323E-001  
  735.50  2.3293E-001  
  736.00  2.3249E-001  
  736.50  2.3184E-001  
  737.00  2.3157E-001  
  737.50  2.3204E-001  
  738.00  2.3279E-001  
  738.50  2.3319E-001  
  739.00  2.3330E-001  
  739.50  2.3328E-001  
  740.00  2.3341E-001  
  740.50  2.3299E-001  
  741.00  2.3318E-001  
  741.50  2.3359E-001  
  742.00  2.3419E-001  
  742.50  2.3402E-001  
  743.00  2.3393E-001  
  743.50  2.3409E-001  
  744.00  2.3425E-001  
  744.50  2.3374E-001  
  745.00  2.3391E-001  
  745.50  2.3421E-001  
  746.00  2.3481E-001  
  746.50  2.3429E-001  
  747.00  2.3416E-001  
  747.50  2.3427E-001  
  748.00  2.3451E-001  
  748.50  2.3416E-001  
  749.00  2.3397E-001  
  749.50  2.3447E-001  
  750.00  2.3527E-001  
  750.50  2.3557E-001  
  751.00  2.3546E-001  
  751.50  2.3502E-001  
  752.00  2.3468E-001  
  752.50  2.3469E-001  
  753.00  2.3485E-001  
  753.50  2.3474E-001  
  754.00  2.3468E-001  
  754.50  2.3495E-001  
  755.00  2.3552E-001  
  755.50  2.3532E-001  
  756.00  2.3520E-001  
  756.50  2.3500E-001  
  757.00  2.3508E-001  
  757.50  2.3478E-001  
  758.00  2.3466E-001  
  758.50  2.3484E-001  
  759.00  2.3522E-001  
  759.50  2.3550E-001  
  760.00  2.3590E-001  
  760.50  2.3585E-001  
  761.00  2.3631E-001  
  761.50  2.3635E-001  
  762.00  2.3672E-001  
  762.50  2.3669E-001  
  763.00  2.3644E-001  
  763.50  2.3624E-001  
  764.00  2.3625E-001  
  764.50  2.3603E-001  
  765.00  2.3582E-001  
  765.50  2.3594E-001  
  766.00  2.3650E-001  
  766.50  2.3641E-001  
  767.00  2.3600E-001  
  767.50  2.3620E-001  
  768.00  2.3671E-001  
  768.50  2.3641E-001  
  769.00  2.3574E-001  
  769.50  2.3549E-001  
  770.00  2.3578E-001  
  770.50  2.3586E-001  
  771.00  2.3609E-001  
  771.50  2.3603E-001  
  772.00  2.3632E-001  
  772.50  2.3639E-001  
  773.00  2.3623E-001  
  773.50  2.3595E-001  
  774.00  2.3563E-001  
  774.50  2.3616E-001  
  775.00  2.3662E-001  
  775.50  2.3718E-001  
  776.00  2.3752E-001  
  776.50  2.3719E-001  
  777.00  2.3682E-001  
  777.50  2.3660E-001  
  778.00  2.3669E-001  
  778.50  2.3638E-001  
  779.00  2.3552E-001  
  779.50  2.3495E-001  
  780.00  2.3544E-001  
  780.50  2.3633E-001  
  781.00  2.3679E-001  
  781.50  2.3722E-001  
  782.00  2.3739E-001  
  782.50  2.3776E-001  
  783.00  2.3744E-001  
  783.50  2.3720E-001  
  784.00  2.3717E-001  
  784.50  2.3794E-001  
  785.00  2.3832E-001  
  785.50  2.3786E-001  
  786.00  2.3720E-001  
  786.50  2.3717E-001  
  787.00  2.3670E-001  
  787.50  2.3657E-001  
  788.00  2.3676E-001  
  788.50  2.3709E-001  
  789.00  2.3750E-001  
  789.50  2.3830E-001  
  790.00  2.3828E-001  
  790.50  2.3741E-001  
  791.00  2.3706E-001  
  791.50  2.3674E-001  
  792.00  2.3671E-001  
  792.50  2.3728E-001  
  793.00  2.3827E-001  
  793.50  2.3790E-001  
  794.00  2.3708E-001  
  794.50  2.3704E-001  
  795.00  2.3757E-001  
  795.50  2.3732E-001  
  796.00  2.3728E-001  
  796.50  2.3756E-001  
  797.00  2.3853E-001  
  797.50  2.3885E-001  
  798.00  2.3918E-001  
  798.50  2.3946E-001  
  799.00  2.3959E-001  
  799.50  2.3947E-001  
  800.00  2.3889E-001  
  800.50  2.3918E-001  
  801.00  2.3940E-001  
  801.50  2.3936E-001  
  802.00  2.3916E-001  
  802.50  2.3892E-001  
  803.00  2.3847E-001  
  803.50  2.3834E-001  
  804.00  2.3839E-001  
  804.50  2.3862E-001  
  805.00  2.3947E-001  
  805.50  2.3971E-001  
  806.00  2.3920E-001  
  806.50  2.3831E-001  
  807.00  2.3822E-001  
  807.50  2.3838E-001  
  808.00  2.3906E-001  
  808.50  2.3972E-001  
  809.00  2.4036E-001  
  809.50  2.4023E-001  
  810.00  2.4079E-001  
  810.50  2.4099E-001  
  811.00  2.4051E-001  
  811.50  2.3983E-001  
  812.00  2.4022E-001  
  812.50  2.4060E-001  
  813.00  2.4071E-001  
  813.50  2.4122E-001  
  814.00  2.4153E-001  
  814.50  2.4215E-001  
  815.00  2.4263E-001  
  815.50  2.4220E-001  
  816.00  2.4162E-001  
  816.50  2.4178E-001  
  817.00  2.4166E-001  
  817.50  2.4117E-001  
  818.00  2.4122E-001  
  818.50  2.4162E-001  
  819.00  2.4182E-001  
  819.50  2.4140E-001  
  820.00  2.4110E-001  
  820.50  2.4110E-001  
  821.00  2.4128E-001  
  821.50  2.4054E-001  
  822.00  2.4069E-001  
  822.50  2.4187E-001  
  823.00  2.4248E-001  
  823.50  2.4231E-001  
  824.00  2.4231E-001  
  824.50  2.4226E-001  
  825.00  2.4248E-001  
  825.50  2.4227E-001  
  826.00  2.4294E-001  
  826.50  2.4323E-001  
  827.00  2.4270E-001  
  827.50  2.4245E-001  
  828.00  2.4265E-001  
  828.50  2.4208E-001  
  829.00  2.4190E-001  
  829.50  2.4206E-001  
  830.00  2.4221E-001  
  830.50  2.4192E-001  
  831.00  2.4224E-001  
  831.50  2.4298E-001  
  832.00  2.4304E-001  
  832.50  2.4287E-001  
  833.00  2.4313E-001  
  833.50  2.4251E-001  
  834.00  2.4184E-001  
  834.50  2.4323E-001  
  835.00  2.4404E-001  
  835.50  2.4338E-001  
  836.00  2.4309E-001  
  836.50  2.4270E-001  
  837.00  2.4212E-001  
  837.50  2.4191E-001  
  838.00  2.4295E-001  
  838.50  2.4382E-001  
  839.00  2.4319E-001  
  839.50  2.4292E-001  
  840.00  2.4391E-001  
  840.50  2.4421E-001  
  841.00  2.4385E-001  
  841.50  2.4321E-001  
  842.00  2.4379E-001  
  842.50  2.4436E-001  
  843.00  2.4454E-001  
  843.50  2.4488E-001  
  844.00  2.4489E-001  
  844.50  2.4527E-001  
  845.00  2.4597E-001  
  845.50  2.4645E-001  
  846.00  2.4573E-001  
  846.50  2.4604E-001  
  847.00  2.4633E-001  
  847.50  2.4567E-001  
  848.00  2.4544E-001  
  848.50  2.4589E-001  
  849.00  2.4628E-001  
  849.50  2.4597E-001  
  850.00  2.4605E-001  
  850.50  2.4702E-001  
  851.00  2.4737E-001  
  851.50  2.4641E-001  
  852.00  2.4613E-001  
  852.50  2.4637E-001  
  853.00  2.4678E-001  
  853.50  2.4723E-001  
  854.00  2.4683E-001  
  854.50  2.4596E-001  
  855.00  2.4721E-001  
  855.50  2.4902E-001  
  856.00  2.5035E-001  
  856.50  2.5054E-001  
  857.00  2.5023E-001  
  857.50  2.4912E-001  
  858.00  2.4870E-001  
  858.50  2.4952E-001  
  859.00  2.5048E-001  
  859.50  2.5173E-001  
  860.00  2.5245E-001  
  860.50  2.5251E-001  
  861.00  2.5175E-001  
  861.50  2.5034E-001  
  862.00  2.5004E-001  
  862.50  2.5090E-001  
  863.00  2.5244E-001  
  863.50  2.5314E-001  
  864.00  2.5254E-001  
  864.50  2.5266E-001  
  865.00  2.5209E-001  
  865.50  2.5211E-001  
  866.00  2.5352E-001  
  866.50  2.5395E-001  
  867.00  2.5341E-001  
  867.50  2.5309E-001  
  868.00  2.5273E-001  
  868.50  2.5374E-001  
  869.00  2.5537E-001  
  869.50  2.5525E-001  
  870.00  2.5478E-001  
  870.50  2.5403E-001  
  871.00  2.5344E-001  
  871.50  2.5419E-001  
  872.00  2.5622E-001  
  872.50  2.5669E-001  
  873.00  2.5577E-001  
  873.50  2.5531E-001  
  874.00  2.5666E-001  
  874.50  2.5704E-001  
  875.00  2.5667E-001  
  875.50  2.5801E-001  
  876.00  2.5879E-001  
  876.50  2.5829E-001  
  877.00  2.5867E-001  
  877.50  2.5897E-001  
  878.00  2.6000E-001  
  878.50  2.6057E-001  
  879.00  2.6074E-001  
  879.50  2.6058E-001  
  880.00  2.6000E-001  
  880.50  2.5916E-001  
  881.00  2.6039E-001  
  881.50  2.6189E-001  
  882.00  2.6152E-001  
  882.50  2.5985E-001  
  883.00  2.5999E-001  
  883.50  2.5967E-001  
  884.00  2.6096E-001  
  884.50  2.6274E-001  
  885.00  2.6340E-001  
  885.50  2.6259E-001  
  886.00  2.6277E-001  
  886.50  2.6245E-001  
  887.00  2.6321E-001  
  887.50  2.6326E-001  
  888.00  2.6348E-001  
  888.50  2.6423E-001  
  889.00  2.6397E-001  
  889.50  2.6412E-001  
  890.00  2.6344E-001  
  890.50  2.6334E-001  
  891.00  2.6357E-001  
  891.50  2.6241E-001  
  892.00  2.6313E-001  
  892.50  2.6455E-001  
  893.00  2.6345E-001  
  893.50  2.6289E-001  
  894.00  2.6386E-001  
  894.50  2.6510E-001  
  895.00  2.6564E-001  
  895.50  2.6555E-001  
  896.00  2.6547E-001  
  896.50  2.6714E-001  
  897.00  2.6688E-001  
  897.50  2.6517E-001  
  898.00  2.6722E-001  
  898.50  2.6813E-001  
  899.00  2.6638E-001  
  899.50  5.2417E-003  
