
# From lspdd.org
# 
# Name: DEL Standard PAR20 Domestique
# Indice spectral Valeur 
# MSI 0.29 
# SLI 0.48 
# IPI 0.68 
# Pourcentage de bleu 17.1 
# Caractéristique Valeur 
# CCT calculée (K) 2940 
# CCT du fabricant (K) 3000 
# Tension (V) 120 
# Puissance (W) 7.0 
# Efficacité lumineuse (Lum/W) 50.0 
#
# Image: '/app/system/img_1s/2516/medium_image1.jpg?1413486055'
# 

  273.00  0.0000E+000  
  273.50  0.0000E+000  
  274.00  0.0000E+000  
  274.50  0.0000E+000  
  275.00  0.0000E+000  
  275.50  0.0000E+000  
  276.00  0.0000E+000  
  276.50  0.0000E+000  
  277.00  0.0000E+000  
  277.50  0.0000E+000  
  278.00  0.0000E+000  
  278.50  0.0000E+000  
  279.00  0.0000E+000  
  279.50  0.0000E+000  
  280.00  0.0000E+000  
  280.50  0.0000E+000  
  281.00  0.0000E+000  
  281.50  0.0000E+000  
  282.00  0.0000E+000  
  282.50  0.0000E+000  
  283.00  0.0000E+000  
  283.50  0.0000E+000  
  284.00  0.0000E+000  
  284.50  0.0000E+000  
  285.00  0.0000E+000  
  285.50  0.0000E+000  
  286.00  0.0000E+000  
  286.50  0.0000E+000  
  287.00  0.0000E+000  
  287.50  0.0000E+000  
  288.00  0.0000E+000  
  288.50  0.0000E+000  
  289.00  0.0000E+000  
  289.50  0.0000E+000  
  290.00  0.0000E+000  
  290.50  0.0000E+000  
  291.00  0.0000E+000  
  291.50  0.0000E+000  
  292.00  0.0000E+000  
  292.50  0.0000E+000  
  293.00  0.0000E+000  
  293.50  0.0000E+000  
  294.00  0.0000E+000  
  294.50  0.0000E+000  
  295.00  0.0000E+000  
  295.50  0.0000E+000  
  296.00  0.0000E+000  
  296.50  0.0000E+000  
  297.00  0.0000E+000  
  297.50  0.0000E+000  
  298.00  0.0000E+000  
  298.50  0.0000E+000  
  299.00  0.0000E+000  
  299.50  0.0000E+000  
  300.00  0.0000E+000  
  300.50  0.0000E+000  
  301.00  0.0000E+000  
  301.50  0.0000E+000  
  302.00  0.0000E+000  
  302.50  0.0000E+000  
  303.00  0.0000E+000  
  303.50  0.0000E+000  
  304.00  0.0000E+000  
  304.50  0.0000E+000  
  305.00  0.0000E+000  
  305.50  0.0000E+000  
  306.00  0.0000E+000  
  306.50  0.0000E+000  
  307.00  0.0000E+000  
  307.50  0.0000E+000  
  308.00  0.0000E+000  
  308.50  0.0000E+000  
  309.00  0.0000E+000  
  309.50  0.0000E+000  
  310.00  0.0000E+000  
  310.50  0.0000E+000  
  311.00  0.0000E+000  
  311.50  0.0000E+000  
  312.00  0.0000E+000  
  312.50  0.0000E+000  
  313.00  0.0000E+000  
  313.50  0.0000E+000  
  314.00  0.0000E+000  
  314.50  0.0000E+000  
  315.00  0.0000E+000  
  315.50  0.0000E+000  
  316.00  0.0000E+000  
  316.50  0.0000E+000  
  317.00  0.0000E+000  
  317.50  0.0000E+000  
  318.00  0.0000E+000  
  318.50  0.0000E+000  
  319.00  0.0000E+000  
  319.50  0.0000E+000  
  320.00  0.0000E+000  
  320.50  0.0000E+000  
  321.00  0.0000E+000  
  321.50  0.0000E+000  
  322.00  0.0000E+000  
  322.50  0.0000E+000  
  323.00  0.0000E+000  
  323.50  0.0000E+000  
  324.00  0.0000E+000  
  324.50  0.0000E+000  
  325.00  0.0000E+000  
  325.50  0.0000E+000  
  326.00  0.0000E+000  
  326.50  0.0000E+000  
  327.00  0.0000E+000  
  327.50  0.0000E+000  
  328.00  0.0000E+000  
  328.50  0.0000E+000  
  329.00  0.0000E+000  
  329.50  0.0000E+000  
  330.00  0.0000E+000  
  330.50  0.0000E+000  
  331.00  0.0000E+000  
  331.50  0.0000E+000  
  332.00  0.0000E+000  
  332.50  0.0000E+000  
  333.00  0.0000E+000  
  333.50  0.0000E+000  
  334.00  0.0000E+000  
  334.50  0.0000E+000  
  335.00  0.0000E+000  
  335.50  0.0000E+000  
  336.00  0.0000E+000  
  336.50  0.0000E+000  
  337.00  0.0000E+000  
  337.50  0.0000E+000  
  338.00  0.0000E+000  
  338.50  0.0000E+000  
  339.00  0.0000E+000  
  339.50  0.0000E+000  
  340.00  0.0000E+000  
  340.50  0.0000E+000  
  341.00  0.0000E+000  
  341.50  0.0000E+000  
  342.00  0.0000E+000  
  342.50  0.0000E+000  
  343.00  0.0000E+000  
  343.50  0.0000E+000  
  344.00  0.0000E+000  
  344.50  0.0000E+000  
  345.00  0.0000E+000  
  345.50  0.0000E+000  
  346.00  0.0000E+000  
  346.50  0.0000E+000  
  347.00  0.0000E+000  
  347.50  0.0000E+000  
  348.00  0.0000E+000  
  348.50  0.0000E+000  
  349.00  0.0000E+000  
  349.50  0.0000E+000  
  350.00  0.0000E+000  
  350.50  0.0000E+000  
  351.00  0.0000E+000  
  351.50  0.0000E+000  
  352.00  0.0000E+000  
  352.50  0.0000E+000  
  353.00  0.0000E+000  
  353.50  0.0000E+000  
  354.00  0.0000E+000  
  354.50  0.0000E+000  
  355.00  0.0000E+000  
  355.50  0.0000E+000  
  356.00  0.0000E+000  
  356.50  0.0000E+000  
  357.00  0.0000E+000  
  357.50  0.0000E+000  
  358.00  0.0000E+000  
  358.50  0.0000E+000  
  359.00  0.0000E+000  
  359.50  0.0000E+000  
  360.00  0.0000E+000  
  360.50  0.0000E+000  
  361.00  0.0000E+000  
  361.50  0.0000E+000  
  362.00  0.0000E+000  
  362.50  0.0000E+000  
  363.00  0.0000E+000  
  363.50  0.0000E+000  
  364.00  0.0000E+000  
  364.50  0.0000E+000  
  365.00  0.0000E+000  
  365.50  0.0000E+000  
  366.00  0.0000E+000  
  366.50  0.0000E+000  
  367.00  0.0000E+000  
  367.50  0.0000E+000  
  368.00  0.0000E+000  
  368.50  0.0000E+000  
  369.00  0.0000E+000  
  369.50  0.0000E+000  
  370.00  0.0000E+000  
  370.50  0.0000E+000  
  371.00  0.0000E+000  
  371.50  0.0000E+000  
  372.00  0.0000E+000  
  372.50  0.0000E+000  
  373.00  0.0000E+000  
  373.50  0.0000E+000  
  374.00  0.0000E+000  
  374.50  0.0000E+000  
  375.00  0.0000E+000  
  375.50  0.0000E+000  
  376.00  0.0000E+000  
  376.50  0.0000E+000  
  377.00  0.0000E+000  
  377.50  0.0000E+000  
  378.00  0.0000E+000  
  378.50  0.0000E+000  
  379.00  0.0000E+000  
  379.50  0.0000E+000  
  380.00  0.0000E+000  
  380.50  0.0000E+000  
  381.00  0.0000E+000  
  381.50  0.0000E+000  
  382.00  0.0000E+000  
  382.50  0.0000E+000  
  383.00  0.0000E+000  
  383.50  0.0000E+000  
  384.00  0.0000E+000  
  384.50  0.0000E+000  
  385.00  0.0000E+000  
  385.50  0.0000E+000  
  386.00  0.0000E+000  
  386.50  0.0000E+000  
  387.00  0.0000E+000  
  387.50  0.0000E+000  
  388.00  0.0000E+000  
  388.50  0.0000E+000  
  389.00  0.0000E+000  
  389.50  0.0000E+000  
  390.00  0.0000E+000  
  390.50  0.0000E+000  
  391.00  0.0000E+000  
  391.50  0.0000E+000  
  392.00  0.0000E+000  
  392.50  0.0000E+000  
  393.00  0.0000E+000  
  393.50  0.0000E+000  
  394.00  0.0000E+000  
  394.50  0.0000E+000  
  395.00  0.0000E+000  
  395.50  0.0000E+000  
  396.00  0.0000E+000  
  396.50  0.0000E+000  
  397.00  0.0000E+000  
  397.50  0.0000E+000  
  398.00  3.5950E-005  
  398.50  9.8238E-005  
  399.00  1.3316E-004  
  399.50  1.3298E-004  
  400.00  1.1522E-004  
  400.50  1.1705E-004  
  401.00  9.3993E-005  
  401.50  9.8487E-005  
  402.00  5.7931E-005  
  402.50  6.5397E-005  
  403.00  1.1948E-004  
  403.50  1.4104E-004  
  404.00  1.8824E-004  
  404.50  1.9855E-004  
  405.00  2.1239E-004  
  405.50  2.3529E-004  
  406.00  3.0118E-004  
  406.50  4.0856E-004  
  407.00  5.1129E-004  
  407.50  5.5332E-004  
  408.00  4.8691E-004  
  408.50  3.7589E-004  
  409.00  3.6275E-004  
  409.50  4.8229E-004  
  410.00  6.6473E-004  
  410.50  8.0273E-004  
  411.00  8.6919E-004  
  411.50  9.0751E-004  
  412.00  1.0124E-003  
  412.50  1.1680E-003  
  413.00  1.3330E-003  
  413.50  1.4652E-003  
  414.00  1.6082E-003  
  414.50  1.7406E-003  
  415.00  1.9223E-003  
  415.50  2.0851E-003  
  416.00  2.1951E-003  
  416.50  2.3498E-003  
  417.00  2.5454E-003  
  417.50  2.8341E-003  
  418.00  3.1144E-003  
  418.50  3.3683E-003  
  419.00  3.5410E-003  
  419.50  3.7490E-003  
  420.00  4.0225E-003  
  420.50  4.3752E-003  
  421.00  4.7925E-003  
  421.50  5.1827E-003  
  422.00  5.5654E-003  
  422.50  5.9090E-003  
  423.00  6.2743E-003  
  423.50  6.6709E-003  
  424.00  7.1493E-003  
  424.50  7.6513E-003  
  425.00  8.1713E-003  
  425.50  8.6290E-003  
  426.00  9.1151E-003  
  426.50  9.6426E-003  
  427.00  1.0298E-002  
  427.50  1.1036E-002  
  428.00  1.1810E-002  
  428.50  1.2529E-002  
  429.00  1.3249E-002  
  429.50  1.3935E-002  
  430.00  1.4640E-002  
  430.50  1.5354E-002  
  431.00  1.6065E-002  
  431.50  1.6785E-002  
  432.00  1.7671E-002  
  432.50  1.8539E-002  
  433.00  1.9494E-002  
  433.50  2.0456E-002  
  434.00  2.1480E-002  
  434.50  2.2606E-002  
  435.00  2.3829E-002  
  435.50  2.5097E-002  
  436.00  2.6468E-002  
  436.50  2.7840E-002  
  437.00  2.9257E-002  
  437.50  3.0670E-002  
  438.00  3.2047E-002  
  438.50  3.3420E-002  
  439.00  3.4768E-002  
  439.50  3.6273E-002  
  440.00  3.7857E-002  
  440.50  3.9512E-002  
  441.00  4.0997E-002  
  441.50  4.2268E-002  
  442.00  4.3532E-002  
  442.50  4.4568E-002  
  443.00  4.5658E-002  
  443.50  4.6554E-002  
  444.00  4.7256E-002  
  444.50  4.7810E-002  
  445.00  4.8201E-002  
  445.50  4.8348E-002  
  446.00  4.8367E-002  
  446.50  4.8104E-002  
  447.00  4.7718E-002  
  447.50  4.7162E-002  
  448.00  4.6416E-002  
  448.50  4.5402E-002  
  449.00  4.4242E-002  
  449.50  4.3053E-002  
  450.00  4.1911E-002  
  450.50  4.0705E-002  
  451.00  3.9450E-002  
  451.50  3.8042E-002  
  452.00  3.6644E-002  
  452.50  3.5310E-002  
  453.00  3.3977E-002  
  453.50  3.2670E-002  
  454.00  3.1458E-002  
  454.50  3.0286E-002  
  455.00  2.9310E-002  
  455.50  2.8294E-002  
  456.00  2.7256E-002  
  456.50  2.6306E-002  
  457.00  2.5424E-002  
  457.50  2.4652E-002  
  458.00  2.3910E-002  
  458.50  2.3022E-002  
  459.00  2.2158E-002  
  459.50  2.1370E-002  
  460.00  2.0648E-002  
  460.50  2.0017E-002  
  461.00  1.9308E-002  
  461.50  1.8634E-002  
  462.00  1.8040E-002  
  462.50  1.7466E-002  
  463.00  1.6865E-002  
  463.50  1.6225E-002  
  464.00  1.5597E-002  
  464.50  1.5006E-002  
  465.00  1.4499E-002  
  465.50  1.4072E-002  
  466.00  1.3635E-002  
  466.50  1.3159E-002  
  467.00  1.2685E-002  
  467.50  1.2294E-002  
  468.00  1.1933E-002  
  468.50  1.1624E-002  
  469.00  1.1260E-002  
  469.50  1.0895E-002  
  470.00  1.0528E-002  
  470.50  1.0209E-002  
  471.00  9.9116E-003  
  471.50  9.6662E-003  
  472.00  9.4427E-003  
  472.50  9.2411E-003  
  473.00  9.0771E-003  
  473.50  8.9389E-003  
  474.00  8.7490E-003  
  474.50  8.5741E-003  
  475.00  8.3884E-003  
  475.50  8.2013E-003  
  476.00  8.0223E-003  
  476.50  7.9221E-003  
  477.00  7.8373E-003  
  477.50  7.8313E-003  
  478.00  7.7868E-003  
  478.50  7.7679E-003  
  479.00  7.7549E-003  
  479.50  7.6802E-003  
  480.00  7.6084E-003  
  480.50  7.5233E-003  
  481.00  7.4798E-003  
  481.50  7.4781E-003  
  482.00  7.5066E-003  
  482.50  7.5897E-003  
  483.00  7.6794E-003  
  483.50  7.7676E-003  
  484.00  7.8216E-003  
  484.50  7.8690E-003  
  485.00  7.9371E-003  
  485.50  8.0275E-003  
  486.00  8.1321E-003  
  486.50  8.2208E-003  
  487.00  8.3649E-003  
  487.50  8.5306E-003  
  488.00  8.7706E-003  
  488.50  8.9969E-003  
  489.00  9.2450E-003  
  489.50  9.4461E-003  
  490.00  9.6615E-003  
  490.50  9.8730E-003  
  491.00  1.0171E-002  
  491.50  1.0508E-002  
  492.00  1.0866E-002  
  492.50  1.1237E-002  
  493.00  1.1612E-002  
  493.50  1.2001E-002  
  494.00  1.2418E-002  
  494.50  1.2831E-002  
  495.00  1.3237E-002  
  495.50  1.3678E-002  
  496.00  1.4124E-002  
  496.50  1.4590E-002  
  497.00  1.5117E-002  
  497.50  1.5612E-002  
  498.00  1.6166E-002  
  498.50  1.6711E-002  
  499.00  1.7280E-002  
  499.50  1.7864E-002  
  500.00  1.8446E-002  
  500.50  1.8977E-002  
  501.00  1.9546E-002  
  501.50  2.0188E-002  
  502.00  2.0854E-002  
  502.50  2.1490E-002  
  503.00  2.2114E-002  
  503.50  2.2789E-002  
  504.00  2.3491E-002  
  504.50  2.4142E-002  
  505.00  2.4788E-002  
  505.50  2.5459E-002  
  506.00  2.6176E-002  
  506.50  2.6886E-002  
  507.00  2.7543E-002  
  507.50  2.8255E-002  
  508.00  2.8996E-002  
  508.50  2.9771E-002  
  509.00  3.0502E-002  
  509.50  3.1240E-002  
  510.00  3.1954E-002  
  510.50  3.2715E-002  
  511.00  3.3423E-002  
  511.50  3.4140E-002  
  512.00  3.4860E-002  
  512.50  3.5572E-002  
  513.00  3.6372E-002  
  513.50  3.7157E-002  
  514.00  3.7958E-002  
  514.50  3.8747E-002  
  515.00  3.9417E-002  
  515.50  4.0012E-002  
  516.00  4.0610E-002  
  516.50  4.1253E-002  
  517.00  4.2029E-002  
  517.50  4.2827E-002  
  518.00  4.3564E-002  
  518.50  4.4217E-002  
  519.00  4.4790E-002  
  519.50  4.5401E-002  
  520.00  4.6055E-002  
  520.50  4.6688E-002  
  521.00  4.7311E-002  
  521.50  4.7885E-002  
  522.00  4.8541E-002  
  522.50  4.9324E-002  
  523.00  5.0005E-002  
  523.50  5.0660E-002  
  524.00  5.1225E-002  
  524.50  5.1849E-002  
  525.00  5.2477E-002  
  525.50  5.3067E-002  
  526.00  5.3622E-002  
  526.50  5.4168E-002  
  527.00  5.4720E-002  
  527.50  5.5202E-002  
  528.00  5.5649E-002  
  528.50  5.6202E-002  
  529.00  5.6783E-002  
  529.50  5.7340E-002  
  530.00  5.7761E-002  
  530.50  5.8143E-002  
  531.00  5.8576E-002  
  531.50  5.8999E-002  
  532.00  5.9425E-002  
  532.50  5.9964E-002  
  533.00  6.0560E-002  
  533.50  6.1223E-002  
  534.00  6.1599E-002  
  534.50  6.1950E-002  
  535.00  6.2257E-002  
  535.50  6.2606E-002  
  536.00  6.2984E-002  
  536.50  6.3312E-002  
  537.00  6.3697E-002  
  537.50  6.4121E-002  
  538.00  6.4572E-002  
  538.50  6.4928E-002  
  539.00  6.5313E-002  
  539.50  6.5658E-002  
  540.00  6.6022E-002  
  540.50  6.6409E-002  
  541.00  6.6762E-002  
  541.50  6.7138E-002  
  542.00  6.7561E-002  
  542.50  6.7939E-002  
  543.00  6.8364E-002  
  543.50  6.8756E-002  
  544.00  6.9159E-002  
  544.50  6.9551E-002  
  545.00  6.9832E-002  
  545.50  7.0159E-002  
  546.00  7.0377E-002  
  546.50  7.0697E-002  
  547.00  7.0951E-002  
  547.50  7.1302E-002  
  548.00  7.1684E-002  
  548.50  7.2105E-002  
  549.00  7.2481E-002  
  549.50  7.2715E-002  
  550.00  7.2922E-002  
  550.50  7.3229E-002  
  551.00  7.3547E-002  
  551.50  7.3860E-002  
  552.00  7.4147E-002  
  552.50  7.4406E-002  
  553.00  7.4825E-002  
  553.50  7.5239E-002  
  554.00  7.5689E-002  
  554.50  7.6019E-002  
  555.00  7.6208E-002  
  555.50  7.6326E-002  
  556.00  7.6569E-002  
  556.50  7.6888E-002  
  557.00  7.7232E-002  
  557.50  7.7668E-002  
  558.00  7.8009E-002  
  558.50  7.8432E-002  
  559.00  7.8773E-002  
  559.50  7.9057E-002  
  560.00  7.9322E-002  
  560.50  7.9473E-002  
  561.00  7.9629E-002  
  561.50  7.9858E-002  
  562.00  8.0197E-002  
  562.50  8.0558E-002  
  563.00  8.0687E-002  
  563.50  8.0830E-002  
  564.00  8.0948E-002  
  564.50  8.1215E-002  
  565.00  8.1561E-002  
  565.50  8.1930E-002  
  566.00  8.2258E-002  
  566.50  8.2535E-002  
  567.00  8.2725E-002  
  567.50  8.3013E-002  
  568.00  8.3241E-002  
  568.50  8.3431E-002  
  569.00  8.3624E-002  
  569.50  8.3879E-002  
  570.00  8.4151E-002  
  570.50  8.4308E-002  
  571.00  8.4391E-002  
  571.50  8.4432E-002  
  572.00  8.4564E-002  
  572.50  8.4728E-002  
  573.00  8.5027E-002  
  573.50  8.5318E-002  
  574.00  8.5563E-002  
  574.50  8.5762E-002  
  575.00  8.6074E-002  
  575.50  8.6427E-002  
  576.00  8.6765E-002  
  576.50  8.6853E-002  
  577.00  8.6943E-002  
  577.50  8.7106E-002  
  578.00  8.7416E-002  
  578.50  8.7789E-002  
  579.00  8.8107E-002  
  579.50  8.8353E-002  
  580.00  8.8526E-002  
  580.50  8.8673E-002  
  581.00  8.8920E-002  
  581.50  8.9088E-002  
  582.00  8.9270E-002  
  582.50  8.9378E-002  
  583.00  8.9558E-002  
  583.50  8.9814E-002  
  584.00  8.9959E-002  
  584.50  9.0123E-002  
  585.00  9.0179E-002  
  585.50  9.0329E-002  
  586.00  9.0486E-002  
  586.50  9.0688E-002  
  587.00  9.0893E-002  
  587.50  9.0994E-002  
  588.00  9.1098E-002  
  588.50  9.1297E-002  
  589.00  9.1486E-002  
  589.50  9.1635E-002  
  590.00  9.1756E-002  
  590.50  9.1963E-002  
  591.00  9.2207E-002  
  591.50  9.2376E-002  
  592.00  9.2354E-002  
  592.50  9.2443E-002  
  593.00  9.2533E-002  
  593.50  9.2685E-002  
  594.00  9.2868E-002  
  594.50  9.2879E-002  
  595.00  9.2990E-002  
  595.50  9.2892E-002  
  596.00  9.2941E-002  
  596.50  9.3105E-002  
  597.00  9.3418E-002  
  597.50  9.3693E-002  
  598.00  9.3802E-002  
  598.50  9.3844E-002  
  599.00  9.3856E-002  
  599.50  9.3839E-002  
  600.00  9.3789E-002  
  600.50  9.3872E-002  
  601.00  9.4153E-002  
  601.50  9.4391E-002  
  602.00  9.4494E-002  
  602.50  9.4535E-002  
  603.00  9.4497E-002  
  603.50  9.4585E-002  
  604.00  9.4525E-002  
  604.50  9.4586E-002  
  605.00  9.4594E-002  
  605.50  9.4660E-002  
  606.00  9.4764E-002  
  606.50  9.4843E-002  
  607.00  9.4890E-002  
  607.50  9.4790E-002  
  608.00  9.4619E-002  
  608.50  9.4619E-002  
  609.00  9.4753E-002  
  609.50  9.4980E-002  
  610.00  9.5037E-002  
  610.50  9.4915E-002  
  611.00  9.4903E-002  
  611.50  9.4826E-002  
  612.00  9.4917E-002  
  612.50  9.4931E-002  
  613.00  9.4983E-002  
  613.50  9.4951E-002  
  614.00  9.4833E-002  
  614.50  9.4702E-002  
  615.00  9.4610E-002  
  615.50  9.4604E-002  
  616.00  9.4565E-002  
  616.50  9.4485E-002  
  617.00  9.4270E-002  
  617.50  9.4165E-002  
  618.00  9.4058E-002  
  618.50  9.3951E-002  
  619.00  9.3714E-002  
  619.50  9.3466E-002  
  620.00  9.3272E-002  
  620.50  9.3173E-002  
  621.00  9.3180E-002  
  621.50  9.3031E-002  
  622.00  9.2888E-002  
  622.50  9.2652E-002  
  623.00  9.2694E-002  
  623.50  9.2700E-002  
  624.00  9.2616E-002  
  624.50  9.2254E-002  
  625.00  9.1992E-002  
  625.50  9.1852E-002  
  626.00  9.1866E-002  
  626.50  9.1704E-002  
  627.00  9.1486E-002  
  627.50  9.1244E-002  
  628.00  9.0993E-002  
  628.50  9.0779E-002  
  629.00  9.0625E-002  
  629.50  9.0528E-002  
  630.00  9.0375E-002  
  630.50  9.0130E-002  
  631.00  8.9787E-002  
  631.50  8.9447E-002  
  632.00  8.9089E-002  
  632.50  8.8793E-002  
  633.00  8.8526E-002  
  633.50  8.8279E-002  
  634.00  8.8018E-002  
  634.50  8.7884E-002  
  635.00  8.7675E-002  
  635.50  8.7381E-002  
  636.00  8.6966E-002  
  636.50  8.6639E-002  
  637.00  8.6400E-002  
  637.50  8.6160E-002  
  638.00  8.5735E-002  
  638.50  8.5207E-002  
  639.00  8.4679E-002  
  639.50  8.4363E-002  
  640.00  8.4210E-002  
  640.50  8.3982E-002  
  641.00  8.3650E-002  
  641.50  8.3299E-002  
  642.00  8.2871E-002  
  642.50  8.2455E-002  
  643.00  8.1888E-002  
  643.50  8.1374E-002  
  644.00  8.0999E-002  
  644.50  8.0702E-002  
  645.00  8.0364E-002  
  645.50  7.9822E-002  
  646.00  7.9433E-002  
  646.50  7.9047E-002  
  647.00  7.8759E-002  
  647.50  7.8327E-002  
  648.00  7.7840E-002  
  648.50  7.7358E-002  
  649.00  7.6861E-002  
  649.50  7.6366E-002  
  650.00  7.5841E-002  
  650.50  7.5338E-002  
  651.00  7.4892E-002  
  651.50  7.4441E-002  
  652.00  7.4027E-002  
  652.50  7.3669E-002  
  653.00  7.3232E-002  
  653.50  7.2697E-002  
  654.00  7.2272E-002  
  654.50  7.1814E-002  
  655.00  7.1331E-002  
  655.50  7.0834E-002  
  656.00  7.0390E-002  
  656.50  6.9823E-002  
  657.00  6.9054E-002  
  657.50  6.8430E-002  
  658.00  6.7912E-002  
  658.50  6.7616E-002  
  659.00  6.7133E-002  
  659.50  6.6674E-002  
  660.00  6.6069E-002  
  660.50  6.5531E-002  
  661.00  6.4950E-002  
  661.50  6.4435E-002  
  662.00  6.3869E-002  
  662.50  6.3420E-002  
  663.00  6.2934E-002  
  663.50  6.2520E-002  
  664.00  6.2000E-002  
  664.50  6.1413E-002  
  665.00  6.0820E-002  
  665.50  6.0339E-002  
  666.00  5.9741E-002  
  666.50  5.9188E-002  
  667.00  5.8585E-002  
  667.50  5.8212E-002  
  668.00  5.7710E-002  
  668.50  5.7191E-002  
  669.00  5.6508E-002  
  669.50  5.5783E-002  
  670.00  5.5149E-002  
  670.50  5.4755E-002  
  671.00  5.4414E-002  
  671.50  5.3870E-002  
  672.00  5.3306E-002  
  672.50  5.2875E-002  
  673.00  5.2429E-002  
  673.50  5.1789E-002  
  674.00  5.1113E-002  
  674.50  5.0735E-002  
  675.00  5.0330E-002  
  675.50  4.9822E-002  
  676.00  4.9259E-002  
  676.50  4.8845E-002  
  677.00  4.8432E-002  
  677.50  4.7860E-002  
  678.00  4.7315E-002  
  678.50  4.6838E-002  
  679.00  4.6326E-002  
  679.50  4.5764E-002  
  680.00  4.5277E-002  
  680.50  4.4855E-002  
  681.00  4.4344E-002  
  681.50  4.3855E-002  
  682.00  4.3467E-002  
  682.50  4.3114E-002  
  683.00  4.2727E-002  
  683.50  4.2241E-002  
  684.00  4.1742E-002  
  684.50  4.1160E-002  
  685.00  4.0615E-002  
  685.50  4.0189E-002  
  686.00  3.9751E-002  
  686.50  3.9265E-002  
  687.00  3.8859E-002  
  687.50  3.8525E-002  
  688.00  3.8075E-002  
  688.50  3.7513E-002  
  689.00  3.6938E-002  
  689.50  3.6555E-002  
  690.00  3.6234E-002  
  690.50  3.5883E-002  
  691.00  3.5467E-002  
  691.50  3.5048E-002  
  692.00  3.4610E-002  
  692.50  3.4195E-002  
  693.00  3.3721E-002  
  693.50  3.3286E-002  
  694.00  3.2943E-002  
  694.50  3.2572E-002  
  695.00  3.2171E-002  
  695.50  3.1657E-002  
  696.00  3.1216E-002  
  696.50  3.0971E-002  
  697.00  3.0768E-002  
  697.50  3.0520E-002  
  698.00  3.0142E-002  
  698.50  2.9789E-002  
  699.00  2.9416E-002  
  699.50  2.8887E-002  
  700.00  2.8353E-002  
  700.50  2.7904E-002  
  701.00  2.7665E-002  
  701.50  2.7429E-002  
  702.00  2.7091E-002  
  702.50  2.6724E-002  
  703.00  2.6409E-002  
  703.50  2.6248E-002  
  704.00  2.5928E-002  
  704.50  2.5505E-002  
  705.00  2.4980E-002  
  705.50  2.4540E-002  
  706.00  2.4218E-002  
  706.50  2.3975E-002  
  707.00  2.3757E-002  
  707.50  2.3517E-002  
  708.00  2.3152E-002  
  708.50  2.2777E-002  
  709.00  2.2389E-002  
  709.50  2.2082E-002  
  710.00  2.1733E-002  
  710.50  2.1438E-002  
  711.00  2.1218E-002  
  711.50  2.0939E-002  
  712.00  2.0555E-002  
  712.50  2.0260E-002  
  713.00  2.0066E-002  
  713.50  1.9863E-002  
  714.00  1.9528E-002  
  714.50  1.9133E-002  
  715.00  1.8755E-002  
  715.50  1.8572E-002  
  716.00  1.8507E-002  
  716.50  1.8325E-002  
  717.00  1.7952E-002  
  717.50  1.7624E-002  
  718.00  1.7400E-002  
  718.50  1.7232E-002  
  719.00  1.7044E-002  
  719.50  1.6840E-002  
  720.00  1.6472E-002  
  720.50  1.6091E-002  
  721.00  1.5890E-002  
  721.50  1.5642E-002  
  722.00  1.5425E-002  
  722.50  1.5192E-002  
  723.00  1.5026E-002  
  723.50  1.4794E-002  
  724.00  1.4590E-002  
  724.50  1.4454E-002  
  725.00  1.4315E-002  
  725.50  1.4067E-002  
  726.00  1.3777E-002  
  726.50  1.3603E-002  
  727.00  1.3352E-002  
  727.50  1.3130E-002  
  728.00  1.2842E-002  
  728.50  1.2737E-002  
  729.00  1.2547E-002  
  729.50  1.2364E-002  
  730.00  1.2119E-002  
  730.50  1.1919E-002  
  731.00  1.1828E-002  
  731.50  1.1747E-002  
  732.00  1.1609E-002  
  732.50  1.1481E-002  
  733.00  1.1375E-002  
  733.50  1.1279E-002  
  734.00  1.1095E-002  
  734.50  1.0891E-002  
  735.00  1.0606E-002  
  735.50  1.0453E-002  
  736.00  1.0251E-002  
  736.50  1.0087E-002  
  737.00  9.8491E-003  
  737.50  9.7216E-003  
  738.00  9.5492E-003  
  738.50  9.3359E-003  
  739.00  9.1713E-003  
  739.50  9.0634E-003  
  740.00  9.0037E-003  
  740.50  8.9833E-003  
  741.00  8.8278E-003  
  741.50  8.6139E-003  
  742.00  8.4525E-003  
  742.50  8.4391E-003  
  743.00  8.3459E-003  
  743.50  8.2293E-003  
  744.00  8.1134E-003  
  744.50  7.9626E-003  
  745.00  7.7976E-003  
  745.50  7.7129E-003  
  746.00  7.5338E-003  
  746.50  7.3021E-003  
  747.00  7.0481E-003  
  747.50  7.0251E-003  
  748.00  7.0884E-003  
  748.50  7.0718E-003  
  749.00  6.8290E-003  
  749.50  6.5291E-003  
  750.00  6.4476E-003  
  750.50  6.6217E-003  
  751.00  6.7970E-003  
  751.50  6.7138E-003  
  752.00  6.4822E-003  
  752.50  6.2699E-003  
  753.00  5.9923E-003  
  753.50  5.8142E-003  
  754.00  5.6401E-003  
  754.50  5.6295E-003  
  755.00  5.4599E-003  
  755.50  5.3757E-003  
  756.00  5.2741E-003  
  756.50  5.2783E-003  
  757.00  5.2708E-003  
  757.50  5.1911E-003  
  758.00  5.0725E-003  
  758.50  4.9259E-003  
  759.00  4.8558E-003  
  759.50  4.7175E-003  
  760.00  4.5417E-003  
  760.50  4.4079E-003  
  761.00  4.3517E-003  
  761.50  4.2638E-003  
  762.00  4.2364E-003  
  762.50  4.2645E-003  
  763.00  4.1722E-003  
  763.50  3.9277E-003  
  764.00  3.6250E-003  
  764.50  3.6169E-003  
  765.00  3.5468E-003  
  765.50  3.4538E-003  
  766.00  3.3300E-003  
  766.50  3.4180E-003  
  767.00  3.5618E-003  
  767.50  3.6030E-003  
  768.00  3.4880E-003  
  768.50  3.4824E-003  
  769.00  3.4171E-003  
  769.50  3.2878E-003  
  770.00  3.1074E-003  
  770.50  2.9859E-003  
  771.00  2.8761E-003  
  771.50  2.8148E-003  
  772.00  2.7575E-003  
  772.50  2.6315E-003  
  773.00  2.4275E-003  
  773.50  2.4424E-003  
  774.00  2.4836E-003  
  774.50  2.5637E-003  
  775.00  2.5113E-003  
  775.50  2.5560E-003  
  776.00  2.5934E-003  
  776.50  2.3892E-003  
  777.00  2.1043E-003  
  777.50  1.9433E-003  
  778.00  1.9966E-003  
  778.50  2.1386E-003  
  779.00  2.1573E-003  
  779.50  1.9863E-003  
  780.00  1.8214E-003  
  780.50  1.8362E-003  
  781.00  1.9270E-003  
  781.50  1.8972E-003  
  782.00  1.9197E-003  
  782.50  1.9004E-003  
  783.00  2.0887E-003  
  783.50  1.9462E-003  
  784.00  1.6795E-003  
  784.50  1.3789E-003  
  785.00  1.3643E-003  
  785.50  1.5949E-003  
  786.00  1.7070E-003  
  786.50  1.4660E-003  
  787.00  9.9743E-004  
  787.50  9.3924E-004  
  788.00  1.0764E-003  
  788.50  9.8688E-004  
  789.00  9.2012E-004  
  789.50  1.0343E-003  
  790.00  1.1314E-003  
  790.50  1.0173E-003  
  791.00  7.9923E-004  
  791.50  7.5317E-004  
  792.00  5.4481E-004  
  792.50  3.9599E-004  
  793.00  6.1362E-004  
  793.50  9.2873E-004  
  794.00  9.4361E-004  
  794.50  8.0121E-004  
  795.00  7.3896E-004  
  795.50  7.2176E-004  
  796.00  8.1665E-004  
  796.50  7.8811E-004  
  797.00  6.7497E-004  
  797.50  5.7150E-004  
  798.00  5.5492E-004  
  798.50  5.0853E-004  
  799.00  3.3525E-004  
  799.50  4.1452E-004  
  800.00  6.5747E-004  
  800.50  7.9004E-004  
  801.00  8.5616E-004  
  801.50  8.5232E-004  
  802.00  4.4306E-004  
  802.50  3.1432E-004  
  803.00  4.1904E-004  
  803.50  3.3986E-004  
  804.00  1.3756E-004  
  804.50  6.2228E-005  
  805.00  2.6503E-004  
  805.50  1.5383E-004  
  806.00  0.0000E+000  
  806.50  0.0000E+000  
  807.00  0.0000E+000  
  807.50  0.0000E+000  
  808.00  7.2704E-006  
  808.50  4.9169E-005  
  809.00  8.0192E-005  
  809.50  0.0000E+000  
  810.00  0.0000E+000  
  810.50  0.0000E+000  
  811.00  0.0000E+000  
  811.50  0.0000E+000  
  812.00  0.0000E+000  
  812.50  0.0000E+000  
  813.00  0.0000E+000  
  813.50  0.0000E+000  
  814.00  0.0000E+000  
  814.50  0.0000E+000  
  815.00  1.5007E-005  
  815.50  7.8244E-005  
  816.00  0.0000E+000  
  816.50  0.0000E+000  
  817.00  0.0000E+000  
  817.50  0.0000E+000  
  818.00  0.0000E+000  
  818.50  0.0000E+000  
  819.00  0.0000E+000  
  819.50  0.0000E+000  
  820.00  0.0000E+000  
  820.50  0.0000E+000  
  821.00  0.0000E+000  
  821.50  0.0000E+000  
  822.00  0.0000E+000  
  822.50  0.0000E+000  
  823.00  0.0000E+000  
  823.50  0.0000E+000  
  824.00  0.0000E+000  
  824.50  0.0000E+000  
  825.00  0.0000E+000  
  825.50  0.0000E+000  
  826.00  0.0000E+000  
  826.50  0.0000E+000  
  827.00  0.0000E+000  
  827.50  0.0000E+000  
  828.00  0.0000E+000  
  828.50  0.0000E+000  
  829.00  0.0000E+000  
  829.50  0.0000E+000  
  830.00  0.0000E+000  
  830.50  0.0000E+000  
  831.00  0.0000E+000  
  831.50  0.0000E+000  
  832.00  0.0000E+000  
  832.50  0.0000E+000  
  833.00  0.0000E+000  
  833.50  0.0000E+000  
  834.00  0.0000E+000  
  834.50  0.0000E+000  
  835.00  0.0000E+000  
  835.50  0.0000E+000  
  836.00  0.0000E+000  
  836.50  0.0000E+000  
  837.00  0.0000E+000  
  837.50  0.0000E+000  
  838.00  0.0000E+000  
  838.50  0.0000E+000  
  839.00  0.0000E+000  
  839.50  0.0000E+000  
  840.00  0.0000E+000  
  840.50  0.0000E+000  
  841.00  0.0000E+000  
  841.50  0.0000E+000  
  842.00  0.0000E+000  
  842.50  0.0000E+000  
  843.00  0.0000E+000  
  843.50  0.0000E+000  
  844.00  0.0000E+000  
  844.50  0.0000E+000  
  845.00  0.0000E+000  
  845.50  0.0000E+000  
  846.00  0.0000E+000  
  846.50  0.0000E+000  
  847.00  0.0000E+000  
  847.50  0.0000E+000  
  848.00  0.0000E+000  
  848.50  0.0000E+000  
  849.00  0.0000E+000  
  849.50  0.0000E+000  
  850.00  0.0000E+000  
  850.50  0.0000E+000  
  851.00  0.0000E+000  
  851.50  0.0000E+000  
  852.00  0.0000E+000  
  852.50  0.0000E+000  
  853.00  0.0000E+000  
  853.50  0.0000E+000  
  854.00  0.0000E+000  
  854.50  0.0000E+000  
  855.00  0.0000E+000  
  855.50  0.0000E+000  
  856.00  0.0000E+000  
  856.50  0.0000E+000  
  857.00  0.0000E+000  
  857.50  0.0000E+000  
  858.00  0.0000E+000  
  858.50  0.0000E+000  
  859.00  0.0000E+000  
  859.50  0.0000E+000  
  860.00  0.0000E+000  
  860.50  0.0000E+000  
  861.00  0.0000E+000  
  861.50  0.0000E+000  
  862.00  0.0000E+000  
  862.50  0.0000E+000  
  863.00  0.0000E+000  
  863.50  0.0000E+000  
  864.00  0.0000E+000  
  864.50  0.0000E+000  
  865.00  0.0000E+000  
  865.50  0.0000E+000  
  866.00  0.0000E+000  
  866.50  0.0000E+000  
  867.00  0.0000E+000  
  867.50  0.0000E+000  
  868.00  0.0000E+000  
  868.50  0.0000E+000  
  869.00  0.0000E+000  
  869.50  0.0000E+000  
  870.00  0.0000E+000  
  870.50  0.0000E+000  
  871.00  0.0000E+000  
  871.50  0.0000E+000  
  872.00  0.0000E+000  
  872.50  0.0000E+000  
  873.00  0.0000E+000  
  873.50  0.0000E+000  
  874.00  0.0000E+000  
  874.50  0.0000E+000  
  875.00  0.0000E+000  
  875.50  0.0000E+000  
  876.00  0.0000E+000  
  876.50  0.0000E+000  
  877.00  0.0000E+000  
  877.50  0.0000E+000  
  878.00  0.0000E+000  
  878.50  0.0000E+000  
  879.00  0.0000E+000  
  879.50  0.0000E+000  
  880.00  0.0000E+000  
  880.50  0.0000E+000  
  881.00  0.0000E+000  
  881.50  0.0000E+000  
  882.00  0.0000E+000  
  882.50  0.0000E+000  
  883.00  0.0000E+000  
  883.50  0.0000E+000  
  884.00  0.0000E+000  
  884.50  0.0000E+000  
  885.00  0.0000E+000  
  885.50  0.0000E+000  
  886.00  0.0000E+000  
  886.50  0.0000E+000  
  887.00  0.0000E+000  
  887.50  0.0000E+000  
  888.00  0.0000E+000  
  888.50  0.0000E+000  
  889.00  0.0000E+000  
  889.50  0.0000E+000  
  890.00  0.0000E+000  
  890.50  0.0000E+000  
  891.00  0.0000E+000  
  891.50  0.0000E+000  
  892.00  0.0000E+000  
  892.50  0.0000E+000  
  893.00  0.0000E+000  
  893.50  0.0000E+000  
  894.00  0.0000E+000  
  894.50  0.0000E+000  
  895.00  0.0000E+000  
  895.50  0.0000E+000  
  896.00  0.0000E+000  
  896.50  0.0000E+000  
  897.00  0.0000E+000  
  897.50  0.0000E+000  
  898.00  0.0000E+000  
  898.50  0.0000E+000  
  899.00  0.0000E+000  
  899.50  0.0000E+000  
