
# From lspdd.org
# 
# Name: LFC Globe BR38 Domestique
# Indice spectral Valeur 
# MSI 0.27 
# SLI 0.45 
# IPI 0.56 
# Pourcentage de bleu 14.0 
# Caractéristique Valeur 
# CCT calculée (K) 2726 
# CCT du fabricant (K) 2700 
# Tension (V) 120 
# Puissance (W) 23.0 
# Efficacité lumineuse (Lum/W) 52.1 
#
# Image: '/app/system/img_1s/2518/medium_image1.JPG?1413486063'
# 

  273.00  0.0000E+000  
  273.50  0.0000E+000  
  274.00  0.0000E+000  
  274.50  0.0000E+000  
  275.00  0.0000E+000  
  275.50  0.0000E+000  
  276.00  0.0000E+000  
  276.50  0.0000E+000  
  277.00  0.0000E+000  
  277.50  0.0000E+000  
  278.00  0.0000E+000  
  278.50  0.0000E+000  
  279.00  0.0000E+000  
  279.50  0.0000E+000  
  280.00  0.0000E+000  
  280.50  0.0000E+000  
  281.00  0.0000E+000  
  281.50  0.0000E+000  
  282.00  0.0000E+000  
  282.50  0.0000E+000  
  283.00  0.0000E+000  
  283.50  0.0000E+000  
  284.00  0.0000E+000  
  284.50  0.0000E+000  
  285.00  0.0000E+000  
  285.50  0.0000E+000  
  286.00  0.0000E+000  
  286.50  0.0000E+000  
  287.00  0.0000E+000  
  287.50  0.0000E+000  
  288.00  0.0000E+000  
  288.50  0.0000E+000  
  289.00  0.0000E+000  
  289.50  0.0000E+000  
  290.00  0.0000E+000  
  290.50  0.0000E+000  
  291.00  0.0000E+000  
  291.50  0.0000E+000  
  292.00  0.0000E+000  
  292.50  0.0000E+000  
  293.00  0.0000E+000  
  293.50  0.0000E+000  
  294.00  0.0000E+000  
  294.50  0.0000E+000  
  295.00  0.0000E+000  
  295.50  0.0000E+000  
  296.00  0.0000E+000  
  296.50  0.0000E+000  
  297.00  0.0000E+000  
  297.50  0.0000E+000  
  298.00  0.0000E+000  
  298.50  0.0000E+000  
  299.00  0.0000E+000  
  299.50  0.0000E+000  
  300.00  0.0000E+000  
  300.50  0.0000E+000  
  301.00  0.0000E+000  
  301.50  0.0000E+000  
  302.00  0.0000E+000  
  302.50  0.0000E+000  
  303.00  0.0000E+000  
  303.50  0.0000E+000  
  304.00  0.0000E+000  
  304.50  0.0000E+000  
  305.00  0.0000E+000  
  305.50  0.0000E+000  
  306.00  0.0000E+000  
  306.50  0.0000E+000  
  307.00  1.4882E-006  
  307.50  1.7334E-007  
  308.00  1.5346E-006  
  308.50  1.4815E-005  
  309.00  2.6159E-005  
  309.50  3.8518E-005  
  310.00  3.6490E-005  
  310.50  7.5304E-006  
  311.00  0.0000E+000  
  311.50  0.0000E+000  
  312.00  0.0000E+000  
  312.50  0.0000E+000  
  313.00  0.0000E+000  
  313.50  0.0000E+000  
  314.00  0.0000E+000  
  314.50  0.0000E+000  
  315.00  0.0000E+000  
  315.50  0.0000E+000  
  316.00  0.0000E+000  
  316.50  0.0000E+000  
  317.00  0.0000E+000  
  317.50  0.0000E+000  
  318.00  0.0000E+000  
  318.50  0.0000E+000  
  319.00  0.0000E+000  
  319.50  0.0000E+000  
  320.00  0.0000E+000  
  320.50  0.0000E+000  
  321.00  0.0000E+000  
  321.50  0.0000E+000  
  322.00  0.0000E+000  
  322.50  0.0000E+000  
  323.00  6.9966E-006  
  323.50  3.1419E-005  
  324.00  3.2259E-005  
  324.50  1.1296E-005  
  325.00  3.7729E-007  
  325.50  0.0000E+000  
  326.00  0.0000E+000  
  326.50  0.0000E+000  
  327.00  0.0000E+000  
  327.50  0.0000E+000  
  328.00  4.0084E-006  
  328.50  1.4283E-005  
  329.00  0.0000E+000  
  329.50  0.0000E+000  
  330.00  0.0000E+000  
  330.50  0.0000E+000  
  331.00  0.0000E+000  
  331.50  0.0000E+000  
  332.00  0.0000E+000  
  332.50  0.0000E+000  
  333.00  0.0000E+000  
  333.50  0.0000E+000  
  334.00  1.0233E-006  
  334.50  1.2547E-005  
  335.00  2.4012E-005  
  335.50  1.6691E-005  
  336.00  5.8831E-006  
  336.50  0.0000E+000  
  337.00  0.0000E+000  
  337.50  0.0000E+000  
  338.00  0.0000E+000  
  338.50  0.0000E+000  
  339.00  0.0000E+000  
  339.50  0.0000E+000  
  340.00  0.0000E+000  
  340.50  0.0000E+000  
  341.00  0.0000E+000  
  341.50  0.0000E+000  
  342.00  0.0000E+000  
  342.50  0.0000E+000  
  343.00  0.0000E+000  
  343.50  0.0000E+000  
  344.00  0.0000E+000  
  344.50  0.0000E+000  
  345.00  5.8369E-006  
  345.50  5.4992E-005  
  346.00  6.0504E-005  
  346.50  7.3109E-005  
  347.00  6.0465E-005  
  347.50  3.6284E-005  
  348.00  3.9047E-005  
  348.50  3.7944E-005  
  349.00  4.1370E-005  
  349.50  4.1350E-005  
  350.00  3.6381E-005  
  350.50  2.9080E-005  
  351.00  1.1183E-005  
  351.50  2.5553E-005  
  352.00  1.0110E-005  
  352.50  2.1799E-005  
  353.00  1.7482E-005  
  353.50  6.1251E-006  
  354.00  3.7613E-005  
  354.50  4.4181E-005  
  355.00  6.8603E-005  
  355.50  1.0092E-004  
  356.00  1.0834E-004  
  356.50  9.6158E-005  
  357.00  6.2513E-005  
  357.50  3.1051E-005  
  358.00  3.8126E-005  
  358.50  7.9548E-005  
  359.00  1.1098E-004  
  359.50  1.2191E-004  
  360.00  9.2087E-005  
  360.50  6.7953E-005  
  361.00  7.4517E-005  
  361.50  8.1392E-005  
  362.00  1.0527E-004  
  362.50  1.2707E-004  
  363.00  2.3473E-004  
  363.50  6.1955E-004  
  364.00  1.2923E-003  
  364.50  2.0050E-003  
  365.00  2.4320E-003  
  365.50  2.3498E-003  
  366.00  1.7846E-003  
  366.50  1.1703E-003  
  367.00  6.6438E-004  
  367.50  3.4816E-004  
  368.00  1.7491E-004  
  368.50  1.0049E-004  
  369.00  7.3305E-005  
  369.50  6.3922E-005  
  370.00  6.7254E-005  
  370.50  7.3592E-005  
  371.00  9.9556E-005  
  371.50  1.0441E-004  
  372.00  1.0494E-004  
  372.50  8.1147E-005  
  373.00  7.3620E-005  
  373.50  6.3828E-005  
  374.00  5.3885E-005  
  374.50  6.0237E-005  
  375.00  4.6447E-005  
  375.50  5.9408E-005  
  376.00  6.5115E-005  
  376.50  7.3132E-005  
  377.00  6.6668E-005  
  377.50  4.2078E-005  
  378.00  3.6891E-005  
  378.50  3.6848E-005  
  379.00  5.3969E-005  
  379.50  6.7947E-005  
  380.00  9.1346E-005  
  380.50  1.3062E-004  
  381.00  1.5102E-004  
  381.50  1.5284E-004  
  382.00  1.3519E-004  
  382.50  1.0678E-004  
  383.00  1.0692E-004  
  383.50  1.0622E-004  
  384.00  9.5342E-005  
  384.50  7.4609E-005  
  385.00  2.6081E-005  
  385.50  1.3950E-005  
  386.00  3.6038E-005  
  386.50  5.6718E-005  
  387.00  8.7995E-005  
  387.50  8.7733E-005  
  388.00  9.1822E-005  
  388.50  9.8747E-005  
  389.00  8.9090E-005  
  389.50  8.7924E-005  
  390.00  7.4723E-005  
  390.50  9.2279E-005  
  391.00  1.0001E-004  
  391.50  8.0260E-005  
  392.00  5.3753E-005  
  392.50  2.5445E-005  
  393.00  2.7279E-005  
  393.50  3.6265E-005  
  394.00  5.5761E-005  
  394.50  5.4632E-005  
  395.00  7.0139E-005  
  395.50  8.5268E-005  
  396.00  9.5789E-005  
  396.50  1.0995E-004  
  397.00  1.1700E-004  
  397.50  1.2637E-004  
  398.00  1.1645E-004  
  398.50  1.1397E-004  
  399.00  1.0940E-004  
  399.50  1.4144E-004  
  400.00  1.6821E-004  
  400.50  1.7843E-004  
  401.00  1.7856E-004  
  401.50  1.8458E-004  
  402.00  2.2167E-004  
  402.50  4.7978E-004  
  403.00  1.6179E-003  
  403.50  3.7128E-003  
  404.00  5.9733E-003  
  404.50  7.0106E-003  
  405.00  6.2944E-003  
  405.50  4.1809E-003  
  406.00  2.2070E-003  
  406.50  1.1516E-003  
  407.00  8.9033E-004  
  407.50  8.5008E-004  
  408.00  7.4142E-004  
  408.50  5.4606E-004  
  409.00  3.6954E-004  
  409.50  2.5979E-004  
  410.00  2.2206E-004  
  410.50  1.9974E-004  
  411.00  1.9251E-004  
  411.50  2.0026E-004  
  412.00  2.1459E-004  
  412.50  1.9850E-004  
  413.00  2.0238E-004  
  413.50  1.9677E-004  
  414.00  1.9609E-004  
  414.50  1.9312E-004  
  415.00  1.8450E-004  
  415.50  1.9227E-004  
  416.00  1.9812E-004  
  416.50  1.9768E-004  
  417.00  1.8254E-004  
  417.50  1.8656E-004  
  418.00  2.1285E-004  
  418.50  2.2856E-004  
  419.00  2.5379E-004  
  419.50  2.4992E-004  
  420.00  2.3922E-004  
  420.50  2.1905E-004  
  421.00  2.0788E-004  
  421.50  1.9829E-004  
  422.00  2.0133E-004  
  422.50  2.0132E-004  
  423.00  1.9658E-004  
  423.50  2.2094E-004  
  424.00  2.2153E-004  
  424.50  2.3300E-004  
  425.00  2.7367E-004  
  425.50  2.8583E-004  
  426.00  3.1566E-004  
  426.50  3.1734E-004  
  427.00  3.0599E-004  
  427.50  3.1370E-004  
  428.00  3.0048E-004  
  428.50  2.8920E-004  
  429.00  2.9526E-004  
  429.50  3.2066E-004  
  430.00  3.6403E-004  
  430.50  4.0380E-004  
  431.00  3.9456E-004  
  431.50  3.9492E-004  
  432.00  4.3778E-004  
  432.50  4.9216E-004  
  433.00  6.0619E-004  
  433.50  1.0760E-003  
  434.00  3.0444E-003  
  434.50  8.1754E-003  
  435.00  1.4979E-002  
  435.50  1.9745E-002  
  436.00  1.8912E-002  
  436.50  1.3650E-002  
  437.00  7.2621E-003  
  437.50  3.0116E-003  
  438.00  1.2876E-003  
  438.50  7.6621E-004  
  439.00  5.8971E-004  
  439.50  5.2055E-004  
  440.00  4.7474E-004  
  440.50  4.6268E-004  
  441.00  4.4835E-004  
  441.50  4.4575E-004  
  442.00  4.4054E-004  
  442.50  4.1808E-004  
  443.00  4.0272E-004  
  443.50  3.8241E-004  
  444.00  3.7811E-004  
  444.50  3.9616E-004  
  445.00  3.9620E-004  
  445.50  3.9222E-004  
  446.00  3.7859E-004  
  446.50  3.6875E-004  
  447.00  3.7640E-004  
  447.50  3.6449E-004  
  448.00  3.4322E-004  
  448.50  2.9587E-004  
  449.00  2.6985E-004  
  449.50  2.8253E-004  
  450.00  3.0738E-004  
  450.50  3.3830E-004  
  451.00  3.2463E-004  
  451.50  3.0838E-004  
  452.00  2.9994E-004  
  452.50  3.0014E-004  
  453.00  2.9734E-004  
  453.50  2.7724E-004  
  454.00  2.7440E-004  
  454.50  2.8995E-004  
  455.00  3.1390E-004  
  455.50  3.3392E-004  
  456.00  3.3650E-004  
  456.50  3.4339E-004  
  457.00  3.2161E-004  
  457.50  3.0234E-004  
  458.00  2.9952E-004  
  458.50  2.9729E-004  
  459.00  3.0208E-004  
  459.50  3.0298E-004  
  460.00  2.9528E-004  
  460.50  2.9423E-004  
  461.00  2.9347E-004  
  461.50  2.9174E-004  
  462.00  2.7650E-004  
  462.50  2.7645E-004  
  463.00  2.7105E-004  
  463.50  2.6024E-004  
  464.00  2.7787E-004  
  464.50  2.8703E-004  
  465.00  3.0671E-004  
  465.50  3.1210E-004  
  466.00  3.0768E-004  
  466.50  2.9042E-004  
  467.00  2.6802E-004  
  467.50  2.4633E-004  
  468.00  2.5504E-004  
  468.50  2.6551E-004  
  469.00  3.0596E-004  
  469.50  3.1391E-004  
  470.00  3.0423E-004  
  470.50  2.8183E-004  
  471.00  2.5969E-004  
  471.50  2.6514E-004  
  472.00  2.7931E-004  
  472.50  2.7912E-004  
  473.00  2.6713E-004  
  473.50  2.6396E-004  
  474.00  2.7955E-004  
  474.50  2.9082E-004  
  475.00  3.0667E-004  
  475.50  2.9466E-004  
  476.00  2.9201E-004  
  476.50  2.9486E-004  
  477.00  2.8678E-004  
  477.50  2.9142E-004  
  478.00  3.2227E-004  
  478.50  3.5625E-004  
  479.00  4.0334E-004  
  479.50  4.6996E-004  
  480.00  5.4484E-004  
  480.50  6.3548E-004  
  481.00  7.2643E-004  
  481.50  8.2999E-004  
  482.00  9.8805E-004  
  482.50  1.2058E-003  
  483.00  1.4739E-003  
  483.50  1.7717E-003  
  484.00  2.0762E-003  
  484.50  2.3878E-003  
  485.00  2.7050E-003  
  485.50  3.0204E-003  
  486.00  3.2635E-003  
  486.50  3.4029E-003  
  487.00  3.4069E-003  
  487.50  3.3317E-003  
  488.00  3.1910E-003  
  488.50  3.0086E-003  
  489.00  2.8183E-003  
  489.50  2.6468E-003  
  490.00  2.5202E-003  
  490.50  2.4475E-003  
  491.00  2.4040E-003  
  491.50  2.3481E-003  
  492.00  2.2397E-003  
  492.50  2.1084E-003  
  493.00  1.9731E-003  
  493.50  1.8459E-003  
  494.00  1.7348E-003  
  494.50  1.6270E-003  
  495.00  1.5307E-003  
  495.50  1.4399E-003  
  496.00  1.3427E-003  
  496.50  1.2726E-003  
  497.00  1.2035E-003  
  497.50  1.1475E-003  
  498.00  1.0767E-003  
  498.50  9.9140E-004  
  499.00  9.0943E-004  
  499.50  8.2829E-004  
  500.00  7.6208E-004  
  500.50  7.0053E-004  
  501.00  6.4906E-004  
  501.50  5.9445E-004  
  502.00  5.3380E-004  
  502.50  4.7728E-004  
  503.00  4.2932E-004  
  503.50  4.0467E-004  
  504.00  3.7407E-004  
  504.50  3.5000E-004  
  505.00  3.3702E-004  
  505.50  3.2371E-004  
  506.00  3.2245E-004  
  506.50  3.1615E-004  
  507.00  3.1283E-004  
  507.50  2.9923E-004  
  508.00  2.7657E-004  
  508.50  2.6024E-004  
  509.00  2.5576E-004  
  509.50  2.6499E-004  
  510.00  2.6883E-004  
  510.50  2.5604E-004  
  511.00  2.4988E-004  
  511.50  2.4769E-004  
  512.00  2.5224E-004  
  512.50  2.5589E-004  
  513.00  2.5876E-004  
  513.50  2.5214E-004  
  514.00  2.5416E-004  
  514.50  2.4908E-004  
  515.00  2.5695E-004  
  515.50  2.5978E-004  
  516.00  2.7908E-004  
  516.50  2.8365E-004  
  517.00  2.9373E-004  
  517.50  2.8799E-004  
  518.00  2.6154E-004  
  518.50  2.3223E-004  
  519.00  2.0708E-004  
  519.50  1.9152E-004  
  520.00  1.9315E-004  
  520.50  2.0169E-004  
  521.00  2.0335E-004  
  521.50  2.1638E-004  
  522.00  2.2251E-004  
  522.50  2.4078E-004  
  523.00  2.5640E-004  
  523.50  2.6453E-004  
  524.00  2.5829E-004  
  524.50  2.5309E-004  
  525.00  2.4487E-004  
  525.50  2.4446E-004  
  526.00  2.6560E-004  
  526.50  2.8839E-004  
  527.00  3.1019E-004  
  527.50  3.1079E-004  
  528.00  3.0201E-004  
  528.50  3.0560E-004  
  529.00  3.2090E-004  
  529.50  3.5113E-004  
  530.00  3.7982E-004  
  530.50  4.0429E-004  
  531.00  4.4196E-004  
  531.50  5.1241E-004  
  532.00  6.1509E-004  
  532.50  7.4269E-004  
  533.00  8.5497E-004  
  533.50  9.0586E-004  
  534.00  9.0964E-004  
  534.50  9.0132E-004  
  535.00  9.4487E-004  
  535.50  1.1021E-003  
  536.00  1.3651E-003  
  536.50  1.7742E-003  
  537.00  2.2652E-003  
  537.50  2.7815E-003  
  538.00  3.3212E-003  
  538.50  4.0383E-003  
  539.00  5.1978E-003  
  539.50  7.0605E-003  
  540.00  9.8734E-003  
  540.50  1.3480E-002  
  541.00  1.6969E-002  
  541.50  1.9220E-002  
  542.00  1.9443E-002  
  542.50  1.8399E-002  
  543.00  1.7237E-002  
  543.50  1.6707E-002  
  544.00  1.7508E-002  
  544.50  2.0335E-002  
  545.00  2.5788E-002  
  545.50  3.1206E-002  
  546.00  3.2201E-002  
  546.50  2.8324E-002  
  547.00  2.1471E-002  
  547.50  1.5616E-002  
  548.00  1.2293E-002  
  548.50  1.0351E-002  
  549.00  9.0299E-003  
  549.50  7.9371E-003  
  550.00  6.9671E-003  
  550.50  6.0707E-003  
  551.00  5.2608E-003  
  551.50  4.5590E-003  
  552.00  3.9702E-003  
  552.50  3.4785E-003  
  553.00  3.0563E-003  
  553.50  2.6820E-003  
  554.00  2.3225E-003  
  554.50  2.0029E-003  
  555.00  1.7178E-003  
  555.50  1.5085E-003  
  556.00  1.3328E-003  
  556.50  1.1943E-003  
  557.00  1.0927E-003  
  557.50  9.8340E-004  
  558.00  8.9152E-004  
  558.50  8.0027E-004  
  559.00  7.5607E-004  
  559.50  7.2015E-004  
  560.00  7.0109E-004  
  560.50  6.8007E-004  
  561.00  6.6532E-004  
  561.50  6.5269E-004  
  562.00  6.2757E-004  
  562.50  5.9083E-004  
  563.00  5.6820E-004  
  563.50  5.4748E-004  
  564.00  5.3629E-004  
  564.50  5.2480E-004  
  565.00  4.9723E-004  
  565.50  4.7529E-004  
  566.00  4.5696E-004  
  566.50  4.4923E-004  
  567.00  4.5557E-004  
  567.50  4.5626E-004  
  568.00  4.6177E-004  
  568.50  4.6276E-004  
  569.00  4.5469E-004  
  569.50  4.2736E-004  
  570.00  3.8452E-004  
  570.50  3.2931E-004  
  571.00  3.0843E-004  
  571.50  2.9658E-004  
  572.00  3.0579E-004  
  572.50  3.1135E-004  
  573.00  3.2415E-004  
  573.50  3.3994E-004  
  574.00  3.7834E-004  
  574.50  4.6697E-004  
  575.00  7.7491E-004  
  575.50  1.5547E-003  
  576.00  2.8313E-003  
  576.50  3.9989E-003  
  577.00  4.4842E-003  
  577.50  4.2578E-003  
  578.00  4.1726E-003  
  578.50  4.5980E-003  
  579.00  5.0245E-003  
  579.50  4.9166E-003  
  580.00  4.3573E-003  
  580.50  3.7720E-003  
  581.00  3.4814E-003  
  581.50  3.5017E-003  
  582.00  3.8112E-003  
  582.50  4.1828E-003  
  583.00  4.4387E-003  
  583.50  4.5187E-003  
  584.00  4.4682E-003  
  584.50  4.3486E-003  
  585.00  4.2605E-003  
  585.50  4.4386E-003  
  586.00  5.0610E-003  
  586.50  6.0821E-003  
  587.00  6.8371E-003  
  587.50  6.6967E-003  
  588.00  5.6588E-003  
  588.50  4.3395E-003  
  589.00  3.4134E-003  
  589.50  2.9632E-003  
  590.00  2.9331E-003  
  590.50  3.1085E-003  
  591.00  3.4800E-003  
  591.50  4.0956E-003  
  592.00  4.9479E-003  
  592.50  5.7719E-003  
  593.00  6.1517E-003  
  593.50  5.7177E-003  
  594.00  4.7375E-003  
  594.50  3.6519E-003  
  595.00  2.9016E-003  
  595.50  2.5164E-003  
  596.00  2.3923E-003  
  596.50  2.3951E-003  
  597.00  2.5126E-003  
  597.50  2.7968E-003  
  598.00  3.2314E-003  
  598.50  3.7525E-003  
  599.00  4.1668E-003  
  599.50  4.2536E-003  
  600.00  3.9702E-003  
  600.50  3.4076E-003  
  601.00  2.7936E-003  
  601.50  2.2959E-003  
  602.00  1.9685E-003  
  602.50  1.7870E-003  
  603.00  1.7070E-003  
  603.50  1.7308E-003  
  604.00  1.8171E-003  
  604.50  1.9067E-003  
  605.00  2.0261E-003  
  605.50  2.1888E-003  
  606.00  2.4397E-003  
  606.50  2.7664E-003  
  607.00  3.2143E-003  
  607.50  3.8801E-003  
  608.00  4.9528E-003  
  608.50  6.7662E-003  
  609.00  1.0093E-002  
  609.50  1.7276E-002  
  610.00  2.9338E-002  
  610.50  4.4802E-002  
  611.00  5.6396E-002  
  611.50  5.8368E-002  
  612.00  4.9877E-002  
  612.50  3.7972E-002  
  613.00  2.8495E-002  
  613.50  2.2946E-002  
  614.00  1.9811E-002  
  614.50  1.7355E-002  
  615.00  1.4739E-002  
  615.50  1.1940E-002  
  616.00  9.3564E-003  
  616.50  7.2844E-003  
  617.00  5.8533E-003  
  617.50  4.8758E-003  
  618.00  4.2425E-003  
  618.50  3.8659E-003  
  619.00  3.6759E-003  
  619.50  3.6270E-003  
  620.00  3.6714E-003  
  620.50  3.7583E-003  
  621.00  3.8465E-003  
  621.50  3.9414E-003  
  622.00  4.0165E-003  
  622.50  4.1293E-003  
  623.00  4.2782E-003  
  623.50  4.4387E-003  
  624.00  4.5698E-003  
  624.50  4.6437E-003  
  625.00  4.6843E-003  
  625.50  4.7360E-003  
  626.00  4.7842E-003  
  626.50  4.7913E-003  
  627.00  4.7320E-003  
  627.50  4.6129E-003  
  628.00  4.5219E-003  
  628.50  4.5291E-003  
  629.00  4.7913E-003  
  629.50  5.4569E-003  
  630.00  6.5665E-003  
  630.50  7.5752E-003  
  631.00  7.7701E-003  
  631.50  6.7436E-003  
  632.00  5.0066E-003  
  632.50  3.3317E-003  
  633.00  2.2335E-003  
  633.50  1.6470E-003  
  634.00  1.3756E-003  
  634.50  1.2116E-003  
  635.00  1.1210E-003  
  635.50  1.0759E-003  
  636.00  1.0215E-003  
  636.50  9.5186E-004  
  637.00  8.8025E-004  
  637.50  8.2478E-004  
  638.00  7.8896E-004  
  638.50  7.6509E-004  
  639.00  7.3933E-004  
  639.50  7.2851E-004  
  640.00  6.9321E-004  
  640.50  6.7468E-004  
  641.00  6.6172E-004  
  641.50  6.9573E-004  
  642.00  7.3534E-004  
  642.50  7.3713E-004  
  643.00  7.1894E-004  
  643.50  6.9238E-004  
  644.00  7.2516E-004  
  644.50  7.5336E-004  
  645.00  7.7558E-004  
  645.50  7.6417E-004  
  646.00  7.3756E-004  
  646.50  7.1083E-004  
  647.00  6.7181E-004  
  647.50  6.6426E-004  
  648.00  7.0830E-004  
  648.50  8.6721E-004  
  649.00  1.1573E-003  
  649.50  1.5966E-003  
  650.00  2.0129E-003  
  650.50  2.2078E-003  
  651.00  2.0582E-003  
  651.50  1.7558E-003  
  652.00  1.4724E-003  
  652.50  1.3328E-003  
  653.00  1.2178E-003  
  653.50  1.1140E-003  
  654.00  9.7006E-004  
  654.50  8.5996E-004  
  655.00  7.6800E-004  
  655.50  7.3103E-004  
  656.00  7.3873E-004  
  656.50  7.5973E-004  
  657.00  7.9883E-004  
  657.50  8.2261E-004  
  658.00  8.1550E-004  
  658.50  7.6035E-004  
  659.00  6.5013E-004  
  659.50  5.6068E-004  
  660.00  5.2816E-004  
  660.50  5.8137E-004  
  661.00  7.4036E-004  
  661.50  1.0027E-003  
  662.00  1.2784E-003  
  662.50  1.4209E-003  
  663.00  1.3074E-003  
  663.50  1.0546E-003  
  664.00  8.0089E-004  
  664.50  6.5458E-004  
  665.00  5.8025E-004  
  665.50  5.5366E-004  
  666.00  5.2506E-004  
  666.50  5.0705E-004  
  667.00  4.4347E-004  
  667.50  4.1734E-004  
  668.00  3.9943E-004  
  668.50  4.3626E-004  
  669.00  4.7361E-004  
  669.50  4.8154E-004  
  670.00  4.6010E-004  
  670.50  4.2308E-004  
  671.00  3.9775E-004  
  671.50  3.8879E-004  
  672.00  3.6547E-004  
  672.50  3.4610E-004  
  673.00  3.3125E-004  
  673.50  3.3824E-004  
  674.00  3.3806E-004  
  674.50  3.4393E-004  
  675.00  3.0800E-004  
  675.50  3.0472E-004  
  676.00  2.8807E-004  
  676.50  3.0775E-004  
  677.00  2.8086E-004  
  677.50  2.6431E-004  
  678.00  2.8479E-004  
  678.50  3.1754E-004  
  679.00  3.3220E-004  
  679.50  3.4872E-004  
  680.00  3.9182E-004  
  680.50  4.6466E-004  
  681.00  4.7666E-004  
  681.50  4.9750E-004  
  682.00  4.5116E-004  
  682.50  4.1098E-004  
  683.00  3.7748E-004  
  683.50  4.0228E-004  
  684.00  4.1771E-004  
  684.50  4.2996E-004  
  685.00  4.5965E-004  
  685.50  5.3312E-004  
  686.00  6.5350E-004  
  686.50  8.5377E-004  
  687.00  1.0866E-003  
  687.50  1.2261E-003  
  688.00  1.2077E-003  
  688.50  1.0566E-003  
  689.00  8.3620E-004  
  689.50  6.1809E-004  
  690.00  4.3712E-004  
  690.50  3.3904E-004  
  691.00  2.7940E-004  
  691.50  2.4252E-004  
  692.00  2.8162E-004  
  692.50  4.2959E-004  
  693.00  6.9226E-004  
  693.50  9.0033E-004  
  694.00  9.0234E-004  
  694.50  7.1765E-004  
  695.00  4.5593E-004  
  695.50  2.6560E-004  
  696.00  2.1003E-004  
  696.50  2.2139E-004  
  697.00  2.2956E-004  
  697.50  1.9381E-004  
  698.00  1.5445E-004  
  698.50  1.3131E-004  
  699.00  1.0856E-004  
  699.50  1.3264E-004  
  700.00  1.6997E-004  
  700.50  1.8768E-004  
  701.00  1.6019E-004  
  701.50  1.8769E-004  
  702.00  2.4655E-004  
  702.50  3.1937E-004  
  703.00  3.7215E-004  
  703.50  4.5729E-004  
  704.00  5.8069E-004  
  704.50  7.6226E-004  
  705.00  1.0489E-003  
  705.50  1.5404E-003  
  706.00  2.2064E-003  
  706.50  2.8381E-003  
  707.00  3.1797E-003  
  707.50  3.1814E-003  
  708.00  3.1769E-003  
  708.50  3.3070E-003  
  709.00  3.3912E-003  
  709.50  3.0238E-003  
  710.00  2.3145E-003  
  710.50  1.7081E-003  
  711.00  1.6737E-003  
  711.50  2.1696E-003  
  712.00  2.7051E-003  
  712.50  2.8150E-003  
  713.00  2.3446E-003  
  713.50  1.5557E-003  
  714.00  8.9000E-004  
  714.50  4.8341E-004  
  715.00  2.9659E-004  
  715.50  2.0019E-004  
  716.00  1.2933E-004  
  716.50  1.2104E-004  
  717.00  9.1006E-005  
  717.50  7.2302E-005  
  718.00  5.3950E-005  
  718.50  9.7616E-005  
  719.00  1.2981E-004  
  719.50  9.5059E-005  
  720.00  5.2924E-005  
  720.50  6.4837E-005  
  721.00  9.2387E-005  
  721.50  8.6077E-005  
  722.00  1.2399E-005  
  722.50  0.0000E+000  
  723.00  1.3018E-006  
  723.50  3.9346E-005  
  724.00  5.7579E-005  
  724.50  8.4806E-005  
  725.00  1.0597E-004  
  725.50  1.1320E-004  
  726.00  8.3718E-005  
  726.50  5.0401E-005  
  727.00  2.2996E-005  
  727.50  0.0000E+000  
  728.00  1.4772E-005  
  728.50  3.0733E-005  
  729.00  2.4789E-005  
  729.50  3.7133E-005  
  730.00  9.0713E-005  
  730.50  8.8332E-005  
  731.00  9.9700E-006  
  731.50  0.0000E+000  
  732.00  0.0000E+000  
  732.50  0.0000E+000  
  733.00  0.0000E+000  
  733.50  0.0000E+000  
  734.00  2.2686E-005  
  734.50  2.0148E-005  
  735.00  0.0000E+000  
  735.50  0.0000E+000  
  736.00  0.0000E+000  
  736.50  1.2012E-005  
  737.00  7.4184E-005  
  737.50  1.2877E-004  
  738.00  8.0050E-005  
  738.50  5.7156E-005  
  739.00  2.1148E-005  
  739.50  4.1614E-005  
  740.00  5.1122E-005  
  740.50  1.3566E-004  
  741.00  1.5824E-004  
  741.50  1.3146E-004  
  742.00  9.2187E-005  
  742.50  8.8729E-005  
  743.00  8.3960E-005  
  743.50  8.7102E-005  
  744.00  5.5461E-005  
  744.50  2.4847E-005  
  745.00  1.4525E-006  
  745.50  2.6889E-005  
  746.00  1.1130E-004  
  746.50  1.1436E-004  
  747.00  8.3074E-005  
  747.50  4.9825E-005  
  748.00  2.7877E-005  
  748.50  2.3034E-007  
  749.00  0.0000E+000  
  749.50  3.8843E-005  
  750.00  1.4068E-004  
  750.50  1.7807E-004  
  751.00  1.9957E-004  
  751.50  1.8985E-004  
  752.00  1.6134E-004  
  752.50  6.4925E-005  
  753.00  1.7192E-005  
  753.50  9.5414E-006  
  754.00  3.4947E-005  
  754.50  2.3808E-006  
  755.00  0.0000E+000  
  755.50  0.0000E+000  
  756.00  0.0000E+000  
  756.50  0.0000E+000  
  757.00  0.0000E+000  
  757.50  1.3009E-005  
  758.00  7.3556E-008  
  758.50  0.0000E+000  
  759.00  0.0000E+000  
  759.50  0.0000E+000  
  760.00  0.0000E+000  
  760.50  0.0000E+000  
  761.00  0.0000E+000  
  761.50  1.1950E-005  
  762.00  6.7964E-005  
  762.50  1.8378E-004  
  763.00  4.1422E-004  
  763.50  4.5609E-004  
  764.00  3.6277E-004  
  764.50  1.5841E-004  
  765.00  3.1651E-006  
  765.50  0.0000E+000  
  766.00  0.0000E+000  
  766.50  0.0000E+000  
  767.00  0.0000E+000  
  767.50  0.0000E+000  
  768.00  0.0000E+000  
  768.50  0.0000E+000  
  769.00  0.0000E+000  
  769.50  0.0000E+000  
  770.00  0.0000E+000  
  770.50  0.0000E+000  
  771.00  0.0000E+000  
  771.50  3.9689E-005  
  772.00  1.3160E-004  
  772.50  1.1341E-004  
  773.00  3.1461E-005  
  773.50  3.2402E-005  
  774.00  6.8970E-005  
  774.50  1.0719E-005  
  775.00  0.0000E+000  
  775.50  0.0000E+000  
  776.00  0.0000E+000  
  776.50  0.0000E+000  
  777.00  0.0000E+000  
  777.50  1.5586E-005  
  778.00  1.8042E-004  
  778.50  2.3298E-004  
  779.00  1.3921E-004  
  779.50  1.7337E-005  
  780.00  0.0000E+000  
  780.50  2.0289E-005  
  781.00  6.4880E-005  
  781.50  0.0000E+000  
  782.00  0.0000E+000  
  782.50  0.0000E+000  
  783.00  0.0000E+000  
  783.50  0.0000E+000  
  784.00  0.0000E+000  
  784.50  0.0000E+000  
  785.00  0.0000E+000  
  785.50  0.0000E+000  
  786.00  0.0000E+000  
  786.50  0.0000E+000  
  787.00  0.0000E+000  
  787.50  0.0000E+000  
  788.00  0.0000E+000  
  788.50  0.0000E+000  
  789.00  0.0000E+000  
  789.50  0.0000E+000  
  790.00  0.0000E+000  
  790.50  0.0000E+000  
  791.00  0.0000E+000  
  791.50  0.0000E+000  
  792.00  0.0000E+000  
  792.50  0.0000E+000  
  793.00  5.4010E-005  
  793.50  8.8618E-005  
  794.00  1.3401E-004  
  794.50  1.8702E-004  
  795.00  2.4513E-004  
  795.50  1.9328E-004  
  796.00  1.0431E-004  
  796.50  2.0950E-005  
  797.00  0.0000E+000  
  797.50  0.0000E+000  
  798.00  0.0000E+000  
  798.50  0.0000E+000  
  799.00  0.0000E+000  
  799.50  3.8268E-005  
  800.00  1.9710E-006  
  800.50  3.6859E-005  
  801.00  8.8737E-005  
  801.50  8.9388E-005  
  802.00  7.7872E-005  
  802.50  1.2125E-004  
  803.00  8.1563E-005  
  803.50  0.0000E+000  
  804.00  0.0000E+000  
  804.50  0.0000E+000  
  805.00  0.0000E+000  
  805.50  0.0000E+000  
  806.00  1.1651E-006  
  806.50  3.8926E-006  
  807.00  0.0000E+000  
  807.50  0.0000E+000  
  808.00  0.0000E+000  
  808.50  5.3184E-005  
  809.00  1.6657E-004  
  809.50  2.1623E-004  
  810.00  1.4937E-004  
  810.50  2.0033E-004  
  811.00  4.5556E-004  
  811.50  6.9660E-004  
  812.00  6.5365E-004  
  812.50  2.9621E-004  
  813.00  2.9107E-005  
  813.50  0.0000E+000  
  814.00  0.0000E+000  
  814.50  0.0000E+000  
  815.00  1.0422E-005  
  815.50  1.1905E-004  
  816.00  5.8513E-005  
  816.50  0.0000E+000  
  817.00  0.0000E+000  
  817.50  0.0000E+000  
  818.00  2.3637E-005  
  818.50  0.0000E+000  
  819.00  0.0000E+000  
  819.50  0.0000E+000  
  820.00  0.0000E+000  
  820.50  0.0000E+000  
  821.00  0.0000E+000  
  821.50  0.0000E+000  
  822.00  0.0000E+000  
  822.50  0.0000E+000  
  823.00  6.3552E-005  
  823.50  1.5676E-005  
  824.00  0.0000E+000  
  824.50  0.0000E+000  
  825.00  0.0000E+000  
  825.50  0.0000E+000  
  826.00  8.0104E-006  
  826.50  8.2305E-007  
  827.00  0.0000E+000  
  827.50  0.0000E+000  
  828.00  0.0000E+000  
  828.50  0.0000E+000  
  829.00  0.0000E+000  
  829.50  0.0000E+000  
  830.00  9.7347E-005  
  830.50  1.5554E-004  
  831.00  1.2312E-004  
  831.50  4.7837E-005  
  832.00  0.0000E+000  
  832.50  0.0000E+000  
  833.00  0.0000E+000  
  833.50  0.0000E+000  
  834.00  4.3042E-005  
  834.50  9.1532E-005  
  835.00  0.0000E+000  
  835.50  0.0000E+000  
  836.00  0.0000E+000  
  836.50  0.0000E+000  
  837.00  0.0000E+000  
  837.50  0.0000E+000  
  838.00  0.0000E+000  
  838.50  0.0000E+000  
  839.00  0.0000E+000  
  839.50  1.4041E-006  
  840.00  8.3248E-005  
  840.50  2.0853E-004  
  841.00  2.4431E-004  
  841.50  2.8848E-004  
  842.00  3.4341E-004  
  842.50  3.6652E-004  
  843.00  1.1925E-004  
  843.50  0.0000E+000  
  844.00  0.0000E+000  
  844.50  0.0000E+000  
  845.00  0.0000E+000  
  845.50  0.0000E+000  
  846.00  0.0000E+000  
  846.50  1.2582E-005  
  847.00  0.0000E+000  
  847.50  0.0000E+000  
  848.00  0.0000E+000  
  848.50  0.0000E+000  
  849.00  2.5914E-005  
  849.50  0.0000E+000  
  850.00  4.9693E-008  
  850.50  9.7994E-008  
  851.00  0.0000E+000  
  851.50  6.6126E-006  
  852.00  1.7249E-004  
  852.50  1.3807E-004  
  853.00  0.0000E+000  
  853.50  0.0000E+000  
  854.00  0.0000E+000  
  854.50  0.0000E+000  
  855.00  0.0000E+000  
  855.50  0.0000E+000  
  856.00  0.0000E+000  
  856.50  0.0000E+000  
  857.00  0.0000E+000  
  857.50  0.0000E+000  
  858.00  0.0000E+000  
  858.50  5.5285E-007  
  859.00  3.1241E-005  
  859.50  5.6298E-005  
  860.00  0.0000E+000  
  860.50  0.0000E+000  
  861.00  0.0000E+000  
  861.50  0.0000E+000  
  862.00  0.0000E+000  
  862.50  0.0000E+000  
  863.00  0.0000E+000  
  863.50  0.0000E+000  
  864.00  0.0000E+000  
  864.50  0.0000E+000  
  865.00  0.0000E+000  
  865.50  0.0000E+000  
  866.00  5.6829E-005  
  866.50  2.3664E-004  
  867.00  6.9690E-005  
  867.50  0.0000E+000  
  868.00  0.0000E+000  
  868.50  8.0397E-006  
  869.00  9.3550E-005  
  869.50  0.0000E+000  
  870.00  1.0729E-005  
  870.50  2.6587E-004  
  871.00  2.4211E-004  
  871.50  5.4616E-005  
  872.00  0.0000E+000  
  872.50  6.3583E-005  
  873.00  0.0000E+000  
  873.50  0.0000E+000  
  874.00  0.0000E+000  
  874.50  0.0000E+000  
  875.00  0.0000E+000  
  875.50  0.0000E+000  
  876.00  1.2840E-004  
  876.50  3.1862E-004  
  877.00  1.2849E-004  
  877.50  2.5979E-005  
  878.00  9.8266E-005  
  878.50  0.0000E+000  
  879.00  0.0000E+000  
  879.50  0.0000E+000  
  880.00  0.0000E+000  
  880.50  0.0000E+000  
  881.00  0.0000E+000  
  881.50  0.0000E+000  
  882.00  0.0000E+000  
  882.50  0.0000E+000  
  883.00  0.0000E+000  
  883.50  0.0000E+000  
  884.00  0.0000E+000  
  884.50  0.0000E+000  
  885.00  0.0000E+000  
  885.50  0.0000E+000  
  886.00  0.0000E+000  
  886.50  0.0000E+000  
  887.00  0.0000E+000  
  887.50  0.0000E+000  
  888.00  0.0000E+000  
  888.50  0.0000E+000  
  889.00  1.0815E-004  
  889.50  1.0299E-004  
  890.00  3.3726E-004  
  890.50  3.1304E-004  
  891.00  0.0000E+000  
  891.50  0.0000E+000  
  892.00  0.0000E+000  
  892.50  0.0000E+000  
  893.00  0.0000E+000  
  893.50  0.0000E+000  
  894.00  0.0000E+000  
  894.50  0.0000E+000  
  895.00  0.0000E+000  
  895.50  0.0000E+000  
  896.00  0.0000E+000  
  896.50  0.0000E+000  
  897.00  0.0000E+000  
  897.50  0.0000E+000  
  898.00  0.0000E+000  
  898.50  0.0000E+000  
  899.00  9.7001E-005  
  899.50  1.0689E-005  
