
# From lspdd.org
# 
# Name: LFC Globe R30 Domestique
# Indice spectral Valeur 
# MSI 0.25 
# SLI 0.43 
# IPI 0.56 
# Pourcentage de bleu 13.4 
# Caractéristique Valeur 
# CCT calculée (K) 2536 
# CCT du fabricant (K) 2700 
# Tension (V) 120 
# Puissance (W) 15.0 
# Efficacité lumineuse (Lum/W) 41.3 
#
# Image: '/app/system/img_1s/2521/medium_image1.JPG?1413486074'
# 

  273.00  0.0000E+000  
  273.50  0.0000E+000  
  274.00  0.0000E+000  
  274.50  0.0000E+000  
  275.00  0.0000E+000  
  275.50  0.0000E+000  
  276.00  0.0000E+000  
  276.50  0.0000E+000  
  277.00  0.0000E+000  
  277.50  0.0000E+000  
  278.00  0.0000E+000  
  278.50  0.0000E+000  
  279.00  0.0000E+000  
  279.50  0.0000E+000  
  280.00  0.0000E+000  
  280.50  0.0000E+000  
  281.00  0.0000E+000  
  281.50  0.0000E+000  
  282.00  0.0000E+000  
  282.50  0.0000E+000  
  283.00  0.0000E+000  
  283.50  0.0000E+000  
  284.00  0.0000E+000  
  284.50  0.0000E+000  
  285.00  0.0000E+000  
  285.50  0.0000E+000  
  286.00  0.0000E+000  
  286.50  0.0000E+000  
  287.00  0.0000E+000  
  287.50  0.0000E+000  
  288.00  0.0000E+000  
  288.50  0.0000E+000  
  289.00  0.0000E+000  
  289.50  0.0000E+000  
  290.00  0.0000E+000  
  290.50  0.0000E+000  
  291.00  0.0000E+000  
  291.50  0.0000E+000  
  292.00  0.0000E+000  
  292.50  0.0000E+000  
  293.00  0.0000E+000  
  293.50  0.0000E+000  
  294.00  0.0000E+000  
  294.50  0.0000E+000  
  295.00  0.0000E+000  
  295.50  0.0000E+000  
  296.00  0.0000E+000  
  296.50  0.0000E+000  
  297.00  0.0000E+000  
  297.50  0.0000E+000  
  298.00  0.0000E+000  
  298.50  0.0000E+000  
  299.00  0.0000E+000  
  299.50  0.0000E+000  
  300.00  0.0000E+000  
  300.50  0.0000E+000  
  301.00  0.0000E+000  
  301.50  0.0000E+000  
  302.00  0.0000E+000  
  302.50  0.0000E+000  
  303.00  0.0000E+000  
  303.50  0.0000E+000  
  304.00  0.0000E+000  
  304.50  0.0000E+000  
  305.00  0.0000E+000  
  305.50  0.0000E+000  
  306.00  0.0000E+000  
  306.50  0.0000E+000  
  307.00  0.0000E+000  
  307.50  0.0000E+000  
  308.00  0.0000E+000  
  308.50  0.0000E+000  
  309.00  0.0000E+000  
  309.50  0.0000E+000  
  310.00  0.0000E+000  
  310.50  0.0000E+000  
  311.00  0.0000E+000  
  311.50  0.0000E+000  
  312.00  0.0000E+000  
  312.50  0.0000E+000  
  313.00  0.0000E+000  
  313.50  0.0000E+000  
  314.00  0.0000E+000  
  314.50  0.0000E+000  
  315.00  0.0000E+000  
  315.50  0.0000E+000  
  316.00  0.0000E+000  
  316.50  0.0000E+000  
  317.00  0.0000E+000  
  317.50  0.0000E+000  
  318.00  0.0000E+000  
  318.50  0.0000E+000  
  319.00  0.0000E+000  
  319.50  0.0000E+000  
  320.00  0.0000E+000  
  320.50  0.0000E+000  
  321.00  0.0000E+000  
  321.50  0.0000E+000  
  322.00  0.0000E+000  
  322.50  0.0000E+000  
  323.00  0.0000E+000  
  323.50  0.0000E+000  
  324.00  0.0000E+000  
  324.50  0.0000E+000  
  325.00  0.0000E+000  
  325.50  0.0000E+000  
  326.00  0.0000E+000  
  326.50  0.0000E+000  
  327.00  0.0000E+000  
  327.50  0.0000E+000  
  328.00  0.0000E+000  
  328.50  0.0000E+000  
  329.00  0.0000E+000  
  329.50  0.0000E+000  
  330.00  0.0000E+000  
  330.50  0.0000E+000  
  331.00  0.0000E+000  
  331.50  0.0000E+000  
  332.00  0.0000E+000  
  332.50  0.0000E+000  
  333.00  0.0000E+000  
  333.50  0.0000E+000  
  334.00  0.0000E+000  
  334.50  0.0000E+000  
  335.00  0.0000E+000  
  335.50  0.0000E+000  
  336.00  0.0000E+000  
  336.50  0.0000E+000  
  337.00  6.5938E-007  
  337.50  1.5049E-006  
  338.00  0.0000E+000  
  338.50  0.0000E+000  
  339.00  0.0000E+000  
  339.50  0.0000E+000  
  340.00  0.0000E+000  
  340.50  0.0000E+000  
  341.00  0.0000E+000  
  341.50  0.0000E+000  
  342.00  0.0000E+000  
  342.50  0.0000E+000  
  343.00  0.0000E+000  
  343.50  0.0000E+000  
  344.00  0.0000E+000  
  344.50  0.0000E+000  
  345.00  0.0000E+000  
  345.50  0.0000E+000  
  346.00  0.0000E+000  
  346.50  0.0000E+000  
  347.00  0.0000E+000  
  347.50  0.0000E+000  
  348.00  0.0000E+000  
  348.50  0.0000E+000  
  349.00  0.0000E+000  
  349.50  0.0000E+000  
  350.00  0.0000E+000  
  350.50  0.0000E+000  
  351.00  0.0000E+000  
  351.50  0.0000E+000  
  352.00  0.0000E+000  
  352.50  0.0000E+000  
  353.00  0.0000E+000  
  353.50  0.0000E+000  
  354.00  0.0000E+000  
  354.50  0.0000E+000  
  355.00  0.0000E+000  
  355.50  0.0000E+000  
  356.00  0.0000E+000  
  356.50  0.0000E+000  
  357.00  0.0000E+000  
  357.50  0.0000E+000  
  358.00  0.0000E+000  
  358.50  0.0000E+000  
  359.00  0.0000E+000  
  359.50  0.0000E+000  
  360.00  0.0000E+000  
  360.50  0.0000E+000  
  361.00  0.0000E+000  
  361.50  0.0000E+000  
  362.00  0.0000E+000  
  362.50  0.0000E+000  
  363.00  2.7254E-005  
  363.50  2.3828E-004  
  364.00  6.0221E-004  
  364.50  9.5708E-004  
  365.00  1.1535E-003  
  365.50  1.0842E-003  
  366.00  7.9179E-004  
  366.50  4.8182E-004  
  367.00  2.4548E-004  
  367.50  9.8777E-005  
  368.00  1.0906E-005  
  368.50  0.0000E+000  
  369.00  0.0000E+000  
  369.50  0.0000E+000  
  370.00  0.0000E+000  
  370.50  0.0000E+000  
  371.00  0.0000E+000  
  371.50  0.0000E+000  
  372.00  0.0000E+000  
  372.50  0.0000E+000  
  373.00  0.0000E+000  
  373.50  0.0000E+000  
  374.00  0.0000E+000  
  374.50  0.0000E+000  
  375.00  0.0000E+000  
  375.50  0.0000E+000  
  376.00  0.0000E+000  
  376.50  0.0000E+000  
  377.00  0.0000E+000  
  377.50  0.0000E+000  
  378.00  0.0000E+000  
  378.50  0.0000E+000  
  379.00  0.0000E+000  
  379.50  0.0000E+000  
  380.00  2.1114E-005  
  380.50  5.2128E-005  
  381.00  6.3456E-005  
  381.50  5.2309E-005  
  382.00  2.7009E-005  
  382.50  8.2001E-007  
  383.00  0.0000E+000  
  383.50  0.0000E+000  
  384.00  2.6397E-006  
  384.50  9.8589E-007  
  385.00  0.0000E+000  
  385.50  0.0000E+000  
  386.00  0.0000E+000  
  386.50  0.0000E+000  
  387.00  0.0000E+000  
  387.50  0.0000E+000  
  388.00  0.0000E+000  
  388.50  0.0000E+000  
  389.00  0.0000E+000  
  389.50  0.0000E+000  
  390.00  0.0000E+000  
  390.50  0.0000E+000  
  391.00  0.0000E+000  
  391.50  0.0000E+000  
  392.00  0.0000E+000  
  392.50  0.0000E+000  
  393.00  0.0000E+000  
  393.50  0.0000E+000  
  394.00  0.0000E+000  
  394.50  0.0000E+000  
  395.00  0.0000E+000  
  395.50  0.0000E+000  
  396.00  3.9923E-007  
  396.50  1.5556E-006  
  397.00  0.0000E+000  
  397.50  0.0000E+000  
  398.00  0.0000E+000  
  398.50  0.0000E+000  
  399.00  0.0000E+000  
  399.50  1.2705E-006  
  400.00  0.0000E+000  
  400.50  0.0000E+000  
  401.00  0.0000E+000  
  401.50  2.0608E-007  
  402.00  1.0088E-005  
  402.50  9.3914E-005  
  403.00  4.6965E-004  
  403.50  1.1697E-003  
  404.00  1.9202E-003  
  404.50  2.2652E-003  
  405.00  2.0253E-003  
  405.50  1.3431E-003  
  406.00  7.1941E-004  
  406.50  3.7974E-004  
  407.00  2.9601E-004  
  407.50  2.5063E-004  
  408.00  1.9489E-004  
  408.50  9.5414E-005  
  409.00  3.6020E-005  
  409.50  8.9771E-006  
  410.00  0.0000E+000  
  410.50  0.0000E+000  
  411.00  0.0000E+000  
  411.50  0.0000E+000  
  412.00  1.5711E-005  
  412.50  4.2758E-006  
  413.00  0.0000E+000  
  413.50  0.0000E+000  
  414.00  2.2051E-006  
  414.50  1.2290E-005  
  415.00  6.3264E-006  
  415.50  1.4937E-005  
  416.00  1.6532E-005  
  416.50  1.2189E-005  
  417.00  4.1336E-006  
  417.50  1.3677E-005  
  418.00  3.5170E-005  
  418.50  4.7331E-005  
  419.00  6.5195E-005  
  419.50  8.1004E-005  
  420.00  7.3513E-005  
  420.50  5.1787E-005  
  421.00  1.9263E-005  
  421.50  1.6622E-006  
  422.00  0.0000E+000  
  422.50  0.0000E+000  
  423.00  0.0000E+000  
  423.50  0.0000E+000  
  424.00  0.0000E+000  
  424.50  1.4015E-005  
  425.00  4.1659E-005  
  425.50  6.5389E-005  
  426.00  9.6948E-005  
  426.50  1.1133E-004  
  427.00  1.0682E-004  
  427.50  9.1180E-005  
  428.00  8.3479E-005  
  428.50  7.6784E-005  
  429.00  8.8156E-005  
  429.50  1.1188E-004  
  430.00  1.1865E-004  
  430.50  1.4102E-004  
  431.00  1.1738E-004  
  431.50  1.2128E-004  
  432.00  1.5232E-004  
  432.50  1.8665E-004  
  433.00  2.5231E-004  
  433.50  4.6313E-004  
  434.00  1.3203E-003  
  434.50  3.5920E-003  
  435.00  6.5878E-003  
  435.50  8.7089E-003  
  436.00  8.3597E-003  
  436.50  6.0332E-003  
  437.00  3.1996E-003  
  437.50  1.3077E-003  
  438.00  5.4470E-004  
  438.50  2.9325E-004  
  439.00  2.0068E-004  
  439.50  1.4792E-004  
  440.00  1.1257E-004  
  440.50  1.1883E-004  
  441.00  1.2405E-004  
  441.50  1.2635E-004  
  442.00  1.3745E-004  
  442.50  1.3094E-004  
  443.00  1.2238E-004  
  443.50  1.1589E-004  
  444.00  9.6855E-005  
  444.50  1.2284E-004  
  445.00  1.4508E-004  
  445.50  1.6391E-004  
  446.00  1.5585E-004  
  446.50  1.4064E-004  
  447.00  1.3783E-004  
  447.50  1.2931E-004  
  448.00  1.2398E-004  
  448.50  8.6645E-005  
  449.00  5.7279E-005  
  449.50  5.8496E-005  
  450.00  6.4256E-005  
  450.50  9.1847E-005  
  451.00  8.2877E-005  
  451.50  6.1292E-005  
  452.00  7.4401E-005  
  452.50  8.5272E-005  
  453.00  1.0887E-004  
  453.50  9.5907E-005  
  454.00  6.4575E-005  
  454.50  4.5784E-005  
  455.00  4.7796E-005  
  455.50  6.9549E-005  
  456.00  9.7875E-005  
  456.50  1.2517E-004  
  457.00  1.0723E-004  
  457.50  1.0364E-004  
  458.00  8.9127E-005  
  458.50  4.7439E-005  
  459.00  1.8077E-005  
  459.50  1.8289E-005  
  460.00  4.9761E-005  
  460.50  9.1682E-005  
  461.00  9.3606E-005  
  461.50  7.5351E-005  
  462.00  4.8864E-005  
  462.50  3.6686E-005  
  463.00  1.4534E-005  
  463.50  1.2135E-005  
  464.00  1.6756E-005  
  464.50  2.2244E-005  
  465.00  3.1392E-005  
  465.50  2.6365E-005  
  466.00  4.8684E-005  
  466.50  6.9790E-005  
  467.00  5.8232E-005  
  467.50  4.8342E-005  
  468.00  4.7598E-005  
  468.50  6.9485E-005  
  469.00  1.1253E-004  
  469.50  1.0895E-004  
  470.00  8.9549E-005  
  470.50  6.1726E-005  
  471.00  5.2424E-005  
  471.50  5.8910E-005  
  472.00  6.4773E-005  
  472.50  5.4634E-005  
  473.00  5.4339E-005  
  473.50  8.0053E-005  
  474.00  1.0474E-004  
  474.50  1.1296E-004  
  475.00  1.0553E-004  
  475.50  9.2130E-005  
  476.00  9.4377E-005  
  476.50  8.9677E-005  
  477.00  6.1299E-005  
  477.50  4.6177E-005  
  478.00  7.7032E-005  
  478.50  1.1267E-004  
  479.00  1.4932E-004  
  479.50  1.8091E-004  
  480.00  2.1489E-004  
  480.50  2.4793E-004  
  481.00  2.6485E-004  
  481.50  2.8972E-004  
  482.00  3.4545E-004  
  482.50  4.2697E-004  
  483.00  5.3741E-004  
  483.50  6.5141E-004  
  484.00  7.8341E-004  
  484.50  9.2583E-004  
  485.00  1.0673E-003  
  485.50  1.1929E-003  
  486.00  1.2699E-003  
  486.50  1.3060E-003  
  487.00  1.3033E-003  
  487.50  1.2862E-003  
  488.00  1.2421E-003  
  488.50  1.1676E-003  
  489.00  1.0879E-003  
  489.50  1.0263E-003  
  490.00  9.8444E-004  
  490.50  9.6001E-004  
  491.00  9.3677E-004  
  491.50  9.1711E-004  
  492.00  8.6317E-004  
  492.50  8.1300E-004  
  493.00  7.4556E-004  
  493.50  6.9165E-004  
  494.00  6.6515E-004  
  494.50  6.2461E-004  
  495.00  5.9874E-004  
  495.50  5.6335E-004  
  496.00  5.2309E-004  
  496.50  4.8753E-004  
  497.00  4.6032E-004  
  497.50  4.4013E-004  
  498.00  4.2087E-004  
  498.50  3.7472E-004  
  499.00  3.2789E-004  
  499.50  2.8390E-004  
  500.00  2.5676E-004  
  500.50  2.4151E-004  
  501.00  2.2721E-004  
  501.50  2.1175E-004  
  502.00  1.8497E-004  
  502.50  1.6284E-004  
  503.00  1.4216E-004  
  503.50  1.4014E-004  
  504.00  1.3110E-004  
  504.50  1.1796E-004  
  505.00  1.0456E-004  
  505.50  9.9359E-005  
  506.00  1.0568E-004  
  506.50  1.1074E-004  
  507.00  1.0936E-004  
  507.50  1.0191E-004  
  508.00  7.7313E-005  
  508.50  5.9920E-005  
  509.00  4.4689E-005  
  509.50  4.5666E-005  
  510.00  6.0585E-005  
  510.50  7.1395E-005  
  511.00  8.0676E-005  
  511.50  8.9778E-005  
  512.00  9.3536E-005  
  512.50  9.1271E-005  
  513.00  7.9210E-005  
  513.50  7.2382E-005  
  514.00  7.4813E-005  
  514.50  7.7857E-005  
  515.00  8.5123E-005  
  515.50  8.7102E-005  
  516.00  1.0052E-004  
  516.50  9.6757E-005  
  517.00  1.0078E-004  
  517.50  9.9194E-005  
  518.00  9.3618E-005  
  518.50  7.7029E-005  
  519.00  5.1041E-005  
  519.50  4.1673E-005  
  520.00  4.6354E-005  
  520.50  6.7697E-005  
  521.00  7.4594E-005  
  521.50  6.9663E-005  
  522.00  5.5452E-005  
  522.50  5.8508E-005  
  523.00  7.1568E-005  
  523.50  8.1582E-005  
  524.00  9.0976E-005  
  524.50  9.5193E-005  
  525.00  9.4389E-005  
  525.50  8.8907E-005  
  526.00  9.4308E-005  
  526.50  1.1615E-004  
  527.00  1.2857E-004  
  527.50  1.2152E-004  
  528.00  9.7056E-005  
  528.50  9.0969E-005  
  529.00  9.1800E-005  
  529.50  1.0251E-004  
  530.00  1.0709E-004  
  530.50  1.1686E-004  
  531.00  1.3946E-004  
  531.50  1.8021E-004  
  532.00  2.3492E-004  
  532.50  2.9286E-004  
  533.00  3.3137E-004  
  533.50  3.3558E-004  
  534.00  3.2539E-004  
  534.50  3.1220E-004  
  535.00  3.3330E-004  
  535.50  3.9845E-004  
  536.00  5.0815E-004  
  536.50  6.6975E-004  
  537.00  8.7174E-004  
  537.50  1.0812E-003  
  538.00  1.2875E-003  
  538.50  1.5454E-003  
  539.00  1.9703E-003  
  539.50  2.6838E-003  
  540.00  3.7758E-003  
  540.50  5.1760E-003  
  541.00  6.5203E-003  
  541.50  7.3640E-003  
  542.00  7.4289E-003  
  542.50  7.0026E-003  
  543.00  6.5456E-003  
  543.50  6.3475E-003  
  544.00  6.6126E-003  
  544.50  7.5702E-003  
  545.00  9.3906E-003  
  545.50  1.1184E-002  
  546.00  1.1491E-002  
  546.50  1.0138E-002  
  547.00  7.7764E-003  
  547.50  5.7583E-003  
  548.00  4.5903E-003  
  548.50  3.9015E-003  
  549.00  3.4285E-003  
  549.50  3.0184E-003  
  550.00  2.6500E-003  
  550.50  2.3038E-003  
  551.00  1.9995E-003  
  551.50  1.7515E-003  
  552.00  1.5290E-003  
  552.50  1.3339E-003  
  553.00  1.1529E-003  
  553.50  9.8620E-004  
  554.00  8.4059E-004  
  554.50  7.2424E-004  
  555.00  6.2369E-004  
  555.50  5.4675E-004  
  556.00  4.7050E-004  
  556.50  4.2581E-004  
  557.00  4.0025E-004  
  557.50  3.7280E-004  
  558.00  3.4152E-004  
  558.50  2.9827E-004  
  559.00  2.6728E-004  
  559.50  2.3993E-004  
  560.00  2.3194E-004  
  560.50  2.2228E-004  
  561.00  2.1953E-004  
  561.50  2.2068E-004  
  562.00  2.2185E-004  
  562.50  2.1924E-004  
  563.00  2.1695E-004  
  563.50  2.0334E-004  
  564.00  1.9890E-004  
  564.50  1.9127E-004  
  565.00  1.8105E-004  
  565.50  1.5571E-004  
  566.00  1.2555E-004  
  566.50  1.1012E-004  
  567.00  1.1624E-004  
  567.50  1.3284E-004  
  568.00  1.3755E-004  
  568.50  1.2945E-004  
  569.00  1.2512E-004  
  569.50  1.1892E-004  
  570.00  1.0984E-004  
  570.50  9.5229E-005  
  571.00  8.9857E-005  
  571.50  8.6132E-005  
  572.00  8.6821E-005  
  572.50  7.8422E-005  
  573.00  7.6687E-005  
  573.50  8.4849E-005  
  574.00  1.0992E-004  
  574.50  1.4064E-004  
  575.00  2.4593E-004  
  575.50  5.2527E-004  
  576.00  1.0083E-003  
  576.50  1.4594E-003  
  577.00  1.6538E-003  
  577.50  1.5720E-003  
  578.00  1.5218E-003  
  578.50  1.6621E-003  
  579.00  1.8223E-003  
  579.50  1.8093E-003  
  580.00  1.6678E-003  
  580.50  1.5029E-003  
  581.00  1.4287E-003  
  581.50  1.4425E-003  
  582.00  1.5465E-003  
  582.50  1.6623E-003  
  583.00  1.7425E-003  
  583.50  1.7444E-003  
  584.00  1.7225E-003  
  584.50  1.6693E-003  
  585.00  1.6506E-003  
  585.50  1.7313E-003  
  586.00  2.0272E-003  
  586.50  2.5033E-003  
  587.00  2.8769E-003  
  587.50  2.8344E-003  
  588.00  2.3595E-003  
  588.50  1.7507E-003  
  589.00  1.3284E-003  
  589.50  1.1230E-003  
  590.00  1.1129E-003  
  590.50  1.1966E-003  
  591.00  1.3859E-003  
  591.50  1.6965E-003  
  592.00  2.0997E-003  
  592.50  2.4587E-003  
  593.00  2.6294E-003  
  593.50  2.4461E-003  
  594.00  2.0293E-003  
  594.50  1.5309E-003  
  595.00  1.1627E-003  
  595.50  9.6920E-004  
  596.00  9.2134E-004  
  596.50  9.4183E-004  
  597.00  9.9579E-004  
  597.50  1.1185E-003  
  598.00  1.3074E-003  
  598.50  1.5671E-003  
  599.00  1.7825E-003  
  599.50  1.8538E-003  
  600.00  1.7445E-003  
  600.50  1.4982E-003  
  601.00  1.2137E-003  
  601.50  9.7092E-004  
  602.00  8.0950E-004  
  602.50  7.2582E-004  
  603.00  6.7182E-004  
  603.50  6.6335E-004  
  604.00  6.8695E-004  
  604.50  7.3032E-004  
  605.00  7.7822E-004  
  605.50  8.4750E-004  
  606.00  9.5286E-004  
  606.50  1.1017E-003  
  607.00  1.2719E-003  
  607.50  1.5298E-003  
  608.00  1.9651E-003  
  608.50  2.7098E-003  
  609.00  4.1156E-003  
  609.50  7.2168E-003  
  610.00  1.2502E-002  
  610.50  1.9344E-002  
  611.00  2.4487E-002  
  611.50  2.5352E-002  
  612.00  2.1582E-002  
  612.50  1.6350E-002  
  613.00  1.2219E-002  
  613.50  9.8133E-003  
  614.00  8.4139E-003  
  614.50  7.3574E-003  
  615.00  6.2609E-003  
  615.50  5.0499E-003  
  616.00  3.9107E-003  
  616.50  2.9877E-003  
  617.00  2.3957E-003  
  617.50  1.9929E-003  
  618.00  1.6998E-003  
  618.50  1.5167E-003  
  619.00  1.4278E-003  
  619.50  1.4185E-003  
  620.00  1.4336E-003  
  620.50  1.4639E-003  
  621.00  1.4996E-003  
  621.50  1.5409E-003  
  622.00  1.5834E-003  
  622.50  1.6398E-003  
  623.00  1.7226E-003  
  623.50  1.7930E-003  
  624.00  1.8352E-003  
  624.50  1.8612E-003  
  625.00  1.8688E-003  
  625.50  1.9056E-003  
  626.00  1.9504E-003  
  626.50  1.9862E-003  
  627.00  1.9717E-003  
  627.50  1.9251E-003  
  628.00  1.8934E-003  
  628.50  1.8911E-003  
  629.00  1.9646E-003  
  629.50  2.2129E-003  
  630.00  2.7062E-003  
  630.50  3.1930E-003  
  631.00  3.3245E-003  
  631.50  2.8739E-003  
  632.00  2.1080E-003  
  632.50  1.3666E-003  
  633.00  8.9948E-004  
  633.50  6.5708E-004  
  634.00  5.5420E-004  
  634.50  4.9962E-004  
  635.00  4.6054E-004  
  635.50  4.3643E-004  
  636.00  4.1448E-004  
  636.50  3.8116E-004  
  637.00  3.3183E-004  
  637.50  2.9425E-004  
  638.00  2.9374E-004  
  638.50  3.1618E-004  
  639.00  3.1104E-004  
  639.50  2.8600E-004  
  640.00  2.4660E-004  
  640.50  2.3309E-004  
  641.00  2.1947E-004  
  641.50  2.2329E-004  
  642.00  2.4536E-004  
  642.50  2.6603E-004  
  643.00  2.6944E-004  
  643.50  2.4371E-004  
  644.00  2.3235E-004  
  644.50  2.1481E-004  
  645.00  2.1772E-004  
  645.50  2.0760E-004  
  646.00  1.9860E-004  
  646.50  1.8183E-004  
  647.00  1.7828E-004  
  647.50  2.2676E-004  
  648.00  2.6979E-004  
  648.50  3.2516E-004  
  649.00  4.2465E-004  
  649.50  6.3179E-004  
  650.00  8.3202E-004  
  650.50  9.0059E-004  
  651.00  7.9226E-004  
  651.50  6.4873E-004  
  652.00  5.4591E-004  
  652.50  5.0632E-004  
  653.00  4.6538E-004  
  653.50  4.2990E-004  
  654.00  3.7215E-004  
  654.50  3.2324E-004  
  655.00  2.6149E-004  
  655.50  2.4780E-004  
  656.00  2.5529E-004  
  656.50  2.6290E-004  
  657.00  2.7010E-004  
  657.50  2.6850E-004  
  658.00  2.7112E-004  
  658.50  2.5730E-004  
  659.00  2.0903E-004  
  659.50  1.6599E-004  
  660.00  1.2889E-004  
  660.50  1.4880E-004  
  661.00  2.1108E-004  
  661.50  3.2404E-004  
  662.00  4.4785E-004  
  662.50  5.3978E-004  
  663.00  5.0365E-004  
  663.50  3.9655E-004  
  664.00  2.7590E-004  
  664.50  2.3261E-004  
  665.00  2.0295E-004  
  665.50  1.6729E-004  
  666.00  1.1512E-004  
  666.50  9.6324E-005  
  667.00  6.0961E-005  
  667.50  6.6642E-005  
  668.00  8.0023E-005  
  668.50  1.3455E-004  
  669.00  1.6074E-004  
  669.50  1.5149E-004  
  670.00  1.2230E-004  
  670.50  7.9483E-005  
  671.00  4.8831E-005  
  671.50  5.5452E-005  
  672.00  8.8902E-005  
  672.50  1.1146E-004  
  673.00  1.1153E-004  
  673.50  7.7431E-005  
  674.00  6.7127E-005  
  674.50  5.7560E-005  
  675.00  5.1955E-005  
  675.50  5.7738E-005  
  676.00  4.7432E-005  
  676.50  5.0360E-005  
  677.00  3.0788E-005  
  677.50  3.5150E-006  
  678.00  0.0000E+000  
  678.50  0.0000E+000  
  679.00  2.1883E-005  
  679.50  5.2722E-005  
  680.00  1.0978E-004  
  680.50  1.4188E-004  
  681.00  1.3836E-004  
  681.50  1.0816E-004  
  682.00  7.5131E-005  
  682.50  5.2272E-005  
  683.00  6.2723E-005  
  683.50  9.3196E-005  
  684.00  9.8175E-005  
  684.50  1.0268E-004  
  685.00  8.9328E-005  
  685.50  8.6371E-005  
  686.00  1.0955E-004  
  686.50  2.1529E-004  
  687.00  3.6117E-004  
  687.50  4.4131E-004  
  688.00  4.4613E-004  
  688.50  4.0059E-004  
  689.00  3.2711E-004  
  689.50  2.2878E-004  
  690.00  1.3173E-004  
  690.50  7.1091E-005  
  691.00  4.2748E-005  
  691.50  3.2038E-005  
  692.00  3.1695E-005  
  692.50  9.0626E-005  
  693.00  2.1089E-004  
  693.50  3.1531E-004  
  694.00  2.9736E-004  
  694.50  2.2759E-004  
  695.00  1.3173E-004  
  695.50  5.4942E-005  
  696.00  3.0241E-005  
  696.50  3.6040E-005  
  697.00  2.3289E-005  
  697.50  0.0000E+000  
  698.00  0.0000E+000  
  698.50  0.0000E+000  
  699.00  0.0000E+000  
  699.50  0.0000E+000  
  700.00  3.7145E-007  
  700.50  1.5744E-005  
  701.00  1.6535E-005  
  701.50  5.2836E-005  
  702.00  9.8037E-005  
  702.50  1.1378E-004  
  703.00  1.1484E-004  
  703.50  8.9046E-005  
  704.00  1.6202E-004  
  704.50  2.4621E-004  
  705.00  3.9877E-004  
  705.50  6.0143E-004  
  706.00  9.2629E-004  
  706.50  1.1977E-003  
  707.00  1.3421E-003  
  707.50  1.3087E-003  
  708.00  1.2793E-003  
  708.50  1.2795E-003  
  709.00  1.3239E-003  
  709.50  1.2146E-003  
  710.00  9.3243E-004  
  710.50  6.3139E-004  
  711.00  5.6027E-004  
  711.50  7.4421E-004  
  712.00  9.8671E-004  
  712.50  1.0528E-003  
  713.00  9.0576E-004  
  713.50  5.7981E-004  
  714.00  3.0667E-004  
  714.50  1.5533E-004  
  715.00  1.0727E-004  
  715.50  5.8576E-005  
  716.00  8.5183E-007  
  716.50  0.0000E+000  
  717.00  0.0000E+000  
  717.50  0.0000E+000  
  718.00  0.0000E+000  
  718.50  0.0000E+000  
  719.00  0.0000E+000  
  719.50  0.0000E+000  
  720.00  0.0000E+000  
  720.50  0.0000E+000  
  721.00  0.0000E+000  
  721.50  0.0000E+000  
  722.00  0.0000E+000  
  722.50  0.0000E+000  
  723.00  0.0000E+000  
  723.50  0.0000E+000  
  724.00  0.0000E+000  
  724.50  0.0000E+000  
  725.00  0.0000E+000  
  725.50  0.0000E+000  
  726.00  0.0000E+000  
  726.50  0.0000E+000  
  727.00  0.0000E+000  
  727.50  0.0000E+000  
  728.00  0.0000E+000  
  728.50  0.0000E+000  
  729.00  0.0000E+000  
  729.50  0.0000E+000  
  730.00  0.0000E+000  
  730.50  0.0000E+000  
  731.00  0.0000E+000  
  731.50  0.0000E+000  
  732.00  0.0000E+000  
  732.50  0.0000E+000  
  733.00  0.0000E+000  
  733.50  0.0000E+000  
  734.00  0.0000E+000  
  734.50  0.0000E+000  
  735.00  0.0000E+000  
  735.50  0.0000E+000  
  736.00  0.0000E+000  
  736.50  0.0000E+000  
  737.00  0.0000E+000  
  737.50  9.7124E-008  
  738.00  4.9691E-005  
  738.50  5.9461E-005  
  739.00  3.1279E-005  
  739.50  2.8677E-005  
  740.00  2.8049E-005  
  740.50  1.1686E-006  
  741.00  0.0000E+000  
  741.50  0.0000E+000  
  742.00  0.0000E+000  
  742.50  0.0000E+000  
  743.00  0.0000E+000  
  743.50  0.0000E+000  
  744.00  0.0000E+000  
  744.50  0.0000E+000  
  745.00  0.0000E+000  
  745.50  0.0000E+000  
  746.00  0.0000E+000  
  746.50  0.0000E+000  
  747.00  0.0000E+000  
  747.50  0.0000E+000  
  748.00  0.0000E+000  
  748.50  0.0000E+000  
  749.00  0.0000E+000  
  749.50  0.0000E+000  
  750.00  4.8499E-005  
  750.50  2.0788E-004  
  751.00  2.3011E-004  
  751.50  2.0030E-004  
  752.00  1.0914E-004  
  752.50  2.9788E-006  
  753.00  0.0000E+000  
  753.50  0.0000E+000  
  754.00  0.0000E+000  
  754.50  0.0000E+000  
  755.00  0.0000E+000  
  755.50  0.0000E+000  
  756.00  0.0000E+000  
  756.50  0.0000E+000  
  757.00  0.0000E+000  
  757.50  0.0000E+000  
  758.00  0.0000E+000  
  758.50  0.0000E+000  
  759.00  0.0000E+000  
  759.50  0.0000E+000  
  760.00  0.0000E+000  
  760.50  0.0000E+000  
  761.00  0.0000E+000  
  761.50  8.9251E-006  
  762.00  8.3999E-005  
  762.50  3.0676E-004  
  763.00  6.8052E-004  
  763.50  8.4656E-004  
  764.00  7.0632E-004  
  764.50  3.7729E-004  
  765.00  8.5704E-005  
  765.50  0.0000E+000  
  766.00  0.0000E+000  
  766.50  0.0000E+000  
  767.00  0.0000E+000  
  767.50  0.0000E+000  
  768.00  0.0000E+000  
  768.50  0.0000E+000  
  769.00  0.0000E+000  
  769.50  0.0000E+000  
  770.00  0.0000E+000  
  770.50  0.0000E+000  
  771.00  0.0000E+000  
  771.50  1.8174E-005  
  772.00  1.9610E-004  
  772.50  2.5782E-004  
  773.00  2.4529E-004  
  773.50  1.6435E-004  
  774.00  1.6757E-004  
  774.50  9.7689E-005  
  775.00  6.2227E-005  
  775.50  4.7214E-005  
  776.00  2.6714E-005  
  776.50  0.0000E+000  
  777.00  0.0000E+000  
  777.50  0.0000E+000  
  778.00  7.0602E-005  
  778.50  3.2333E-005  
  779.00  0.0000E+000  
  779.50  0.0000E+000  
  780.00  0.0000E+000  
  780.50  0.0000E+000  
  781.00  0.0000E+000  
  781.50  0.0000E+000  
  782.00  0.0000E+000  
  782.50  0.0000E+000  
  783.00  0.0000E+000  
  783.50  0.0000E+000  
  784.00  0.0000E+000  
  784.50  0.0000E+000  
  785.00  0.0000E+000  
  785.50  0.0000E+000  
  786.00  0.0000E+000  
  786.50  0.0000E+000  
  787.00  0.0000E+000  
  787.50  0.0000E+000  
  788.00  0.0000E+000  
  788.50  0.0000E+000  
  789.00  0.0000E+000  
  789.50  0.0000E+000  
  790.00  0.0000E+000  
  790.50  0.0000E+000  
  791.00  0.0000E+000  
  791.50  0.0000E+000  
  792.00  0.0000E+000  
  792.50  0.0000E+000  
  793.00  0.0000E+000  
  793.50  0.0000E+000  
  794.00  4.4841E-005  
  794.50  1.5505E-004  
  795.00  1.6634E-004  
  795.50  1.6353E-005  
  796.00  0.0000E+000  
  796.50  0.0000E+000  
  797.00  0.0000E+000  
  797.50  0.0000E+000  
  798.00  0.0000E+000  
  798.50  0.0000E+000  
  799.00  0.0000E+000  
  799.50  0.0000E+000  
  800.00  2.9347E-005  
  800.50  1.9073E-004  
  801.00  2.8922E-004  
  801.50  2.5915E-004  
  802.00  1.4412E-004  
  802.50  5.5450E-005  
  803.00  0.0000E+000  
  803.50  0.0000E+000  
  804.00  0.0000E+000  
  804.50  0.0000E+000  
  805.00  0.0000E+000  
  805.50  0.0000E+000  
  806.00  0.0000E+000  
  806.50  0.0000E+000  
  807.00  0.0000E+000  
  807.50  0.0000E+000  
  808.00  0.0000E+000  
  808.50  0.0000E+000  
  809.00  0.0000E+000  
  809.50  1.6542E-004  
  810.00  3.7470E-004  
  810.50  7.4382E-004  
  811.00  1.2419E-003  
  811.50  1.5519E-003  
  812.00  1.3815E-003  
  812.50  7.9541E-004  
  813.00  2.7378E-004  
  813.50  1.5482E-005  
  814.00  0.0000E+000  
  814.50  0.0000E+000  
  815.00  0.0000E+000  
  815.50  0.0000E+000  
  816.00  0.0000E+000  
  816.50  0.0000E+000  
  817.00  0.0000E+000  
  817.50  0.0000E+000  
  818.00  0.0000E+000  
  818.50  0.0000E+000  
  819.00  0.0000E+000  
  819.50  0.0000E+000  
  820.00  0.0000E+000  
  820.50  0.0000E+000  
  821.00  0.0000E+000  
  821.50  0.0000E+000  
  822.00  0.0000E+000  
  822.50  0.0000E+000  
  823.00  0.0000E+000  
  823.50  0.0000E+000  
  824.00  0.0000E+000  
  824.50  0.0000E+000  
  825.00  0.0000E+000  
  825.50  0.0000E+000  
  826.00  0.0000E+000  
  826.50  0.0000E+000  
  827.00  0.0000E+000  
  827.50  0.0000E+000  
  828.00  0.0000E+000  
  828.50  0.0000E+000  
  829.00  0.0000E+000  
  829.50  0.0000E+000  
  830.00  0.0000E+000  
  830.50  0.0000E+000  
  831.00  0.0000E+000  
  831.50  0.0000E+000  
  832.00  0.0000E+000  
  832.50  0.0000E+000  
  833.00  0.0000E+000  
  833.50  0.0000E+000  
  834.00  6.4386E-005  
  834.50  1.0084E-005  
  835.00  0.0000E+000  
  835.50  0.0000E+000  
  836.00  0.0000E+000  
  836.50  0.0000E+000  
  837.00  0.0000E+000  
  837.50  0.0000E+000  
  838.00  0.0000E+000  
  838.50  0.0000E+000  
  839.00  0.0000E+000  
  839.50  0.0000E+000  
  840.00  4.6045E-005  
  840.50  3.8307E-004  
  841.00  3.4242E-004  
  841.50  4.3563E-004  
  842.00  4.9573E-004  
  842.50  5.6363E-004  
  843.00  2.8609E-004  
  843.50  0.0000E+000  
  844.00  0.0000E+000  
  844.50  0.0000E+000  
  845.00  0.0000E+000  
  845.50  0.0000E+000  
  846.00  0.0000E+000  
  846.50  0.0000E+000  
  847.00  0.0000E+000  
  847.50  0.0000E+000  
  848.00  0.0000E+000  
  848.50  0.0000E+000  
  849.00  0.0000E+000  
  849.50  0.0000E+000  
  850.00  0.0000E+000  
  850.50  0.0000E+000  
  851.00  0.0000E+000  
  851.50  0.0000E+000  
  852.00  0.0000E+000  
  852.50  0.0000E+000  
  853.00  0.0000E+000  
  853.50  0.0000E+000  
  854.00  0.0000E+000  
  854.50  0.0000E+000  
  855.00  0.0000E+000  
  855.50  0.0000E+000  
  856.00  0.0000E+000  
  856.50  0.0000E+000  
  857.00  0.0000E+000  
  857.50  0.0000E+000  
  858.00  0.0000E+000  
  858.50  0.0000E+000  
  859.00  0.0000E+000  
  859.50  0.0000E+000  
  860.00  0.0000E+000  
  860.50  0.0000E+000  
  861.00  0.0000E+000  
  861.50  0.0000E+000  
  862.00  0.0000E+000  
  862.50  0.0000E+000  
  863.00  0.0000E+000  
  863.50  0.0000E+000  
  864.00  0.0000E+000  
  864.50  0.0000E+000  
  865.00  0.0000E+000  
  865.50  0.0000E+000  
  866.00  0.0000E+000  
  866.50  0.0000E+000  
  867.00  0.0000E+000  
  867.50  0.0000E+000  
  868.00  0.0000E+000  
  868.50  0.0000E+000  
  869.00  0.0000E+000  
  869.50  0.0000E+000  
  870.00  0.0000E+000  
  870.50  0.0000E+000  
  871.00  0.0000E+000  
  871.50  0.0000E+000  
  872.00  0.0000E+000  
  872.50  0.0000E+000  
  873.00  0.0000E+000  
  873.50  0.0000E+000  
  874.00  0.0000E+000  
  874.50  0.0000E+000  
  875.00  0.0000E+000  
  875.50  0.0000E+000  
  876.00  0.0000E+000  
  876.50  0.0000E+000  
  877.00  0.0000E+000  
  877.50  0.0000E+000  
  878.00  0.0000E+000  
  878.50  0.0000E+000  
  879.00  0.0000E+000  
  879.50  0.0000E+000  
  880.00  0.0000E+000  
  880.50  0.0000E+000  
  881.00  0.0000E+000  
  881.50  0.0000E+000  
  882.00  0.0000E+000  
  882.50  0.0000E+000  
  883.00  0.0000E+000  
  883.50  0.0000E+000  
  884.00  0.0000E+000  
  884.50  0.0000E+000  
  885.00  0.0000E+000  
  885.50  0.0000E+000  
  886.00  0.0000E+000  
  886.50  0.0000E+000  
  887.00  0.0000E+000  
  887.50  0.0000E+000  
  888.00  0.0000E+000  
  888.50  0.0000E+000  
  889.00  0.0000E+000  
  889.50  0.0000E+000  
  890.00  0.0000E+000  
  890.50  0.0000E+000  
  891.00  0.0000E+000  
  891.50  0.0000E+000  
  892.00  0.0000E+000  
  892.50  0.0000E+000  
  893.00  0.0000E+000  
  893.50  0.0000E+000  
  894.00  0.0000E+000  
  894.50  0.0000E+000  
  895.00  0.0000E+000  
  895.50  0.0000E+000  
  896.00  0.0000E+000  
  896.50  0.0000E+000  
  897.00  0.0000E+000  
  897.50  0.0000E+000  
  898.00  0.0000E+000  
  898.50  0.0000E+000  
  899.00  0.0000E+000  
  899.50  0.0000E+000  
