
# From lspdd.org
# 
# Name: DEL Lucimed Luminette 1000Lux Luminothérapie
# Indice spectral Valeur 
# MSI 0.65 
# SLI 0.76 
# IPI 0.66 
# Pourcentage de bleu 41.4 
# Caractéristique Valeur 
# CCT calculée (K) 5846 
# CCT du fabricant (K) ND 
# Tension (V) ND 
# Puissance (W) ND 
# Efficacité lumineuse (Lum/W) 
#
# Image: '/app/system/img_2s/2522/medium_image2.JPG?1413486078'
# Image: '/app/system/img_1s/2522/medium_image1.JPG?1413486081'
# 

  273.00  0.0000E+000  
  273.50  0.0000E+000  
  274.00  0.0000E+000  
  274.50  0.0000E+000  
  275.00  0.0000E+000  
  275.50  0.0000E+000  
  276.00  0.0000E+000  
  276.50  0.0000E+000  
  277.00  0.0000E+000  
  277.50  0.0000E+000  
  278.00  0.0000E+000  
  278.50  0.0000E+000  
  279.00  0.0000E+000  
  279.50  0.0000E+000  
  280.00  0.0000E+000  
  280.50  0.0000E+000  
  281.00  0.0000E+000  
  281.50  0.0000E+000  
  282.00  0.0000E+000  
  282.50  0.0000E+000  
  283.00  0.0000E+000  
  283.50  0.0000E+000  
  284.00  0.0000E+000  
  284.50  0.0000E+000  
  285.00  0.0000E+000  
  285.50  0.0000E+000  
  286.00  0.0000E+000  
  286.50  0.0000E+000  
  287.00  0.0000E+000  
  287.50  0.0000E+000  
  288.00  0.0000E+000  
  288.50  0.0000E+000  
  289.00  0.0000E+000  
  289.50  0.0000E+000  
  290.00  0.0000E+000  
  290.50  0.0000E+000  
  291.00  0.0000E+000  
  291.50  0.0000E+000  
  292.00  0.0000E+000  
  292.50  0.0000E+000  
  293.00  0.0000E+000  
  293.50  0.0000E+000  
  294.00  0.0000E+000  
  294.50  0.0000E+000  
  295.00  0.0000E+000  
  295.50  0.0000E+000  
  296.00  0.0000E+000  
  296.50  0.0000E+000  
  297.00  0.0000E+000  
  297.50  0.0000E+000  
  298.00  0.0000E+000  
  298.50  0.0000E+000  
  299.00  0.0000E+000  
  299.50  0.0000E+000  
  300.00  0.0000E+000  
  300.50  0.0000E+000  
  301.00  9.1206E-006  
  301.50  1.3895E-005  
  302.00  3.0186E-005  
  302.50  3.2059E-005  
  303.00  2.8683E-005  
  303.50  5.6159E-005  
  304.00  8.2934E-005  
  304.50  4.8562E-005  
  305.00  1.5383E-005  
  305.50  0.0000E+000  
  306.00  0.0000E+000  
  306.50  0.0000E+000  
  307.00  0.0000E+000  
  307.50  0.0000E+000  
  308.00  0.0000E+000  
  308.50  0.0000E+000  
  309.00  0.0000E+000  
  309.50  8.9829E-007  
  310.00  5.5249E-006  
  310.50  9.4612E-006  
  311.00  0.0000E+000  
  311.50  0.0000E+000  
  312.00  0.0000E+000  
  312.50  0.0000E+000  
  313.00  0.0000E+000  
  313.50  4.1675E-005  
  314.00  7.2286E-005  
  314.50  6.2074E-005  
  315.00  2.3438E-005  
  315.50  0.0000E+000  
  316.00  8.2540E-006  
  316.50  5.6988E-005  
  317.00  9.0427E-005  
  317.50  1.1743E-004  
  318.00  6.1753E-005  
  318.50  1.5400E-005  
  319.00  2.5839E-006  
  319.50  2.6575E-005  
  320.00  3.5646E-005  
  320.50  5.3050E-005  
  321.00  4.7896E-005  
  321.50  4.0874E-005  
  322.00  8.8415E-005  
  322.50  4.4998E-005  
  323.00  8.9131E-006  
  323.50  0.0000E+000  
  324.00  0.0000E+000  
  324.50  0.0000E+000  
  325.00  0.0000E+000  
  325.50  2.5080E-006  
  326.00  1.0554E-005  
  326.50  1.3962E-006  
  327.00  0.0000E+000  
  327.50  0.0000E+000  
  328.00  0.0000E+000  
  328.50  0.0000E+000  
  329.00  4.1159E-006  
  329.50  8.5875E-006  
  330.00  4.5054E-005  
  330.50  2.8055E-005  
  331.00  1.7807E-005  
  331.50  3.0877E-005  
  332.00  3.0302E-006  
  332.50  5.9086E-006  
  333.00  0.0000E+000  
  333.50  0.0000E+000  
  334.00  0.0000E+000  
  334.50  0.0000E+000  
  335.00  1.1224E-006  
  335.50  2.6057E-005  
  336.00  5.3024E-005  
  336.50  6.5075E-005  
  337.00  4.6422E-005  
  337.50  3.2435E-005  
  338.00  3.7616E-005  
  338.50  0.0000E+000  
  339.00  0.0000E+000  
  339.50  0.0000E+000  
  340.00  0.0000E+000  
  340.50  0.0000E+000  
  341.00  0.0000E+000  
  341.50  0.0000E+000  
  342.00  0.0000E+000  
  342.50  3.7441E-006  
  343.00  3.9682E-005  
  343.50  7.9635E-005  
  344.00  1.3717E-004  
  344.50  1.2813E-004  
  345.00  7.7609E-005  
  345.50  3.1295E-005  
  346.00  9.0766E-007  
  346.50  1.8193E-005  
  347.00  2.7706E-005  
  347.50  5.4714E-005  
  348.00  4.9776E-005  
  348.50  1.4478E-005  
  349.00  1.6878E-006  
  349.50  0.0000E+000  
  350.00  0.0000E+000  
  350.50  0.0000E+000  
  351.00  0.0000E+000  
  351.50  0.0000E+000  
  352.00  3.0113E-006  
  352.50  0.0000E+000  
  353.00  0.0000E+000  
  353.50  8.9262E-006  
  354.00  0.0000E+000  
  354.50  0.0000E+000  
  355.00  0.0000E+000  
  355.50  0.0000E+000  
  356.00  0.0000E+000  
  356.50  0.0000E+000  
  357.00  8.4544E-007  
  357.50  9.7666E-006  
  358.00  3.5700E-005  
  358.50  7.3447E-005  
  359.00  1.2093E-005  
  359.50  0.0000E+000  
  360.00  0.0000E+000  
  360.50  0.0000E+000  
  361.00  0.0000E+000  
  361.50  0.0000E+000  
  362.00  0.0000E+000  
  362.50  0.0000E+000  
  363.00  3.9386E-005  
  363.50  1.8942E-005  
  364.00  3.4179E-008  
  364.50  0.0000E+000  
  365.00  0.0000E+000  
  365.50  4.4410E-006  
  366.00  3.9290E-005  
  366.50  5.8571E-005  
  367.00  3.2930E-005  
  367.50  5.6852E-006  
  368.00  3.4925E-005  
  368.50  5.8474E-005  
  369.00  8.4423E-005  
  369.50  7.7123E-005  
  370.00  5.8363E-005  
  370.50  6.7413E-005  
  371.00  1.0078E-004  
  371.50  1.2382E-004  
  372.00  1.0647E-004  
  372.50  8.2922E-005  
  373.00  1.5707E-005  
  373.50  0.0000E+000  
  374.00  0.0000E+000  
  374.50  0.0000E+000  
  375.00  0.0000E+000  
  375.50  0.0000E+000  
  376.00  1.2342E-005  
  376.50  4.8727E-005  
  377.00  6.7152E-005  
  377.50  6.6556E-005  
  378.00  6.7075E-005  
  378.50  7.8788E-005  
  379.00  9.5411E-005  
  379.50  1.0401E-004  
  380.00  4.2368E-005  
  380.50  2.0007E-006  
  381.00  2.1779E-006  
  381.50  5.2158E-005  
  382.00  1.2406E-004  
  382.50  1.9065E-004  
  383.00  1.7979E-004  
  383.50  1.7316E-004  
  384.00  1.2925E-004  
  384.50  9.1731E-005  
  385.00  5.8586E-005  
  385.50  3.8144E-005  
  386.00  1.6654E-005  
  386.50  1.3285E-005  
  387.00  1.8163E-005  
  387.50  5.5290E-005  
  388.00  8.2442E-005  
  388.50  8.6987E-005  
  389.00  4.8389E-005  
  389.50  0.0000E+000  
  390.00  0.0000E+000  
  390.50  0.0000E+000  
  391.00  0.0000E+000  
  391.50  1.5976E-005  
  392.00  4.2838E-006  
  392.50  1.9755E-005  
  393.00  6.6963E-005  
  393.50  6.1680E-005  
  394.00  1.1266E-004  
  394.50  7.2227E-005  
  395.00  7.6503E-005  
  395.50  7.6899E-005  
  396.00  6.2248E-005  
  396.50  1.1064E-004  
  397.00  8.8646E-005  
  397.50  6.6277E-005  
  398.00  7.2473E-005  
  398.50  5.2964E-005  
  399.00  7.1001E-005  
  399.50  8.7691E-005  
  400.00  1.1162E-004  
  400.50  1.2426E-004  
  401.00  1.4440E-004  
  401.50  1.2096E-004  
  402.00  1.0929E-004  
  402.50  1.1363E-004  
  403.00  5.1779E-005  
  403.50  3.0420E-005  
  404.00  2.9997E-006  
  404.50  4.7328E-005  
  405.00  1.1483E-004  
  405.50  1.8724E-004  
  406.00  2.3426E-004  
  406.50  2.8188E-004  
  407.00  3.2058E-004  
  407.50  2.8096E-004  
  408.00  2.4525E-004  
  408.50  2.0789E-004  
  409.00  2.5524E-004  
  409.50  3.5517E-004  
  410.00  4.0890E-004  
  410.50  4.5198E-004  
  411.00  4.4492E-004  
  411.50  4.5722E-004  
  412.00  4.5536E-004  
  412.50  4.3596E-004  
  413.00  4.4398E-004  
  413.50  4.3527E-004  
  414.00  4.5358E-004  
  414.50  4.7457E-004  
  415.00  4.6862E-004  
  415.50  5.5629E-004  
  416.00  6.4984E-004  
  416.50  7.3561E-004  
  417.00  8.1621E-004  
  417.50  8.6373E-004  
  418.00  9.3808E-004  
  418.50  1.0873E-003  
  419.00  1.2111E-003  
  419.50  1.3145E-003  
  420.00  1.3577E-003  
  420.50  1.3780E-003  
  421.00  1.4535E-003  
  421.50  1.5958E-003  
  422.00  1.7861E-003  
  422.50  1.9795E-003  
  423.00  2.1568E-003  
  423.50  2.3026E-003  
  424.00  2.4287E-003  
  424.50  2.5435E-003  
  425.00  2.6846E-003  
  425.50  2.9131E-003  
  426.00  3.1546E-003  
  426.50  3.4329E-003  
  427.00  3.6469E-003  
  427.50  3.8249E-003  
  428.00  4.0468E-003  
  428.50  4.2765E-003  
  429.00  4.5408E-003  
  429.50  4.8596E-003  
  430.00  5.1402E-003  
  430.50  5.4255E-003  
  431.00  5.7501E-003  
  431.50  6.0480E-003  
  432.00  6.3415E-003  
  432.50  6.7010E-003  
  433.00  7.0100E-003  
  433.50  7.3677E-003  
  434.00  7.6999E-003  
  434.50  8.0719E-003  
  435.00  8.4860E-003  
  435.50  8.9561E-003  
  436.00  9.5186E-003  
  436.50  1.0121E-002  
  437.00  1.0742E-002  
  437.50  1.1396E-002  
  438.00  1.1985E-002  
  438.50  1.2535E-002  
  439.00  1.3127E-002  
  439.50  1.3748E-002  
  440.00  1.4525E-002  
  440.50  1.5373E-002  
  441.00  1.6166E-002  
  441.50  1.6908E-002  
  442.00  1.7593E-002  
  442.50  1.8237E-002  
  443.00  1.8977E-002  
  443.50  1.9604E-002  
  444.00  2.0190E-002  
  444.50  2.0640E-002  
  445.00  2.0935E-002  
  445.50  2.1182E-002  
  446.00  2.1331E-002  
  446.50  2.1383E-002  
  447.00  2.1367E-002  
  447.50  2.1244E-002  
  448.00  2.1048E-002  
  448.50  2.0707E-002  
  449.00  2.0221E-002  
  449.50  1.9650E-002  
  450.00  1.9031E-002  
  450.50  1.8440E-002  
  451.00  1.7798E-002  
  451.50  1.7074E-002  
  452.00  1.6298E-002  
  452.50  1.5553E-002  
  453.00  1.4836E-002  
  453.50  1.4107E-002  
  454.00  1.3408E-002  
  454.50  1.2681E-002  
  455.00  1.2019E-002  
  455.50  1.1380E-002  
  456.00  1.0765E-002  
  456.50  1.0240E-002  
  457.00  9.7830E-003  
  457.50  9.3898E-003  
  458.00  8.9779E-003  
  458.50  8.5394E-003  
  459.00  8.1203E-003  
  459.50  7.7146E-003  
  460.00  7.4147E-003  
  460.50  7.1903E-003  
  461.00  6.9894E-003  
  461.50  6.7720E-003  
  462.00  6.5215E-003  
  462.50  6.2895E-003  
  463.00  6.1054E-003  
  463.50  5.9354E-003  
  464.00  5.7561E-003  
  464.50  5.5512E-003  
  465.00  5.3623E-003  
  465.50  5.1685E-003  
  466.00  4.9696E-003  
  466.50  4.8026E-003  
  467.00  4.6156E-003  
  467.50  4.4364E-003  
  468.00  4.2401E-003  
  468.50  4.0544E-003  
  469.00  3.9287E-003  
  469.50  3.7812E-003  
  470.00  3.6477E-003  
  470.50  3.5279E-003  
  471.00  3.4395E-003  
  471.50  3.3594E-003  
  472.00  3.2297E-003  
  472.50  3.0978E-003  
  473.00  2.9857E-003  
  473.50  2.9301E-003  
  474.00  2.8799E-003  
  474.50  2.8069E-003  
  475.00  2.6996E-003  
  475.50  2.6263E-003  
  476.00  2.5675E-003  
  476.50  2.5085E-003  
  477.00  2.4522E-003  
  477.50  2.3953E-003  
  478.00  2.3791E-003  
  478.50  2.3898E-003  
  479.00  2.3582E-003  
  479.50  2.3377E-003  
  480.00  2.3054E-003  
  480.50  2.2954E-003  
  481.00  2.2818E-003  
  481.50  2.2950E-003  
  482.00  2.3138E-003  
  482.50  2.2841E-003  
  483.00  2.2434E-003  
  483.50  2.1864E-003  
  484.00  2.1488E-003  
  484.50  2.1699E-003  
  485.00  2.1632E-003  
  485.50  2.1676E-003  
  486.00  2.1760E-003  
  486.50  2.1935E-003  
  487.00  2.2195E-003  
  487.50  2.2392E-003  
  488.00  2.2537E-003  
  488.50  2.2853E-003  
  489.00  2.3424E-003  
  489.50  2.4152E-003  
  490.00  2.4903E-003  
  490.50  2.5431E-003  
  491.00  2.5620E-003  
  491.50  2.5716E-003  
  492.00  2.6140E-003  
  492.50  2.6956E-003  
  493.00  2.7836E-003  
  493.50  2.8863E-003  
  494.00  2.9992E-003  
  494.50  3.1190E-003  
  495.00  3.2177E-003  
  495.50  3.3228E-003  
  496.00  3.3666E-003  
  496.50  3.4376E-003  
  497.00  3.4905E-003  
  497.50  3.5871E-003  
  498.00  3.6831E-003  
  498.50  3.7824E-003  
  499.00  3.8991E-003  
  499.50  4.0483E-003  
  500.00  4.2069E-003  
  500.50  4.3490E-003  
  501.00  4.4619E-003  
  501.50  4.5814E-003  
  502.00  4.7010E-003  
  502.50  4.8280E-003  
  503.00  4.9665E-003  
  503.50  5.1167E-003  
  504.00  5.2737E-003  
  504.50  5.3955E-003  
  505.00  5.5413E-003  
  505.50  5.6653E-003  
  506.00  5.8229E-003  
  506.50  5.9582E-003  
  507.00  6.0765E-003  
  507.50  6.1970E-003  
  508.00  6.3303E-003  
  508.50  6.4650E-003  
  509.00  6.6040E-003  
  509.50  6.7398E-003  
  510.00  6.8853E-003  
  510.50  6.9894E-003  
  511.00  7.1106E-003  
  511.50  7.2225E-003  
  512.00  7.3791E-003  
  512.50  7.5216E-003  
  513.00  7.6749E-003  
  513.50  7.8328E-003  
  514.00  8.0129E-003  
  514.50  8.1936E-003  
  515.00  8.3337E-003  
  515.50  8.4275E-003  
  516.00  8.5134E-003  
  516.50  8.6063E-003  
  517.00  8.7334E-003  
  517.50  8.8704E-003  
  518.00  8.9604E-003  
  518.50  9.0204E-003  
  519.00  9.0924E-003  
  519.50  9.1926E-003  
  520.00  9.3040E-003  
  520.50  9.3888E-003  
  521.00  9.4686E-003  
  521.50  9.5652E-003  
  522.00  9.6914E-003  
  522.50  9.8124E-003  
  523.00  9.9102E-003  
  523.50  9.9986E-003  
  524.00  1.0091E-002  
  524.50  1.0170E-002  
  525.00  1.0247E-002  
  525.50  1.0340E-002  
  526.00  1.0417E-002  
  526.50  1.0492E-002  
  527.00  1.0560E-002  
  527.50  1.0617E-002  
  528.00  1.0687E-002  
  528.50  1.0752E-002  
  529.00  1.0780E-002  
  529.50  1.0811E-002  
  530.00  1.0831E-002  
  530.50  1.0891E-002  
  531.00  1.0979E-002  
  531.50  1.1056E-002  
  532.00  1.1090E-002  
  532.50  1.1107E-002  
  533.00  1.1127E-002  
  533.50  1.1175E-002  
  534.00  1.1225E-002  
  534.50  1.1302E-002  
  535.00  1.1353E-002  
  535.50  1.1364E-002  
  536.00  1.1367E-002  
  536.50  1.1343E-002  
  537.00  1.1343E-002  
  537.50  1.1372E-002  
  538.00  1.1390E-002  
  538.50  1.1454E-002  
  539.00  1.1498E-002  
  539.50  1.1564E-002  
  540.00  1.1592E-002  
  540.50  1.1599E-002  
  541.00  1.1587E-002  
  541.50  1.1555E-002  
  542.00  1.1579E-002  
  542.50  1.1578E-002  
  543.00  1.1607E-002  
  543.50  1.1613E-002  
  544.00  1.1626E-002  
  544.50  1.1650E-002  
  545.00  1.1678E-002  
  545.50  1.1695E-002  
  546.00  1.1690E-002  
  546.50  1.1690E-002  
  547.00  1.1711E-002  
  547.50  1.1734E-002  
  548.00  1.1741E-002  
  548.50  1.1748E-002  
  549.00  1.1776E-002  
  549.50  1.1799E-002  
  550.00  1.1761E-002  
  550.50  1.1758E-002  
  551.00  1.1760E-002  
  551.50  1.1782E-002  
  552.00  1.1778E-002  
  552.50  1.1732E-002  
  553.00  1.1718E-002  
  553.50  1.1736E-002  
  554.00  1.1733E-002  
  554.50  1.1739E-002  
  555.00  1.1680E-002  
  555.50  1.1672E-002  
  556.00  1.1724E-002  
  556.50  1.1792E-002  
  557.00  1.1849E-002  
  557.50  1.1844E-002  
  558.00  1.1811E-002  
  558.50  1.1810E-002  
  559.00  1.1824E-002  
  559.50  1.1858E-002  
  560.00  1.1858E-002  
  560.50  1.1850E-002  
  561.00  1.1792E-002  
  561.50  1.1756E-002  
  562.00  1.1744E-002  
  562.50  1.1723E-002  
  563.00  1.1701E-002  
  563.50  1.1684E-002  
  564.00  1.1676E-002  
  564.50  1.1692E-002  
  565.00  1.1685E-002  
  565.50  1.1662E-002  
  566.00  1.1624E-002  
  566.50  1.1581E-002  
  567.00  1.1519E-002  
  567.50  1.1496E-002  
  568.00  1.1481E-002  
  568.50  1.1501E-002  
  569.00  1.1501E-002  
  569.50  1.1480E-002  
  570.00  1.1478E-002  
  570.50  1.1476E-002  
  571.00  1.1493E-002  
  571.50  1.1483E-002  
  572.00  1.1478E-002  
  572.50  1.1419E-002  
  573.00  1.1383E-002  
  573.50  1.1299E-002  
  574.00  1.1258E-002  
  574.50  1.1218E-002  
  575.00  1.1200E-002  
  575.50  1.1167E-002  
  576.00  1.1131E-002  
  576.50  1.1126E-002  
  577.00  1.1108E-002  
  577.50  1.1099E-002  
  578.00  1.1041E-002  
  578.50  1.0979E-002  
  579.00  1.0936E-002  
  579.50  1.0876E-002  
  580.00  1.0850E-002  
  580.50  1.0795E-002  
  581.00  1.0766E-002  
  581.50  1.0766E-002  
  582.00  1.0735E-002  
  582.50  1.0687E-002  
  583.00  1.0560E-002  
  583.50  1.0491E-002  
  584.00  1.0470E-002  
  584.50  1.0475E-002  
  585.00  1.0472E-002  
  585.50  1.0432E-002  
  586.00  1.0386E-002  
  586.50  1.0356E-002  
  587.00  1.0300E-002  
  587.50  1.0256E-002  
  588.00  1.0190E-002  
  588.50  1.0089E-002  
  589.00  9.9940E-003  
  589.50  9.9570E-003  
  590.00  9.9665E-003  
  590.50  9.9539E-003  
  591.00  9.9004E-003  
  591.50  9.8195E-003  
  592.00  9.8111E-003  
  592.50  9.7611E-003  
  593.00  9.7056E-003  
  593.50  9.6555E-003  
  594.00  9.6380E-003  
  594.50  9.5786E-003  
  595.00  9.4463E-003  
  595.50  9.3434E-003  
  596.00  9.2911E-003  
  596.50  9.2908E-003  
  597.00  9.2371E-003  
  597.50  9.1888E-003  
  598.00  9.1241E-003  
  598.50  9.0327E-003  
  599.00  8.9400E-003  
  599.50  8.8944E-003  
  600.00  8.8797E-003  
  600.50  8.8089E-003  
  601.00  8.7216E-003  
  601.50  8.6055E-003  
  602.00  8.5558E-003  
  602.50  8.5405E-003  
  603.00  8.5367E-003  
  603.50  8.5143E-003  
  604.00  8.4343E-003  
  604.50  8.3209E-003  
  605.00  8.2358E-003  
  605.50  8.1238E-003  
  606.00  8.0296E-003  
  606.50  7.9565E-003  
  607.00  7.9124E-003  
  607.50  7.8849E-003  
  608.00  7.7951E-003  
  608.50  7.6905E-003  
  609.00  7.6209E-003  
  609.50  7.5879E-003  
  610.00  7.5717E-003  
  610.50  7.5814E-003  
  611.00  7.5629E-003  
  611.50  7.4814E-003  
  612.00  7.3418E-003  
  612.50  7.2001E-003  
  613.00  7.1050E-003  
  613.50  7.0017E-003  
  614.00  6.9004E-003  
  614.50  6.8493E-003  
  615.00  6.8316E-003  
  615.50  6.8268E-003  
  616.00  6.8140E-003  
  616.50  6.7733E-003  
  617.00  6.7177E-003  
  617.50  6.6130E-003  
  618.00  6.5089E-003  
  618.50  6.3849E-003  
  619.00  6.3061E-003  
  619.50  6.2680E-003  
  620.00  6.2330E-003  
  620.50  6.1994E-003  
  621.00  6.1249E-003  
  621.50  6.0728E-003  
  622.00  6.0036E-003  
  622.50  5.9474E-003  
  623.00  5.8987E-003  
  623.50  5.8646E-003  
  624.00  5.8051E-003  
  624.50  5.7210E-003  
  625.00  5.6063E-003  
  625.50  5.5317E-003  
  626.00  5.5318E-003  
  626.50  5.5370E-003  
  627.00  5.5028E-003  
  627.50  5.3981E-003  
  628.00  5.3183E-003  
  628.50  5.2631E-003  
  629.00  5.1714E-003  
  629.50  5.0645E-003  
  630.00  5.0056E-003  
  630.50  5.0074E-003  
  631.00  4.9768E-003  
  631.50  4.8701E-003  
  632.00  4.7376E-003  
  632.50  4.6699E-003  
  633.00  4.6385E-003  
  633.50  4.5983E-003  
  634.00  4.5546E-003  
  634.50  4.5156E-003  
  635.00  4.4806E-003  
  635.50  4.4186E-003  
  636.00  4.3543E-003  
  636.50  4.3275E-003  
  637.00  4.2668E-003  
  637.50  4.1548E-003  
  638.00  4.0405E-003  
  638.50  4.0327E-003  
  639.00  4.0896E-003  
  639.50  4.0949E-003  
  640.00  4.0450E-003  
  640.50  3.9926E-003  
  641.00  3.9390E-003  
  641.50  3.8725E-003  
  642.00  3.7725E-003  
  642.50  3.7399E-003  
  643.00  3.6904E-003  
  643.50  3.6184E-003  
  644.00  3.5410E-003  
  644.50  3.4700E-003  
  645.00  3.4534E-003  
  645.50  3.4706E-003  
  646.00  3.4714E-003  
  646.50  3.3949E-003  
  647.00  3.2817E-003  
  647.50  3.2388E-003  
  648.00  3.3222E-003  
  648.50  3.3621E-003  
  649.00  3.3077E-003  
  649.50  3.1978E-003  
  650.00  3.1048E-003  
  650.50  3.0401E-003  
  651.00  2.9876E-003  
  651.50  2.9560E-003  
  652.00  2.9699E-003  
  652.50  2.9605E-003  
  653.00  2.9853E-003  
  653.50  2.9568E-003  
  654.00  2.8811E-003  
  654.50  2.7168E-003  
  655.00  2.6166E-003  
  655.50  2.6540E-003  
  656.00  2.6875E-003  
  656.50  2.6573E-003  
  657.00  2.5477E-003  
  657.50  2.5093E-003  
  658.00  2.5236E-003  
  658.50  2.5489E-003  
  659.00  2.5551E-003  
  659.50  2.5234E-003  
  660.00  2.4705E-003  
  660.50  2.3731E-003  
  661.00  2.3459E-003  
  661.50  2.2927E-003  
  662.00  2.3209E-003  
  662.50  2.2838E-003  
  663.00  2.2882E-003  
  663.50  2.2212E-003  
  664.00  2.1285E-003  
  664.50  2.0481E-003  
  665.00  2.0337E-003  
  665.50  2.0540E-003  
  666.00  2.0702E-003  
  666.50  2.0420E-003  
  667.00  2.0140E-003  
  667.50  1.9422E-003  
  668.00  1.8602E-003  
  668.50  1.8430E-003  
  669.00  1.8507E-003  
  669.50  1.8483E-003  
  670.00  1.7909E-003  
  670.50  1.7894E-003  
  671.00  1.8320E-003  
  671.50  1.8758E-003  
  672.00  1.8318E-003  
  672.50  1.7361E-003  
  673.00  1.6834E-003  
  673.50  1.6622E-003  
  674.00  1.6600E-003  
  674.50  1.6075E-003  
  675.00  1.5778E-003  
  675.50  1.5933E-003  
  676.00  1.6127E-003  
  676.50  1.5684E-003  
  677.00  1.4832E-003  
  677.50  1.4316E-003  
  678.00  1.4410E-003  
  678.50  1.4914E-003  
  679.00  1.4883E-003  
  679.50  1.4592E-003  
  680.00  1.3863E-003  
  680.50  1.3789E-003  
  681.00  1.3406E-003  
  681.50  1.2975E-003  
  682.00  1.2138E-003  
  682.50  1.1510E-003  
  683.00  1.1309E-003  
  683.50  1.1117E-003  
  684.00  1.1541E-003  
  684.50  1.1907E-003  
  685.00  1.2172E-003  
  685.50  1.1545E-003  
  686.00  1.0431E-003  
  686.50  1.0013E-003  
  687.00  1.0577E-003  
  687.50  1.1256E-003  
  688.00  1.1395E-003  
  688.50  1.1237E-003  
  689.00  1.0194E-003  
  689.50  9.3915E-004  
  690.00  8.5445E-004  
  690.50  8.7225E-004  
  691.00  8.7278E-004  
  691.50  9.0604E-004  
  692.00  9.3423E-004  
  692.50  9.7123E-004  
  693.00  9.6517E-004  
  693.50  9.6925E-004  
  694.00  1.0098E-003  
  694.50  1.0348E-003  
  695.00  9.8745E-004  
  695.50  8.3499E-004  
  696.00  7.2629E-004  
  696.50  7.8498E-004  
  697.00  8.8378E-004  
  697.50  9.1758E-004  
  698.00  8.8145E-004  
  698.50  8.4054E-004  
  699.00  8.3278E-004  
  699.50  8.3127E-004  
  700.00  9.0347E-004  
  700.50  9.8339E-004  
  701.00  9.6851E-004  
  701.50  8.6212E-004  
  702.00  7.6786E-004  
  702.50  7.5443E-004  
  703.00  8.0416E-004  
  703.50  8.6234E-004  
  704.00  8.0415E-004  
  704.50  7.5099E-004  
  705.00  6.5642E-004  
  705.50  6.2056E-004  
  706.00  5.3710E-004  
  706.50  5.3279E-004  
  707.00  5.4467E-004  
  707.50  4.8486E-004  
  708.00  4.5280E-004  
  708.50  5.0779E-004  
  709.00  6.1613E-004  
  709.50  6.4002E-004  
  710.00  6.6529E-004  
  710.50  6.6407E-004  
  711.00  6.4160E-004  
  711.50  5.5674E-004  
  712.00  5.4675E-004  
  712.50  6.0071E-004  
  713.00  6.0271E-004  
  713.50  5.5061E-004  
  714.00  4.6884E-004  
  714.50  3.8114E-004  
  715.00  3.2902E-004  
  715.50  3.4453E-004  
  716.00  4.2272E-004  
  716.50  4.7459E-004  
  717.00  5.3734E-004  
  717.50  5.2499E-004  
  718.00  5.1180E-004  
  718.50  5.6946E-004  
  719.00  6.4102E-004  
  719.50  6.5058E-004  
  720.00  5.8891E-004  
  720.50  4.6793E-004  
  721.00  4.4562E-004  
  721.50  4.1017E-004  
  722.00  3.7756E-004  
  722.50  3.3778E-004  
  723.00  4.1821E-004  
  723.50  5.0618E-004  
  724.00  4.5632E-004  
  724.50  3.0902E-004  
  725.00  2.3357E-004  
  725.50  1.8380E-004  
  726.00  2.0040E-004  
  726.50  2.2362E-004  
  727.00  3.2807E-004  
  727.50  3.1482E-004  
  728.00  2.5899E-004  
  728.50  2.0228E-004  
  729.00  3.0203E-004  
  729.50  3.4507E-004  
  730.00  3.6028E-004  
  730.50  3.6631E-004  
  731.00  4.7938E-004  
  731.50  4.9931E-004  
  732.00  4.4387E-004  
  732.50  2.9192E-004  
  733.00  2.3559E-004  
  733.50  1.8381E-004  
  734.00  1.3575E-004  
  734.50  1.4546E-004  
  735.00  1.9362E-004  
  735.50  2.7779E-004  
  736.00  2.6570E-004  
  736.50  2.7268E-004  
  737.00  2.8329E-004  
  737.50  3.0341E-004  
  738.00  4.2741E-004  
  738.50  5.0662E-004  
  739.00  4.3736E-004  
  739.50  3.3878E-004  
  740.00  2.5588E-004  
  740.50  2.8839E-004  
  741.00  1.9351E-004  
  741.50  1.4654E-004  
  742.00  1.9574E-004  
  742.50  3.1271E-004  
  743.00  4.3140E-004  
  743.50  4.7685E-004  
  744.00  3.7547E-004  
  744.50  2.3118E-004  
  745.00  1.1965E-004  
  745.50  9.7560E-005  
  746.00  5.7986E-005  
  746.50  7.1973E-005  
  747.00  1.5933E-004  
  747.50  2.5408E-004  
  748.00  2.8602E-004  
  748.50  2.1040E-004  
  749.00  1.4923E-004  
  749.50  1.2631E-004  
  750.00  2.2785E-004  
  750.50  2.7186E-004  
  751.00  1.9522E-004  
  751.50  4.0742E-005  
  752.00  1.3586E-006  
  752.50  1.4754E-004  
  753.00  2.4003E-004  
  753.50  2.9115E-004  
  754.00  2.9249E-004  
  754.50  3.0760E-004  
  755.00  2.2570E-004  
  755.50  2.2810E-004  
  756.00  3.1436E-004  
  756.50  2.5352E-004  
  757.00  1.2555E-004  
  757.50  6.2575E-005  
  758.00  1.4673E-004  
  758.50  2.7808E-004  
  759.00  3.5156E-004  
  759.50  4.1367E-004  
  760.00  2.6141E-004  
  760.50  2.0918E-004  
  761.00  1.7804E-004  
  761.50  2.5465E-004  
  762.00  2.7618E-004  
  762.50  3.2125E-004  
  763.00  3.4132E-004  
  763.50  3.0549E-004  
  764.00  2.1379E-004  
  764.50  6.8785E-005  
  765.00  1.6642E-004  
  765.50  2.6504E-004  
  766.00  3.1963E-004  
  766.50  1.8772E-004  
  767.00  1.7851E-004  
  767.50  6.6912E-005  
  768.00  8.6841E-005  
  768.50  9.4987E-005  
  769.00  1.3473E-004  
  769.50  1.2274E-004  
  770.00  3.3610E-006  
  770.50  5.7209E-005  
  771.00  6.3191E-006  
  771.50  0.0000E+000  
  772.00  0.0000E+000  
  772.50  0.0000E+000  
  773.00  3.3865E-005  
  773.50  1.2497E-004  
  774.00  2.4521E-004  
  774.50  1.4001E-004  
  775.00  6.6176E-005  
  775.50  2.5849E-005  
  776.00  5.8409E-005  
  776.50  1.0512E-004  
  777.00  9.6664E-005  
  777.50  1.8793E-004  
  778.00  1.0206E-004  
  778.50  0.0000E+000  
  779.00  0.0000E+000  
  779.50  0.0000E+000  
  780.00  0.0000E+000  
  780.50  1.9233E-006  
  781.00  2.3202E-005  
  781.50  6.0846E-005  
  782.00  4.8356E-006  
  782.50  3.8207E-005  
  783.00  3.0882E-006  
  783.50  1.2657E-005  
  784.00  2.6273E-005  
  784.50  2.5437E-005  
  785.00  0.0000E+000  
  785.50  0.0000E+000  
  786.00  0.0000E+000  
  786.50  0.0000E+000  
  787.00  0.0000E+000  
  787.50  0.0000E+000  
  788.00  0.0000E+000  
  788.50  0.0000E+000  
  789.00  0.0000E+000  
  789.50  0.0000E+000  
  790.00  0.0000E+000  
  790.50  0.0000E+000  
  791.00  1.0189E-005  
  791.50  8.2673E-005  
  792.00  7.5012E-005  
  792.50  5.8968E-005  
  793.00  2.0302E-004  
  793.50  1.6698E-004  
  794.00  2.6503E-005  
  794.50  0.0000E+000  
  795.00  0.0000E+000  
  795.50  0.0000E+000  
  796.00  0.0000E+000  
  796.50  3.7812E-006  
  797.00  5.7483E-006  
  797.50  1.0946E-004  
  798.00  2.2924E-004  
  798.50  2.4671E-005  
  799.00  0.0000E+000  
  799.50  0.0000E+000  
  800.00  0.0000E+000  
  800.50  0.0000E+000  
  801.00  0.0000E+000  
  801.50  3.3721E-005  
  802.00  1.1151E-004  
  802.50  2.2533E-004  
  803.00  8.2947E-005  
  803.50  0.0000E+000  
  804.00  0.0000E+000  
  804.50  0.0000E+000  
  805.00  0.0000E+000  
  805.50  0.0000E+000  
  806.00  0.0000E+000  
  806.50  0.0000E+000  
  807.00  3.3343E-005  
  807.50  1.1987E-004  
  808.00  1.3329E-005  
  808.50  1.8073E-005  
  809.00  2.4394E-004  
  809.50  4.9313E-004  
  810.00  2.9058E-004  
  810.50  8.6231E-005  
  811.00  0.0000E+000  
  811.50  1.8897E-005  
  812.00  0.0000E+000  
  812.50  0.0000E+000  
  813.00  0.0000E+000  
  813.50  0.0000E+000  
  814.00  0.0000E+000  
  814.50  0.0000E+000  
  815.00  0.0000E+000  
  815.50  0.0000E+000  
  816.00  0.0000E+000  
  816.50  0.0000E+000  
  817.00  9.0942E-007  
  817.50  3.4617E-005  
  818.00  6.2247E-005  
  818.50  5.6292E-005  
  819.00  1.4366E-004  
  819.50  5.2131E-005  
  820.00  0.0000E+000  
  820.50  0.0000E+000  
  821.00  0.0000E+000  
  821.50  0.0000E+000  
  822.00  0.0000E+000  
  822.50  8.5172E-005  
  823.00  1.6272E-005  
  823.50  0.0000E+000  
  824.00  0.0000E+000  
  824.50  4.3578E-004  
  825.00  6.6080E-004  
  825.50  5.9277E-004  
  826.00  5.5289E-004  
  826.50  5.9754E-004  
  827.00  3.2936E-004  
  827.50  1.5070E-004  
  828.00  4.5589E-005  
  828.50  6.0940E-005  
  829.00  0.0000E+000  
  829.50  0.0000E+000  
  830.00  0.0000E+000  
  830.50  0.0000E+000  
  831.00  1.8904E-004  
  831.50  3.1641E-004  
  832.00  3.4598E-005  
  832.50  0.0000E+000  
  833.00  0.0000E+000  
  833.50  1.9339E-004  
  834.00  5.7688E-004  
  834.50  5.5243E-004  
  835.00  3.4899E-005  
  835.50  0.0000E+000  
  836.00  0.0000E+000  
  836.50  0.0000E+000  
  837.00  0.0000E+000  
  837.50  0.0000E+000  
  838.00  0.0000E+000  
  838.50  4.5634E-004  
  839.00  0.0000E+000  
  839.50  0.0000E+000  
  840.00  0.0000E+000  
  840.50  0.0000E+000  
  841.00  1.2333E-005  
  841.50  1.1666E-005  
  842.00  0.0000E+000  
  842.50  0.0000E+000  
  843.00  2.2700E-004  
  843.50  5.5051E-004  
  844.00  3.1521E-004  
  844.50  0.0000E+000  
  845.00  0.0000E+000  
  845.50  3.4204E-005  
  846.00  7.0959E-005  
  846.50  0.0000E+000  
  847.00  0.0000E+000  
  847.50  0.0000E+000  
  848.00  6.1389E-005  
  848.50  1.2933E-005  
  849.00  0.0000E+000  
  849.50  0.0000E+000  
  850.00  0.0000E+000  
  850.50  0.0000E+000  
  851.00  2.4762E-005  
  851.50  2.0663E-005  
  852.00  0.0000E+000  
  852.50  0.0000E+000  
  853.00  0.0000E+000  
  853.50  0.0000E+000  
  854.00  4.4195E-005  
  854.50  1.1938E-005  
  855.00  0.0000E+000  
  855.50  1.2886E-005  
  856.00  0.0000E+000  
  856.50  0.0000E+000  
  857.00  0.0000E+000  
  857.50  3.6901E-005  
  858.00  0.0000E+000  
  858.50  0.0000E+000  
  859.00  0.0000E+000  
  859.50  0.0000E+000  
  860.00  0.0000E+000  
  860.50  4.8266E-004  
  861.00  6.8515E-004  
  861.50  4.1327E-004  
  862.00  3.1404E-004  
  862.50  1.7578E-005  
  863.00  1.3895E-004  
  863.50  2.2637E-004  
  864.00  1.4613E-004  
  864.50  0.0000E+000  
  865.00  0.0000E+000  
  865.50  0.0000E+000  
  866.00  7.8633E-005  
  866.50  1.1789E-004  
  867.00  3.9838E-005  
  867.50  3.3222E-005  
  868.00  4.4557E-005  
  868.50  5.2929E-004  
  869.00  7.8590E-004  
  869.50  5.7567E-004  
  870.00  0.0000E+000  
  870.50  0.0000E+000  
  871.00  0.0000E+000  
  871.50  0.0000E+000  
  872.00  0.0000E+000  
  872.50  3.0805E-005  
  873.00  9.7035E-004  
  873.50  5.4189E-004  
  874.00  0.0000E+000  
  874.50  0.0000E+000  
  875.00  6.7822E-004  
  875.50  4.6496E-004  
  876.00  2.2420E-004  
  876.50  8.8244E-005  
  877.00  1.6710E-004  
  877.50  0.0000E+000  
  878.00  0.0000E+000  
  878.50  0.0000E+000  
  879.00  0.0000E+000  
  879.50  0.0000E+000  
  880.00  0.0000E+000  
  880.50  0.0000E+000  
  881.00  2.7312E-004  
  881.50  1.7706E-004  
  882.00  0.0000E+000  
  882.50  0.0000E+000  
  883.00  0.0000E+000  
  883.50  0.0000E+000  
  884.00  0.0000E+000  
  884.50  2.8616E-005  
  885.00  7.0505E-004  
  885.50  8.1372E-004  
  886.00  7.1976E-004  
  886.50  9.1504E-004  
  887.00  5.9041E-004  
  887.50  0.0000E+000  
  888.00  0.0000E+000  
  888.50  2.1659E-004  
  889.00  4.9943E-004  
  889.50  2.0107E-004  
  890.00  1.5318E-004  
  890.50  5.2344E-004  
  891.00  2.2274E-004  
  891.50  9.0187E-004  
  892.00  1.5868E-003  
  892.50  5.0982E-004  
  893.00  0.0000E+000  
  893.50  0.0000E+000  
  894.00  1.5418E-004  
  894.50  1.4106E-004  
  895.00  1.6467E-004  
  895.50  6.8590E-004  
  896.00  4.6268E-004  
  896.50  4.7165E-006  
  897.00  0.0000E+000  
  897.50  0.0000E+000  
  898.00  0.0000E+000  
  898.50  0.0000E+000  
  899.00  0.0000E+000  
  899.50  0.0000E+000  
