
# From lspdd.org
# 
# Name: Halo Globe R20 Domestique
# Indice spectral Valeur 
# MSI 0.30 
# SLI 0.52 
# IPI 0.92 
# Pourcentage de bleu 13.4 
# Caractéristique Valeur 
# CCT calculée (K) 2720 
# CCT du fabricant (K) 3000 
# Tension (V) 120 
# Puissance (W) 29.0 
# Efficacité lumineuse (Lum/W) 10.7 
#
# Image: '/app/system/img_2s/2524/medium_image2.jpg?1413486089'
# Image: '/app/system/img_1s/2524/medium_image1.JPG?1413486090'
# 

  273.00  0.0000E+000  
  273.50  0.0000E+000  
  274.00  0.0000E+000  
  274.50  0.0000E+000  
  275.00  0.0000E+000  
  275.50  0.0000E+000  
  276.00  0.0000E+000  
  276.50  0.0000E+000  
  277.00  0.0000E+000  
  277.50  0.0000E+000  
  278.00  0.0000E+000  
  278.50  0.0000E+000  
  279.00  0.0000E+000  
  279.50  0.0000E+000  
  280.00  0.0000E+000  
  280.50  0.0000E+000  
  281.00  0.0000E+000  
  281.50  0.0000E+000  
  282.00  0.0000E+000  
  282.50  0.0000E+000  
  283.00  0.0000E+000  
  283.50  0.0000E+000  
  284.00  0.0000E+000  
  284.50  0.0000E+000  
  285.00  0.0000E+000  
  285.50  0.0000E+000  
  286.00  0.0000E+000  
  286.50  0.0000E+000  
  287.00  0.0000E+000  
  287.50  0.0000E+000  
  288.00  0.0000E+000  
  288.50  0.0000E+000  
  289.00  0.0000E+000  
  289.50  0.0000E+000  
  290.00  0.0000E+000  
  290.50  0.0000E+000  
  291.00  0.0000E+000  
  291.50  0.0000E+000  
  292.00  0.0000E+000  
  292.50  0.0000E+000  
  293.00  0.0000E+000  
  293.50  0.0000E+000  
  294.00  0.0000E+000  
  294.50  0.0000E+000  
  295.00  0.0000E+000  
  295.50  0.0000E+000  
  296.00  0.0000E+000  
  296.50  0.0000E+000  
  297.00  0.0000E+000  
  297.50  0.0000E+000  
  298.00  0.0000E+000  
  298.50  0.0000E+000  
  299.00  0.0000E+000  
  299.50  0.0000E+000  
  300.00  0.0000E+000  
  300.50  0.0000E+000  
  301.00  0.0000E+000  
  301.50  2.0343E-007  
  302.00  3.1567E-007  
  302.50  0.0000E+000  
  303.00  0.0000E+000  
  303.50  0.0000E+000  
  304.00  0.0000E+000  
  304.50  0.0000E+000  
  305.00  0.0000E+000  
  305.50  0.0000E+000  
  306.00  0.0000E+000  
  306.50  0.0000E+000  
  307.00  0.0000E+000  
  307.50  0.0000E+000  
  308.00  0.0000E+000  
  308.50  0.0000E+000  
  309.00  0.0000E+000  
  309.50  1.6843E-006  
  310.00  2.0057E-005  
  310.50  6.9520E-006  
  311.00  0.0000E+000  
  311.50  0.0000E+000  
  312.00  0.0000E+000  
  312.50  0.0000E+000  
  313.00  1.2280E-005  
  313.50  7.3778E-005  
  314.00  1.4720E-004  
  314.50  1.7745E-004  
  315.00  1.2745E-004  
  315.50  5.7547E-005  
  316.00  1.5540E-005  
  316.50  3.7552E-005  
  317.00  5.9010E-005  
  317.50  4.1319E-005  
  318.00  7.8920E-006  
  318.50  0.0000E+000  
  319.00  1.6286E-005  
  319.50  1.1501E-004  
  320.00  2.4114E-004  
  320.50  2.4819E-004  
  321.00  2.1858E-004  
  321.50  1.5908E-004  
  322.00  1.0513E-004  
  322.50  1.3660E-004  
  323.00  1.5802E-004  
  323.50  1.6005E-004  
  324.00  1.5402E-004  
  324.50  1.4975E-004  
  325.00  1.8344E-004  
  325.50  2.2130E-004  
  326.00  2.0166E-004  
  326.50  2.1254E-004  
  327.00  2.0563E-004  
  327.50  2.1346E-004  
  328.00  2.5480E-004  
  328.50  2.4499E-004  
  329.00  2.8797E-004  
  329.50  3.2552E-004  
  330.00  3.5965E-004  
  330.50  4.1606E-004  
  331.00  4.4484E-004  
  331.50  4.7717E-004  
  332.00  4.9008E-004  
  332.50  4.8948E-004  
  333.00  5.1965E-004  
  333.50  5.9277E-004  
  334.00  5.9339E-004  
  334.50  5.3936E-004  
  335.00  4.7481E-004  
  335.50  4.1826E-004  
  336.00  4.2735E-004  
  336.50  4.8569E-004  
  337.00  5.2207E-004  
  337.50  5.6223E-004  
  338.00  6.0594E-004  
  338.50  6.2427E-004  
  339.00  6.6672E-004  
  339.50  6.6481E-004  
  340.00  6.9052E-004  
  340.50  6.7944E-004  
  341.00  6.5544E-004  
  341.50  6.4478E-004  
  342.00  6.3061E-004  
  342.50  6.8826E-004  
  343.00  7.3024E-004  
  343.50  7.8856E-004  
  344.00  8.1684E-004  
  344.50  8.9685E-004  
  345.00  9.9207E-004  
  345.50  1.0392E-003  
  346.00  1.0496E-003  
  346.50  9.8799E-004  
  347.00  9.7982E-004  
  347.50  1.0232E-003  
  348.00  1.0662E-003  
  348.50  1.0879E-003  
  349.00  1.1269E-003  
  349.50  1.1209E-003  
  350.00  1.1615E-003  
  350.50  1.1806E-003  
  351.00  1.2122E-003  
  351.50  1.2842E-003  
  352.00  1.4014E-003  
  352.50  1.4493E-003  
  353.00  1.4503E-003  
  353.50  1.4935E-003  
  354.00  1.4728E-003  
  354.50  1.4926E-003  
  355.00  1.4949E-003  
  355.50  1.4542E-003  
  356.00  1.5365E-003  
  356.50  1.6103E-003  
  357.00  1.6866E-003  
  357.50  1.7292E-003  
  358.00  1.6939E-003  
  358.50  1.6666E-003  
  359.00  1.6917E-003  
  359.50  1.7523E-003  
  360.00  1.8799E-003  
  360.50  1.9379E-003  
  361.00  1.9230E-003  
  361.50  1.9577E-003  
  362.00  1.9784E-003  
  362.50  2.0401E-003  
  363.00  2.0956E-003  
  363.50  2.1268E-003  
  364.00  2.1800E-003  
  364.50  2.1819E-003  
  365.00  2.1548E-003  
  365.50  2.1214E-003  
  366.00  2.1307E-003  
  366.50  2.2133E-003  
  367.00  2.2469E-003  
  367.50  2.3121E-003  
  368.00  2.3884E-003  
  368.50  2.4811E-003  
  369.00  2.5843E-003  
  369.50  2.6338E-003  
  370.00  2.6331E-003  
  370.50  2.5952E-003  
  371.00  2.5855E-003  
  371.50  2.5697E-003  
  372.00  2.5963E-003  
  372.50  2.6832E-003  
  373.00  2.7409E-003  
  373.50  2.7944E-003  
  374.00  2.8257E-003  
  374.50  2.8598E-003  
  375.00  2.9120E-003  
  375.50  2.9433E-003  
  376.00  2.9367E-003  
  376.50  2.9195E-003  
  377.00  2.9974E-003  
  377.50  3.0488E-003  
  378.00  3.0824E-003  
  378.50  3.1091E-003  
  379.00  3.0733E-003  
  379.50  3.1214E-003  
  380.00  3.2327E-003  
  380.50  3.3403E-003  
  381.00  3.4259E-003  
  381.50  3.4663E-003  
  382.00  3.5070E-003  
  382.50  3.5056E-003  
  383.00  3.5265E-003  
  383.50  3.5722E-003  
  384.00  3.5765E-003  
  384.50  3.6555E-003  
  385.00  3.7495E-003  
  385.50  3.7961E-003  
  386.00  3.8640E-003  
  386.50  3.9469E-003  
  387.00  4.0234E-003  
  387.50  4.1359E-003  
  388.00  4.1775E-003  
  388.50  4.2036E-003  
  389.00  4.2120E-003  
  389.50  4.1919E-003  
  390.00  4.2204E-003  
  390.50  4.3037E-003  
  391.00  4.3875E-003  
  391.50  4.4402E-003  
  392.00  4.4117E-003  
  392.50  4.4617E-003  
  393.00  4.5666E-003  
  393.50  4.7571E-003  
  394.00  4.9140E-003  
  394.50  4.9311E-003  
  395.00  4.9385E-003  
  395.50  4.9333E-003  
  396.00  4.9302E-003  
  396.50  4.9817E-003  
  397.00  5.0212E-003  
  397.50  5.0931E-003  
  398.00  5.1500E-003  
  398.50  5.1355E-003  
  399.00  5.1718E-003  
  399.50  5.2309E-003  
  400.00  5.2765E-003  
  400.50  5.3554E-003  
  401.00  5.3541E-003  
  401.50  5.3897E-003  
  402.00  5.4537E-003  
  402.50  5.5562E-003  
  403.00  5.6804E-003  
  403.50  5.7644E-003  
  404.00  5.8060E-003  
  404.50  5.8240E-003  
  405.00  5.8334E-003  
  405.50  5.9020E-003  
  406.00  5.9718E-003  
  406.50  6.0496E-003  
  407.00  6.1531E-003  
  407.50  6.2217E-003  
  408.00  6.3100E-003  
  408.50  6.3432E-003  
  409.00  6.4146E-003  
  409.50  6.4866E-003  
  410.00  6.5606E-003  
  410.50  6.6171E-003  
  411.00  6.6561E-003  
  411.50  6.7312E-003  
  412.00  6.8387E-003  
  412.50  6.9583E-003  
  413.00  7.0401E-003  
  413.50  7.1249E-003  
  414.00  7.2010E-003  
  414.50  7.2416E-003  
  415.00  7.3014E-003  
  415.50  7.3518E-003  
  416.00  7.3737E-003  
  416.50  7.4440E-003  
  417.00  7.4425E-003  
  417.50  7.4661E-003  
  418.00  7.5306E-003  
  418.50  7.6039E-003  
  419.00  7.7053E-003  
  419.50  7.8332E-003  
  420.00  7.9207E-003  
  420.50  7.9944E-003  
  421.00  8.0665E-003  
  421.50  8.1268E-003  
  422.00  8.2069E-003  
  422.50  8.2690E-003  
  423.00  8.3424E-003  
  423.50  8.3908E-003  
  424.00  8.4421E-003  
  424.50  8.5074E-003  
  425.00  8.6028E-003  
  425.50  8.7340E-003  
  426.00  8.8440E-003  
  426.50  8.9341E-003  
  427.00  9.0054E-003  
  427.50  9.1183E-003  
  428.00  9.2427E-003  
  428.50  9.3094E-003  
  429.00  9.4123E-003  
  429.50  9.4837E-003  
  430.00  9.5545E-003  
  430.50  9.6131E-003  
  431.00  9.6065E-003  
  431.50  9.6147E-003  
  432.00  9.7018E-003  
  432.50  9.8274E-003  
  433.00  9.9653E-003  
  433.50  1.0063E-002  
  434.00  1.0106E-002  
  434.50  1.0141E-002  
  435.00  1.0203E-002  
  435.50  1.0320E-002  
  436.00  1.0453E-002  
  436.50  1.0546E-002  
  437.00  1.0639E-002  
  437.50  1.0722E-002  
  438.00  1.0825E-002  
  438.50  1.0955E-002  
  439.00  1.1056E-002  
  439.50  1.1096E-002  
  440.00  1.1103E-002  
  440.50  1.1167E-002  
  441.00  1.1243E-002  
  441.50  1.1422E-002  
  442.00  1.1571E-002  
  442.50  1.1661E-002  
  443.00  1.1737E-002  
  443.50  1.1756E-002  
  444.00  1.1845E-002  
  444.50  1.1956E-002  
  445.00  1.2110E-002  
  445.50  1.2248E-002  
  446.00  1.2382E-002  
  446.50  1.2488E-002  
  447.00  1.2571E-002  
  447.50  1.2652E-002  
  448.00  1.2669E-002  
  448.50  1.2706E-002  
  449.00  1.2807E-002  
  449.50  1.2953E-002  
  450.00  1.3177E-002  
  450.50  1.3322E-002  
  451.00  1.3396E-002  
  451.50  1.3461E-002  
  452.00  1.3482E-002  
  452.50  1.3583E-002  
  453.00  1.3701E-002  
  453.50  1.3749E-002  
  454.00  1.3793E-002  
  454.50  1.3860E-002  
  455.00  1.3940E-002  
  455.50  1.4085E-002  
  456.00  1.4200E-002  
  456.50  1.4328E-002  
  457.00  1.4547E-002  
  457.50  1.4706E-002  
  458.00  1.4888E-002  
  458.50  1.4940E-002  
  459.00  1.4974E-002  
  459.50  1.5064E-002  
  460.00  1.5170E-002  
  460.50  1.5362E-002  
  461.00  1.5525E-002  
  461.50  1.5640E-002  
  462.00  1.5690E-002  
  462.50  1.5813E-002  
  463.00  1.6000E-002  
  463.50  1.6205E-002  
  464.00  1.6362E-002  
  464.50  1.6373E-002  
  465.00  1.6449E-002  
  465.50  1.6531E-002  
  466.00  1.6696E-002  
  466.50  1.6847E-002  
  467.00  1.6911E-002  
  467.50  1.6951E-002  
  468.00  1.7006E-002  
  468.50  1.7166E-002  
  469.00  1.7415E-002  
  469.50  1.7589E-002  
  470.00  1.7658E-002  
  470.50  1.7707E-002  
  471.00  1.7754E-002  
  471.50  1.7890E-002  
  472.00  1.8004E-002  
  472.50  1.8111E-002  
  473.00  1.8214E-002  
  473.50  1.8312E-002  
  474.00  1.8373E-002  
  474.50  1.8502E-002  
  475.00  1.8601E-002  
  475.50  1.8801E-002  
  476.00  1.8953E-002  
  476.50  1.9142E-002  
  477.00  1.9299E-002  
  477.50  1.9416E-002  
  478.00  1.9479E-002  
  478.50  1.9598E-002  
  479.00  1.9716E-002  
  479.50  1.9887E-002  
  480.00  2.0062E-002  
  480.50  2.0151E-002  
  481.00  2.0279E-002  
  481.50  2.0432E-002  
  482.00  2.0581E-002  
  482.50  2.0738E-002  
  483.00  2.0876E-002  
  483.50  2.1027E-002  
  484.00  2.1175E-002  
  484.50  2.1294E-002  
  485.00  2.1392E-002  
  485.50  2.1544E-002  
  486.00  2.1671E-002  
  486.50  2.1796E-002  
  487.00  2.1934E-002  
  487.50  2.2143E-002  
  488.00  2.2357E-002  
  488.50  2.2503E-002  
  489.00  2.2561E-002  
  489.50  2.2618E-002  
  490.00  2.2740E-002  
  490.50  2.2892E-002  
  491.00  2.3031E-002  
  491.50  2.3127E-002  
  492.00  2.3274E-002  
  492.50  2.3438E-002  
  493.00  2.3576E-002  
  493.50  2.3720E-002  
  494.00  2.3814E-002  
  494.50  2.4016E-002  
  495.00  2.4187E-002  
  495.50  2.4381E-002  
  496.00  2.4535E-002  
  496.50  2.4759E-002  
  497.00  2.4996E-002  
  497.50  2.5228E-002  
  498.00  2.5389E-002  
  498.50  2.5476E-002  
  499.00  2.5596E-002  
  499.50  2.5702E-002  
  500.00  2.5915E-002  
  500.50  2.6129E-002  
  501.00  2.6371E-002  
  501.50  2.6519E-002  
  502.00  2.6645E-002  
  502.50  2.6783E-002  
  503.00  2.6943E-002  
  503.50  2.7153E-002  
  504.00  2.7328E-002  
  504.50  2.7523E-002  
  505.00  2.7761E-002  
  505.50  2.7985E-002  
  506.00  2.8203E-002  
  506.50  2.8415E-002  
  507.00  2.8610E-002  
  507.50  2.8832E-002  
  508.00  2.9007E-002  
  508.50  2.9161E-002  
  509.00  2.9298E-002  
  509.50  2.9525E-002  
  510.00  2.9815E-002  
  510.50  3.0083E-002  
  511.00  3.0330E-002  
  511.50  3.0482E-002  
  512.00  3.0731E-002  
  512.50  3.1024E-002  
  513.00  3.1300E-002  
  513.50  3.1526E-002  
  514.00  3.1709E-002  
  514.50  3.1927E-002  
  515.00  3.2178E-002  
  515.50  3.2415E-002  
  516.00  3.2639E-002  
  516.50  3.2834E-002  
  517.00  3.3065E-002  
  517.50  3.3298E-002  
  518.00  3.3572E-002  
  518.50  3.3841E-002  
  519.00  3.4068E-002  
  519.50  3.4217E-002  
  520.00  3.4374E-002  
  520.50  3.4592E-002  
  521.00  3.4829E-002  
  521.50  3.5168E-002  
  522.00  3.5474E-002  
  522.50  3.5738E-002  
  523.00  3.5914E-002  
  523.50  3.6124E-002  
  524.00  3.6442E-002  
  524.50  3.6789E-002  
  525.00  3.7090E-002  
  525.50  3.7257E-002  
  526.00  3.7441E-002  
  526.50  3.7618E-002  
  527.00  3.7860E-002  
  527.50  3.8107E-002  
  528.00  3.8379E-002  
  528.50  3.8636E-002  
  529.00  3.8823E-002  
  529.50  3.9042E-002  
  530.00  3.9232E-002  
  530.50  3.9491E-002  
  531.00  3.9807E-002  
  531.50  4.0107E-002  
  532.00  4.0388E-002  
  532.50  4.0613E-002  
  533.00  4.0849E-002  
  533.50  4.1163E-002  
  534.00  4.1389E-002  
  534.50  4.1634E-002  
  535.00  4.1885E-002  
  535.50  4.2195E-002  
  536.00  4.2462E-002  
  536.50  4.2633E-002  
  537.00  4.2807E-002  
  537.50  4.3029E-002  
  538.00  4.3368E-002  
  538.50  4.3642E-002  
  539.00  4.4002E-002  
  539.50  4.4272E-002  
  540.00  4.4550E-002  
  540.50  4.4758E-002  
  541.00  4.4926E-002  
  541.50  4.5160E-002  
  542.00  4.5391E-002  
  542.50  4.5672E-002  
  543.00  4.5896E-002  
  543.50  4.6198E-002  
  544.00  4.6451E-002  
  544.50  4.6701E-002  
  545.00  4.6928E-002  
  545.50  4.7189E-002  
  546.00  4.7474E-002  
  546.50  4.7716E-002  
  547.00  4.7964E-002  
  547.50  4.8266E-002  
  548.00  4.8588E-002  
  548.50  4.8864E-002  
  549.00  4.9076E-002  
  549.50  4.9236E-002  
  550.00  4.9445E-002  
  550.50  4.9704E-002  
  551.00  5.0035E-002  
  551.50  5.0348E-002  
  552.00  5.0651E-002  
  552.50  5.0893E-002  
  553.00  5.1110E-002  
  553.50  5.1315E-002  
  554.00  5.1551E-002  
  554.50  5.1834E-002  
  555.00  5.2120E-002  
  555.50  5.2421E-002  
  556.00  5.2712E-002  
  556.50  5.2943E-002  
  557.00  5.3141E-002  
  557.50  5.3368E-002  
  558.00  5.3589E-002  
  558.50  5.3802E-002  
  559.00  5.3994E-002  
  559.50  5.4220E-002  
  560.00  5.4584E-002  
  560.50  5.4922E-002  
  561.00  5.5208E-002  
  561.50  5.5396E-002  
  562.00  5.5643E-002  
  562.50  5.5904E-002  
  563.00  5.6192E-002  
  563.50  5.6419E-002  
  564.00  5.6515E-002  
  564.50  5.6583E-002  
  565.00  5.6687E-002  
  565.50  5.6910E-002  
  566.00  5.7333E-002  
  566.50  5.7639E-002  
  567.00  5.7848E-002  
  567.50  5.8009E-002  
  568.00  5.8125E-002  
  568.50  5.8289E-002  
  569.00  5.8424E-002  
  569.50  5.8664E-002  
  570.00  5.8951E-002  
  570.50  5.9281E-002  
  571.00  5.9446E-002  
  571.50  5.9644E-002  
  572.00  5.9891E-002  
  572.50  6.0110E-002  
  573.00  6.0316E-002  
  573.50  6.0341E-002  
  574.00  6.0495E-002  
  574.50  6.0743E-002  
  575.00  6.1110E-002  
  575.50  6.1477E-002  
  576.00  6.1684E-002  
  576.50  6.1823E-002  
  577.00  6.2003E-002  
  577.50  6.2355E-002  
  578.00  6.2636E-002  
  578.50  6.2710E-002  
  579.00  6.2744E-002  
  579.50  6.2872E-002  
  580.00  6.3112E-002  
  580.50  6.3376E-002  
  581.00  6.3576E-002  
  581.50  6.3770E-002  
  582.00  6.3995E-002  
  582.50  6.4167E-002  
  583.00  6.4308E-002  
  583.50  6.4538E-002  
  584.00  6.4751E-002  
  584.50  6.5007E-002  
  585.00  6.5163E-002  
  585.50  6.5214E-002  
  586.00  6.5305E-002  
  586.50  6.5488E-002  
  587.00  6.5645E-002  
  587.50  6.5903E-002  
  588.00  6.6104E-002  
  588.50  6.6443E-002  
  589.00  6.6747E-002  
  589.50  6.6968E-002  
  590.00  6.7191E-002  
  590.50  6.7436E-002  
  591.00  6.7661E-002  
  591.50  6.7875E-002  
  592.00  6.7972E-002  
  592.50  6.8122E-002  
  593.00  6.8209E-002  
  593.50  6.8355E-002  
  594.00  6.8492E-002  
  594.50  6.8671E-002  
  595.00  6.8899E-002  
  595.50  6.9097E-002  
  596.00  6.9366E-002  
  596.50  6.9458E-002  
  597.00  6.9562E-002  
  597.50  6.9644E-002  
  598.00  6.9802E-002  
  598.50  6.9948E-002  
  599.00  7.0165E-002  
  599.50  7.0302E-002  
  600.00  7.0521E-002  
  600.50  7.0604E-002  
  601.00  7.0799E-002  
  601.50  7.0920E-002  
  602.00  7.1080E-002  
  602.50  7.1241E-002  
  603.00  7.1372E-002  
  603.50  7.1487E-002  
  604.00  7.1648E-002  
  604.50  7.1858E-002  
  605.00  7.2055E-002  
  605.50  7.2176E-002  
  606.00  7.2287E-002  
  606.50  7.2525E-002  
  607.00  7.2797E-002  
  607.50  7.3015E-002  
  608.00  7.3106E-002  
  608.50  7.3076E-002  
  609.00  7.3109E-002  
  609.50  7.3266E-002  
  610.00  7.3480E-002  
  610.50  7.3554E-002  
  611.00  7.3654E-002  
  611.50  7.3787E-002  
  612.00  7.4048E-002  
  612.50  7.4273E-002  
  613.00  7.4311E-002  
  613.50  7.4348E-002  
  614.00  7.4475E-002  
  614.50  7.4860E-002  
  615.00  7.5058E-002  
  615.50  7.5084E-002  
  616.00  7.5021E-002  
  616.50  7.5075E-002  
  617.00  7.5169E-002  
  617.50  7.5279E-002  
  618.00  7.5522E-002  
  618.50  7.5772E-002  
  619.00  7.5930E-002  
  619.50  7.6005E-002  
  620.00  7.6144E-002  
  620.50  7.6260E-002  
  621.00  7.6307E-002  
  621.50  7.6327E-002  
  622.00  7.6434E-002  
  622.50  7.6625E-002  
  623.00  7.6879E-002  
  623.50  7.7066E-002  
  624.00  7.7243E-002  
  624.50  7.7323E-002  
  625.00  7.7368E-002  
  625.50  7.7447E-002  
  626.00  7.7493E-002  
  626.50  7.7608E-002  
  627.00  7.7656E-002  
  627.50  7.7767E-002  
  628.00  7.8025E-002  
  628.50  7.8272E-002  
  629.00  7.8388E-002  
  629.50  7.8396E-002  
  630.00  7.8427E-002  
  630.50  7.8709E-002  
  631.00  7.8908E-002  
  631.50  7.9142E-002  
  632.00  7.9188E-002  
  632.50  7.9304E-002  
  633.00  7.9356E-002  
  633.50  7.9475E-002  
  634.00  7.9489E-002  
  634.50  7.9584E-002  
  635.00  7.9700E-002  
  635.50  7.9821E-002  
  636.00  7.9886E-002  
  636.50  7.9948E-002  
  637.00  8.0066E-002  
  637.50  8.0282E-002  
  638.00  8.0417E-002  
  638.50  8.0536E-002  
  639.00  8.0645E-002  
  639.50  8.0835E-002  
  640.00  8.1157E-002  
  640.50  8.1192E-002  
  641.00  8.1192E-002  
  641.50  8.1236E-002  
  642.00  8.1499E-002  
  642.50  8.1652E-002  
  643.00  8.1661E-002  
  643.50  8.1580E-002  
  644.00  8.1729E-002  
  644.50  8.1924E-002  
  645.00  8.2231E-002  
  645.50  8.2341E-002  
  646.00  8.2436E-002  
  646.50  8.2529E-002  
  647.00  8.2655E-002  
  647.50  8.2725E-002  
  648.00  8.2689E-002  
  648.50  8.2792E-002  
  649.00  8.2886E-002  
  649.50  8.2921E-002  
  650.00  8.2944E-002  
  650.50  8.3085E-002  
  651.00  8.3296E-002  
  651.50  8.3394E-002  
  652.00  8.3526E-002  
  652.50  8.3768E-002  
  653.00  8.3819E-002  
  653.50  8.3759E-002  
  654.00  8.3740E-002  
  654.50  8.3847E-002  
  655.00  8.3911E-002  
  655.50  8.3967E-002  
  656.00  8.4052E-002  
  656.50  8.4317E-002  
  657.00  8.4391E-002  
  657.50  8.4578E-002  
  658.00  8.4646E-002  
  658.50  8.4809E-002  
  659.00  8.4860E-002  
  659.50  8.4884E-002  
  660.00  8.4914E-002  
  660.50  8.5050E-002  
  661.00  8.5180E-002  
  661.50  8.5333E-002  
  662.00  8.5361E-002  
  662.50  8.5460E-002  
  663.00  8.5543E-002  
  663.50  8.5587E-002  
  664.00  8.5557E-002  
  664.50  8.5428E-002  
  665.00  8.5444E-002  
  665.50  8.5440E-002  
  666.00  8.5509E-002  
  666.50  8.5502E-002  
  667.00  8.5573E-002  
  667.50  8.5709E-002  
  668.00  8.5885E-002  
  668.50  8.6084E-002  
  669.00  8.6126E-002  
  669.50  8.6188E-002  
  670.00  8.6266E-002  
  670.50  8.6314E-002  
  671.00  8.6350E-002  
  671.50  8.6296E-002  
  672.00  8.6399E-002  
  672.50  8.6535E-002  
  673.00  8.6572E-002  
  673.50  8.6543E-002  
  674.00  8.6422E-002  
  674.50  8.6592E-002  
  675.00  8.6796E-002  
  675.50  8.7026E-002  
  676.00  8.7100E-002  
  676.50  8.7237E-002  
  677.00  8.7254E-002  
  677.50  8.7193E-002  
  678.00  8.6985E-002  
  678.50  8.6999E-002  
  679.00  8.7126E-002  
  679.50  8.7333E-002  
  680.00  8.7432E-002  
  680.50  8.7633E-002  
  681.00  8.7740E-002  
  681.50  8.7902E-002  
  682.00  8.8007E-002  
  682.50  8.8314E-002  
  683.00  8.8545E-002  
  683.50  8.8466E-002  
  684.00  8.8239E-002  
  684.50  8.7919E-002  
  685.00  8.7982E-002  
  685.50  8.8305E-002  
  686.00  8.8760E-002  
  686.50  8.9072E-002  
  687.00  8.9193E-002  
  687.50  8.9143E-002  
  688.00  8.8957E-002  
  688.50  8.8839E-002  
  689.00  8.8759E-002  
  689.50  8.8867E-002  
  690.00  8.9224E-002  
  690.50  8.9579E-002  
  691.00  8.9671E-002  
  691.50  8.9647E-002  
  692.00  8.9507E-002  
  692.50  8.9589E-002  
  693.00  8.9751E-002  
  693.50  9.0158E-002  
  694.00  9.0441E-002  
  694.50  9.0482E-002  
  695.00  9.0540E-002  
  695.50  9.0609E-002  
  696.00  9.0868E-002  
  696.50  9.0968E-002  
  697.00  9.0889E-002  
  697.50  9.0840E-002  
  698.00  9.0938E-002  
  698.50  9.1108E-002  
  699.00  9.1222E-002  
  699.50  9.1244E-002  
  700.00  9.1236E-002  
  700.50  9.1285E-002  
  701.00  9.1449E-002  
  701.50  9.1553E-002  
  702.00  9.1609E-002  
  702.50  9.1689E-002  
  703.00  9.1815E-002  
  703.50  9.1832E-002  
  704.00  9.1839E-002  
  704.50  9.1931E-002  
  705.00  9.1927E-002  
  705.50  9.1852E-002  
  706.00  9.1862E-002  
  706.50  9.2025E-002  
  707.00  9.2287E-002  
  707.50  9.2614E-002  
  708.00  9.2893E-002  
  708.50  9.3054E-002  
  709.00  9.2997E-002  
  709.50  9.3021E-002  
  710.00  9.3040E-002  
  710.50  9.3097E-002  
  711.00  9.3132E-002  
  711.50  9.2953E-002  
  712.00  9.2880E-002  
  712.50  9.3044E-002  
  713.00  9.3263E-002  
  713.50  9.3182E-002  
  714.00  9.3145E-002  
  714.50  9.3333E-002  
  715.00  9.3540E-002  
  715.50  9.3674E-002  
  716.00  9.3886E-002  
  716.50  9.4180E-002  
  717.00  9.4362E-002  
  717.50  9.4441E-002  
  718.00  9.4499E-002  
  718.50  9.4627E-002  
  719.00  9.4730E-002  
  719.50  9.4892E-002  
  720.00  9.4935E-002  
  720.50  9.4829E-002  
  721.00  9.4558E-002  
  721.50  9.4553E-002  
  722.00  9.4585E-002  
  722.50  9.4874E-002  
  723.00  9.5129E-002  
  723.50  9.5134E-002  
  724.00  9.4812E-002  
  724.50  9.4844E-002  
  725.00  9.5386E-002  
  725.50  9.5800E-002  
  726.00  9.5762E-002  
  726.50  9.5721E-002  
  727.00  9.5865E-002  
  727.50  9.6107E-002  
  728.00  9.6066E-002  
  728.50  9.6292E-002  
  729.00  9.6502E-002  
  729.50  9.6630E-002  
  730.00  9.6557E-002  
  730.50  9.6615E-002  
  731.00  9.6577E-002  
  731.50  9.6672E-002  
  732.00  9.6896E-002  
  732.50  9.7131E-002  
  733.00  9.7002E-002  
  733.50  9.7010E-002  
  734.00  9.7177E-002  
  734.50  9.7200E-002  
  735.00  9.7154E-002  
  735.50  9.7295E-002  
  736.00  9.7430E-002  
  736.50  9.7353E-002  
  737.00  9.7174E-002  
  737.50  9.7299E-002  
  738.00  9.7426E-002  
  738.50  9.7573E-002  
  739.00  9.7776E-002  
  739.50  9.8059E-002  
  740.00  9.8281E-002  
  740.50  9.8084E-002  
  741.00  9.7780E-002  
  741.50  9.7757E-002  
  742.00  9.8101E-002  
  742.50  9.8419E-002  
  743.00  9.8463E-002  
  743.50  9.8574E-002  
  744.00  9.8732E-002  
  744.50  9.8724E-002  
  745.00  9.8803E-002  
  745.50  9.8747E-002  
  746.00  9.8680E-002  
  746.50  9.8289E-002  
  747.00  9.8264E-002  
  747.50  9.8622E-002  
  748.00  9.9105E-002  
  748.50  9.9409E-002  
  749.00  9.9285E-002  
  749.50  9.9413E-002  
  750.00  9.9487E-002  
  750.50  9.9680E-002  
  751.00  9.9602E-002  
  751.50  9.9770E-002  
  752.00  9.9731E-002  
  752.50  9.9625E-002  
  753.00  9.9774E-002  
  753.50  1.0007E-001  
  754.00  1.0003E-001  
  754.50  9.9881E-002  
  755.00  9.9942E-002  
  755.50  9.9750E-002  
  756.00  9.9496E-002  
  756.50  9.9201E-002  
  757.00  9.9307E-002  
  757.50  9.9291E-002  
  758.00  9.9486E-002  
  758.50  9.9603E-002  
  759.00  1.0006E-001  
  759.50  1.0047E-001  
  760.00  1.0079E-001  
  760.50  1.0072E-001  
  761.00  1.0075E-001  
  761.50  1.0060E-001  
  762.00  1.0033E-001  
  762.50  1.0021E-001  
  763.00  1.0010E-001  
  763.50  1.0022E-001  
  764.00  1.0047E-001  
  764.50  1.0062E-001  
  765.00  1.0071E-001  
  765.50  1.0080E-001  
  766.00  1.0093E-001  
  766.50  1.0083E-001  
  767.00  1.0048E-001  
  767.50  1.0021E-001  
  768.00  1.0036E-001  
  768.50  1.0093E-001  
  769.00  1.0144E-001  
  769.50  1.0124E-001  
  770.00  1.0086E-001  
  770.50  1.0084E-001  
  771.00  1.0106E-001  
  771.50  1.0105E-001  
  772.00  1.0089E-001  
  772.50  1.0105E-001  
  773.00  1.0089E-001  
  773.50  1.0087E-001  
  774.00  1.0061E-001  
  774.50  1.0092E-001  
  775.00  1.0102E-001  
  775.50  1.0146E-001  
  776.00  1.0162E-001  
  776.50  1.0156E-001  
  777.00  1.0129E-001  
  777.50  1.0105E-001  
  778.00  1.0064E-001  
  778.50  1.0075E-001  
  779.00  1.0123E-001  
  779.50  1.0140E-001  
  780.00  1.0122E-001  
  780.50  1.0088E-001  
  781.00  1.0089E-001  
  781.50  1.0122E-001  
  782.00  1.0196E-001  
  782.50  1.0201E-001  
  783.00  1.0153E-001  
  783.50  1.0133E-001  
  784.00  1.0144E-001  
  784.50  1.0187E-001  
  785.00  1.0245E-001  
  785.50  1.0269E-001  
  786.00  1.0246E-001  
  786.50  1.0217E-001  
  787.00  1.0209E-001  
  787.50  1.0220E-001  
  788.00  1.0214E-001  
  788.50  1.0223E-001  
  789.00  1.0253E-001  
  789.50  1.0275E-001  
  790.00  1.0242E-001  
  790.50  1.0198E-001  
  791.00  1.0205E-001  
  791.50  1.0213E-001  
  792.00  1.0221E-001  
  792.50  1.0220E-001  
  793.00  1.0261E-001  
  793.50  1.0295E-001  
  794.00  1.0273E-001  
  794.50  1.0273E-001  
  795.00  1.0304E-001  
  795.50  1.0306E-001  
  796.00  1.0303E-001  
  796.50  1.0312E-001  
  797.00  1.0317E-001  
  797.50  1.0311E-001  
  798.00  1.0292E-001  
  798.50  1.0291E-001  
  799.00  1.0328E-001  
  799.50  1.0361E-001  
  800.00  1.0349E-001  
  800.50  1.0363E-001  
  801.00  1.0349E-001  
  801.50  1.0357E-001  
  802.00  1.0380E-001  
  802.50  1.0400E-001  
  803.00  1.0399E-001  
  803.50  1.0387E-001  
  804.00  1.0355E-001  
  804.50  1.0335E-001  
  805.00  1.0370E-001  
  805.50  1.0402E-001  
  806.00  1.0398E-001  
  806.50  1.0380E-001  
  807.00  1.0395E-001  
  807.50  1.0399E-001  
  808.00  1.0424E-001  
  808.50  1.0446E-001  
  809.00  1.0480E-001  
  809.50  1.0452E-001  
  810.00  1.0444E-001  
  810.50  1.0433E-001  
  811.00  1.0425E-001  
  811.50  1.0421E-001  
  812.00  1.0428E-001  
  812.50  1.0417E-001  
  813.00  1.0441E-001  
  813.50  1.0476E-001  
  814.00  1.0488E-001  
  814.50  1.0500E-001  
  815.00  1.0492E-001  
  815.50  1.0493E-001  
  816.00  1.0500E-001  
  816.50  1.0533E-001  
  817.00  1.0562E-001  
  817.50  1.0555E-001  
  818.00  1.0527E-001  
  818.50  1.0473E-001  
  819.00  1.0449E-001  
  819.50  1.0431E-001  
  820.00  1.0461E-001  
  820.50  1.0480E-001  
  821.00  1.0471E-001  
  821.50  1.0480E-001  
  822.00  1.0534E-001  
  822.50  1.0592E-001  
  823.00  1.0622E-001  
  823.50  1.0531E-001  
  824.00  1.0452E-001  
  824.50  1.0406E-001  
  825.00  1.0422E-001  
  825.50  1.0412E-001  
  826.00  1.0471E-001  
  826.50  1.0522E-001  
  827.00  1.0555E-001  
  827.50  1.0512E-001  
  828.00  1.0452E-001  
  828.50  1.0409E-001  
  829.00  1.0444E-001  
  829.50  1.0485E-001  
  830.00  1.0496E-001  
  830.50  1.0500E-001  
  831.00  1.0479E-001  
  831.50  1.0473E-001  
  832.00  1.0456E-001  
  832.50  1.0479E-001  
  833.00  1.0527E-001  
  833.50  1.0524E-001  
  834.00  1.0439E-001  
  834.50  1.0504E-001  
  835.00  1.0569E-001  
  835.50  1.0606E-001  
  836.00  1.0571E-001  
  836.50  1.0508E-001  
  837.00  1.0494E-001  
  837.50  1.0530E-001  
  838.00  1.0585E-001  
  838.50  1.0596E-001  
  839.00  1.0580E-001  
  839.50  1.0566E-001  
  840.00  1.0550E-001  
  840.50  1.0548E-001  
  841.00  1.0610E-001  
  841.50  1.0666E-001  
  842.00  1.0635E-001  
  842.50  1.0569E-001  
  843.00  1.0495E-001  
  843.50  1.0532E-001  
  844.00  1.0598E-001  
  844.50  1.0602E-001  
  845.00  1.0590E-001  
  845.50  1.0581E-001  
  846.00  1.0527E-001  
  846.50  1.0564E-001  
  847.00  1.0584E-001  
  847.50  1.0551E-001  
  848.00  1.0590E-001  
  848.50  1.0700E-001  
  849.00  1.0730E-001  
  849.50  1.0633E-001  
  850.00  1.0584E-001  
  850.50  1.0693E-001  
  851.00  1.0775E-001  
  851.50  1.0738E-001  
  852.00  1.0650E-001  
  852.50  1.0636E-001  
  853.00  1.0674E-001  
  853.50  1.0716E-001  
  854.00  1.0701E-001  
  854.50  1.0690E-001  
  855.00  1.0702E-001  
  855.50  1.0756E-001  
  856.00  1.0830E-001  
  856.50  1.0788E-001  
  857.00  1.0740E-001  
  857.50  1.0838E-001  
  858.00  1.0873E-001  
  858.50  1.0910E-001  
  859.00  1.0915E-001  
  859.50  1.0850E-001  
  860.00  1.0837E-001  
  860.50  1.0910E-001  
  861.00  1.0953E-001  
  861.50  1.0840E-001  
  862.00  1.0783E-001  
  862.50  1.0796E-001  
  863.00  1.0843E-001  
  863.50  1.0875E-001  
  864.00  1.0862E-001  
  864.50  1.0945E-001  
  865.00  1.0944E-001  
  865.50  1.0977E-001  
  866.00  1.1089E-001  
  866.50  1.1082E-001  
  867.00  1.0957E-001  
  867.50  1.0941E-001  
  868.00  1.1050E-001  
  868.50  1.1165E-001  
  869.00  1.1146E-001  
  869.50  1.1072E-001  
  870.00  1.1000E-001  
  870.50  1.0956E-001  
  871.00  1.0909E-001  
  871.50  1.0943E-001  
  872.00  1.1040E-001  
  872.50  1.1138E-001  
  873.00  1.1244E-001  
  873.50  1.1199E-001  
  874.00  1.1120E-001  
  874.50  1.1076E-001  
  875.00  1.1104E-001  
  875.50  1.1226E-001  
  876.00  1.1302E-001  
  876.50  1.1341E-001  
  877.00  1.1343E-001  
  877.50  1.1319E-001  
  878.00  1.1262E-001  
  878.50  1.1266E-001  
  879.00  1.1306E-001  
  879.50  1.1282E-001  
  880.00  1.1136E-001  
  880.50  1.1024E-001  
  881.00  1.1025E-001  
  881.50  1.1096E-001  
  882.00  1.1138E-001  
  882.50  1.1262E-001  
  883.00  1.1376E-001  
  883.50  1.1425E-001  
  884.00  1.1373E-001  
  884.50  1.1372E-001  
  885.00  1.1479E-001  
  885.50  1.1476E-001  
  886.00  1.1357E-001  
  886.50  1.1295E-001  
  887.00  1.1424E-001  
  887.50  1.1542E-001  
  888.00  1.1443E-001  
  888.50  1.1419E-001  
  889.00  1.1482E-001  
  889.50  1.1501E-001  
  890.00  1.1413E-001  
  890.50  1.1326E-001  
  891.00  1.1353E-001  
  891.50  1.1413E-001  
  892.00  1.1595E-001  
  892.50  1.1647E-001  
  893.00  1.1527E-001  
  893.50  1.1452E-001  
  894.00  1.1427E-001  
  894.50  1.1456E-001  
  895.00  1.1453E-001  
  895.50  1.1524E-001  
  896.00  1.1520E-001  
  896.50  1.1569E-001  
  897.00  1.1649E-001  
  897.50  1.1540E-001  
  898.00  1.1444E-001  
  898.50  1.1555E-001  
  899.00  1.1637E-001  
  899.50  2.3005E-003  
