
# From lspdd.org
# 
# Name: DEL EnergySmart BR30 Domestique
# Indice spectral Valeur 
# MSI 0.30 
# SLI 0.50 
# IPI 0.67 
# Pourcentage de bleu 19.0 
# Caractéristique Valeur 
# CCT calculée (K) 2870 
# CCT du fabricant (K) 3000 
# Tension (V) ND 
# Puissance (W) 12.0 
# Efficacité lumineuse (Lum/W) 62.5 
#
# Image: '/app/system/img_2s/2529/medium_image2.jpg?1413486113'
# Image: '/app/system/img_1s/2529/medium_image1.jpg?1413486115'
# 

  273.00  0.0000E+000  
  273.50  0.0000E+000  
  274.00  0.0000E+000  
  274.50  0.0000E+000  
  275.00  0.0000E+000  
  275.50  0.0000E+000  
  276.00  0.0000E+000  
  276.50  0.0000E+000  
  277.00  0.0000E+000  
  277.50  0.0000E+000  
  278.00  0.0000E+000  
  278.50  0.0000E+000  
  279.00  0.0000E+000  
  279.50  0.0000E+000  
  280.00  0.0000E+000  
  280.50  0.0000E+000  
  281.00  0.0000E+000  
  281.50  0.0000E+000  
  282.00  0.0000E+000  
  282.50  0.0000E+000  
  283.00  0.0000E+000  
  283.50  0.0000E+000  
  284.00  0.0000E+000  
  284.50  0.0000E+000  
  285.00  0.0000E+000  
  285.50  0.0000E+000  
  286.00  0.0000E+000  
  286.50  0.0000E+000  
  287.00  0.0000E+000  
  287.50  0.0000E+000  
  288.00  0.0000E+000  
  288.50  0.0000E+000  
  289.00  0.0000E+000  
  289.50  0.0000E+000  
  290.00  0.0000E+000  
  290.50  0.0000E+000  
  291.00  0.0000E+000  
  291.50  0.0000E+000  
  292.00  0.0000E+000  
  292.50  0.0000E+000  
  293.00  0.0000E+000  
  293.50  0.0000E+000  
  294.00  0.0000E+000  
  294.50  0.0000E+000  
  295.00  0.0000E+000  
  295.50  0.0000E+000  
  296.00  0.0000E+000  
  296.50  0.0000E+000  
  297.00  0.0000E+000  
  297.50  0.0000E+000  
  298.00  0.0000E+000  
  298.50  0.0000E+000  
  299.00  0.0000E+000  
  299.50  0.0000E+000  
  300.00  0.0000E+000  
  300.50  1.1874E-005  
  301.00  9.3179E-005  
  301.50  9.1789E-005  
  302.00  1.2300E-004  
  302.50  1.4633E-004  
  303.00  1.5890E-004  
  303.50  1.8689E-004  
  304.00  1.6148E-004  
  304.50  1.3694E-004  
  305.00  8.8191E-005  
  305.50  3.1111E-005  
  306.00  2.9596E-005  
  306.50  0.0000E+000  
  307.00  1.1000E-005  
  307.50  2.6761E-005  
  308.00  2.7096E-005  
  308.50  5.0881E-005  
  309.00  3.7446E-005  
  309.50  2.1414E-005  
  310.00  3.5298E-006  
  310.50  8.7906E-007  
  311.00  3.6898E-006  
  311.50  2.6053E-005  
  312.00  2.9165E-005  
  312.50  2.2812E-007  
  313.00  2.0664E-005  
  313.50  3.0898E-005  
  314.00  5.8315E-005  
  314.50  8.4928E-005  
  315.00  5.3126E-005  
  315.50  4.0281E-006  
  316.00  0.0000E+000  
  316.50  0.0000E+000  
  317.00  0.0000E+000  
  317.50  0.0000E+000  
  318.00  4.9404E-006  
  318.50  2.6277E-006  
  319.00  0.0000E+000  
  319.50  0.0000E+000  
  320.00  0.0000E+000  
  320.50  3.6652E-006  
  321.00  2.1852E-005  
  321.50  5.0991E-005  
  322.00  8.2551E-005  
  322.50  4.2838E-005  
  323.00  4.8781E-005  
  323.50  4.0226E-005  
  324.00  4.2088E-006  
  324.50  2.1624E-005  
  325.00  4.7383E-005  
  325.50  5.9787E-005  
  326.00  9.8877E-005  
  326.50  7.9175E-005  
  327.00  9.6097E-006  
  327.50  0.0000E+000  
  328.00  0.0000E+000  
  328.50  0.0000E+000  
  329.00  7.4970E-006  
  329.50  1.4800E-005  
  330.00  0.0000E+000  
  330.50  1.5154E-006  
  331.00  1.1716E-006  
  331.50  0.0000E+000  
  332.00  0.0000E+000  
  332.50  0.0000E+000  
  333.00  0.0000E+000  
  333.50  3.0219E-006  
  334.00  1.0478E-005  
  334.50  0.0000E+000  
  335.00  0.0000E+000  
  335.50  0.0000E+000  
  336.00  0.0000E+000  
  336.50  0.0000E+000  
  337.00  0.0000E+000  
  337.50  0.0000E+000  
  338.00  0.0000E+000  
  338.50  0.0000E+000  
  339.00  0.0000E+000  
  339.50  0.0000E+000  
  340.00  1.3958E-005  
  340.50  5.2240E-005  
  341.00  5.6297E-005  
  341.50  6.2667E-005  
  342.00  9.9498E-005  
  342.50  9.6583E-005  
  343.00  9.4404E-005  
  343.50  7.1286E-005  
  344.00  5.0653E-005  
  344.50  4.5312E-005  
  345.00  6.5732E-005  
  345.50  9.9871E-005  
  346.00  1.0238E-004  
  346.50  1.2128E-004  
  347.00  8.4706E-005  
  347.50  6.3845E-005  
  348.00  7.8649E-005  
  348.50  7.8001E-005  
  349.00  9.6194E-005  
  349.50  1.2512E-004  
  350.00  1.2424E-004  
  350.50  1.2097E-004  
  351.00  8.0162E-005  
  351.50  2.8917E-005  
  352.00  2.7126E-006  
  352.50  0.0000E+000  
  353.00  0.0000E+000  
  353.50  0.0000E+000  
  354.00  0.0000E+000  
  354.50  0.0000E+000  
  355.00  0.0000E+000  
  355.50  0.0000E+000  
  356.00  0.0000E+000  
  356.50  3.1024E-005  
  357.00  8.8633E-005  
  357.50  1.3761E-004  
  358.00  1.6827E-004  
  358.50  1.4466E-004  
  359.00  9.6946E-005  
  359.50  6.6969E-005  
  360.00  5.7328E-005  
  360.50  6.4469E-005  
  361.00  6.4773E-005  
  361.50  4.5391E-005  
  362.00  4.1019E-005  
  362.50  4.3659E-005  
  363.00  5.3970E-005  
  363.50  3.5520E-005  
  364.00  1.8061E-005  
  364.50  1.6799E-006  
  365.00  0.0000E+000  
  365.50  7.1738E-006  
  366.00  6.5097E-005  
  366.50  1.3286E-004  
  367.00  1.7485E-004  
  367.50  1.2267E-004  
  368.00  5.8920E-005  
  368.50  4.0175E-005  
  369.00  5.7574E-005  
  369.50  5.5205E-005  
  370.00  6.0908E-005  
  370.50  3.6936E-005  
  371.00  3.2556E-005  
  371.50  6.2262E-005  
  372.00  7.0592E-005  
  372.50  8.1329E-005  
  373.00  9.1349E-005  
  373.50  1.2094E-004  
  374.00  1.1117E-004  
  374.50  3.1354E-005  
  375.00  0.0000E+000  
  375.50  0.0000E+000  
  376.00  0.0000E+000  
  376.50  0.0000E+000  
  377.00  2.7873E-005  
  377.50  5.0293E-005  
  378.00  2.2986E-005  
  378.50  1.8383E-005  
  379.00  6.2538E-005  
  379.50  8.1009E-005  
  380.00  1.3676E-004  
  380.50  2.0634E-004  
  381.00  2.1353E-004  
  381.50  2.1605E-004  
  382.00  1.2961E-004  
  382.50  3.9169E-005  
  383.00  1.4220E-005  
  383.50  7.1134E-005  
  384.00  1.1523E-004  
  384.50  8.2726E-005  
  385.00  1.2381E-005  
  385.50  0.0000E+000  
  386.00  0.0000E+000  
  386.50  1.1462E-005  
  387.00  4.3428E-005  
  387.50  4.5023E-005  
  388.00  5.5446E-005  
  388.50  3.6719E-005  
  389.00  3.1352E-005  
  389.50  1.7810E-005  
  390.00  4.9150E-005  
  390.50  8.1514E-005  
  391.00  3.7334E-005  
  391.50  4.8684E-006  
  392.00  0.0000E+000  
  392.50  1.8333E-005  
  393.00  4.6732E-005  
  393.50  2.3713E-005  
  394.00  1.1026E-005  
  394.50  0.0000E+000  
  395.00  0.0000E+000  
  395.50  0.0000E+000  
  396.00  3.6789E-006  
  396.50  4.3182E-005  
  397.00  5.0343E-005  
  397.50  5.7754E-005  
  398.00  5.1012E-005  
  398.50  6.0498E-005  
  399.00  9.9678E-005  
  399.50  1.6572E-004  
  400.00  1.9150E-004  
  400.50  1.8383E-004  
  401.00  2.1121E-004  
  401.50  2.1249E-004  
  402.00  2.0003E-004  
  402.50  1.6886E-004  
  403.00  1.1087E-004  
  403.50  5.4806E-005  
  404.00  5.6441E-005  
  404.50  9.5977E-005  
  405.00  1.7964E-004  
  405.50  2.1203E-004  
  406.00  2.0635E-004  
  406.50  1.5962E-004  
  407.00  1.3254E-004  
  407.50  2.0205E-004  
  408.00  2.7922E-004  
  408.50  3.1382E-004  
  409.00  3.0247E-004  
  409.50  2.6888E-004  
  410.00  2.2122E-004  
  410.50  1.9602E-004  
  411.00  1.8137E-004  
  411.50  2.2402E-004  
  412.00  2.7532E-004  
  412.50  3.2372E-004  
  413.00  3.1941E-004  
  413.50  3.0491E-004  
  414.00  3.0530E-004  
  414.50  2.8801E-004  
  415.00  2.4256E-004  
  415.50  2.1477E-004  
  416.00  2.8460E-004  
  416.50  3.9466E-004  
  417.00  5.1872E-004  
  417.50  5.7879E-004  
  418.00  5.7811E-004  
  418.50  6.4567E-004  
  419.00  6.7809E-004  
  419.50  7.4933E-004  
  420.00  8.0106E-004  
  420.50  8.1938E-004  
  421.00  9.0942E-004  
  421.50  9.7720E-004  
  422.00  1.0580E-003  
  422.50  1.1221E-003  
  423.00  1.1520E-003  
  423.50  1.2146E-003  
  424.00  1.2980E-003  
  424.50  1.3882E-003  
  425.00  1.4932E-003  
  425.50  1.5564E-003  
  426.00  1.6107E-003  
  426.50  1.7060E-003  
  427.00  1.7967E-003  
  427.50  1.9609E-003  
  428.00  2.0872E-003  
  428.50  2.2149E-003  
  429.00  2.3245E-003  
  429.50  2.4480E-003  
  430.00  2.6257E-003  
  430.50  2.8089E-003  
  431.00  2.9630E-003  
  431.50  3.0925E-003  
  432.00  3.1854E-003  
  432.50  3.2792E-003  
  433.00  3.4069E-003  
  433.50  3.5085E-003  
  434.00  3.6795E-003  
  434.50  3.9082E-003  
  435.00  4.1370E-003  
  435.50  4.3597E-003  
  436.00  4.5311E-003  
  436.50  4.7413E-003  
  437.00  5.0129E-003  
  437.50  5.3095E-003  
  438.00  5.5620E-003  
  438.50  5.7797E-003  
  439.00  5.9710E-003  
  439.50  6.2617E-003  
  440.00  6.5785E-003  
  440.50  6.9341E-003  
  441.00  7.3071E-003  
  441.50  7.6811E-003  
  442.00  8.0522E-003  
  442.50  8.4294E-003  
  443.00  8.7790E-003  
  443.50  9.0965E-003  
  444.00  9.3698E-003  
  444.50  9.6321E-003  
  445.00  9.9354E-003  
  445.50  1.0284E-002  
  446.00  1.0590E-002  
  446.50  1.0829E-002  
  447.00  1.0995E-002  
  447.50  1.1110E-002  
  448.00  1.1255E-002  
  448.50  1.1288E-002  
  449.00  1.1319E-002  
  449.50  1.1295E-002  
  450.00  1.1197E-002  
  450.50  1.1079E-002  
  451.00  1.0836E-002  
  451.50  1.0598E-002  
  452.00  1.0415E-002  
  452.50  1.0160E-002  
  453.00  9.8986E-003  
  453.50  9.5638E-003  
  454.00  9.2690E-003  
  454.50  8.9761E-003  
  455.00  8.7240E-003  
  455.50  8.4704E-003  
  456.00  8.2216E-003  
  456.50  8.0701E-003  
  457.00  7.8738E-003  
  457.50  7.6690E-003  
  458.00  7.4444E-003  
  458.50  7.1769E-003  
  459.00  6.9568E-003  
  459.50  6.7876E-003  
  460.00  6.6620E-003  
  460.50  6.6240E-003  
  461.00  6.5994E-003  
  461.50  6.5336E-003  
  462.00  6.4276E-003  
  462.50  6.2888E-003  
  463.00  6.1771E-003  
  463.50  6.0856E-003  
  464.00  5.9537E-003  
  464.50  5.8340E-003  
  465.00  5.7097E-003  
  465.50  5.6045E-003  
  466.00  5.5539E-003  
  466.50  5.4711E-003  
  467.00  5.3857E-003  
  467.50  5.2954E-003  
  468.00  5.1507E-003  
  468.50  4.9917E-003  
  469.00  4.8105E-003  
  469.50  4.6762E-003  
  470.00  4.6006E-003  
  470.50  4.5668E-003  
  471.00  4.5063E-003  
  471.50  4.3795E-003  
  472.00  4.2589E-003  
  472.50  4.1787E-003  
  473.00  4.1116E-003  
  473.50  4.1207E-003  
  474.00  4.0589E-003  
  474.50  3.9911E-003  
  475.00  3.9068E-003  
  475.50  3.8610E-003  
  476.00  3.8395E-003  
  476.50  3.8630E-003  
  477.00  3.8881E-003  
  477.50  3.8939E-003  
  478.00  3.8810E-003  
  478.50  3.8441E-003  
  479.00  3.8498E-003  
  479.50  3.8733E-003  
  480.00  3.8651E-003  
  480.50  3.8539E-003  
  481.00  3.8379E-003  
  481.50  3.8801E-003  
  482.00  3.9160E-003  
  482.50  3.9548E-003  
  483.00  3.9766E-003  
  483.50  4.0233E-003  
  484.00  4.0967E-003  
  484.50  4.1193E-003  
  485.00  4.1491E-003  
  485.50  4.1384E-003  
  486.00  4.1152E-003  
  486.50  4.1314E-003  
  487.00  4.1638E-003  
  487.50  4.2364E-003  
  488.00  4.3106E-003  
  488.50  4.3678E-003  
  489.00  4.4293E-003  
  489.50  4.4841E-003  
  490.00  4.5567E-003  
  490.50  4.6475E-003  
  491.00  4.7529E-003  
  491.50  4.8222E-003  
  492.00  4.8887E-003  
  492.50  4.9501E-003  
  493.00  5.0511E-003  
  493.50  5.1770E-003  
  494.00  5.2791E-003  
  494.50  5.3607E-003  
  495.00  5.3978E-003  
  495.50  5.4651E-003  
  496.00  5.5558E-003  
  496.50  5.7054E-003  
  497.00  5.8181E-003  
  497.50  5.9733E-003  
  498.00  6.0948E-003  
  498.50  6.2382E-003  
  499.00  6.3467E-003  
  499.50  6.4422E-003  
  500.00  6.5346E-003  
  500.50  6.6505E-003  
  501.00  6.7392E-003  
  501.50  6.8395E-003  
  502.00  6.9371E-003  
  502.50  7.0205E-003  
  503.00  7.1343E-003  
  503.50  7.2453E-003  
  504.00  7.4087E-003  
  504.50  7.5518E-003  
  505.00  7.6939E-003  
  505.50  7.8204E-003  
  506.00  7.9253E-003  
  506.50  8.0244E-003  
  507.00  8.0938E-003  
  507.50  8.1906E-003  
  508.00  8.3064E-003  
  508.50  8.4390E-003  
  509.00  8.5730E-003  
  509.50  8.7137E-003  
  510.00  8.8422E-003  
  510.50  8.9278E-003  
  511.00  9.0456E-003  
  511.50  9.1683E-003  
  512.00  9.2896E-003  
  512.50  9.3767E-003  
  513.00  9.4524E-003  
  513.50  9.5524E-003  
  514.00  9.6937E-003  
  514.50  9.7979E-003  
  515.00  9.9154E-003  
  515.50  1.0027E-002  
  516.00  1.0134E-002  
  516.50  1.0232E-002  
  517.00  1.0313E-002  
  517.50  1.0404E-002  
  518.00  1.0517E-002  
  518.50  1.0623E-002  
  519.00  1.0759E-002  
  519.50  1.0872E-002  
  520.00  1.0996E-002  
  520.50  1.1104E-002  
  521.00  1.1225E-002  
  521.50  1.1347E-002  
  522.00  1.1441E-002  
  522.50  1.1497E-002  
  523.00  1.1546E-002  
  523.50  1.1639E-002  
  524.00  1.1774E-002  
  524.50  1.1944E-002  
  525.00  1.2054E-002  
  525.50  1.2108E-002  
  526.00  1.2130E-002  
  526.50  1.2196E-002  
  527.00  1.2290E-002  
  527.50  1.2388E-002  
  528.00  1.2494E-002  
  528.50  1.2583E-002  
  529.00  1.2719E-002  
  529.50  1.2842E-002  
  530.00  1.2954E-002  
  530.50  1.3052E-002  
  531.00  1.3117E-002  
  531.50  1.3194E-002  
  532.00  1.3249E-002  
  532.50  1.3306E-002  
  533.00  1.3369E-002  
  533.50  1.3467E-002  
  534.00  1.3541E-002  
  534.50  1.3602E-002  
  535.00  1.3661E-002  
  535.50  1.3748E-002  
  536.00  1.3862E-002  
  536.50  1.3961E-002  
  537.00  1.4072E-002  
  537.50  1.4169E-002  
  538.00  1.4248E-002  
  538.50  1.4307E-002  
  539.00  1.4383E-002  
  539.50  1.4499E-002  
  540.00  1.4627E-002  
  540.50  1.4751E-002  
  541.00  1.4851E-002  
  541.50  1.4942E-002  
  542.00  1.5037E-002  
  542.50  1.5119E-002  
  543.00  1.5207E-002  
  543.50  1.5303E-002  
  544.00  1.5439E-002  
  544.50  1.5585E-002  
  545.00  1.5750E-002  
  545.50  1.5829E-002  
  546.00  1.5905E-002  
  546.50  1.5953E-002  
  547.00  1.5968E-002  
  547.50  1.6013E-002  
  548.00  1.6075E-002  
  548.50  1.6172E-002  
  549.00  1.6286E-002  
  549.50  1.6361E-002  
  550.00  1.6483E-002  
  550.50  1.6616E-002  
  551.00  1.6780E-002  
  551.50  1.6873E-002  
  552.00  1.6973E-002  
  552.50  1.7053E-002  
  553.00  1.7177E-002  
  553.50  1.7273E-002  
  554.00  1.7373E-002  
  554.50  1.7451E-002  
  555.00  1.7542E-002  
  555.50  1.7652E-002  
  556.00  1.7781E-002  
  556.50  1.7942E-002  
  557.00  1.8063E-002  
  557.50  1.8182E-002  
  558.00  1.8254E-002  
  558.50  1.8354E-002  
  559.00  1.8482E-002  
  559.50  1.8614E-002  
  560.00  1.8763E-002  
  560.50  1.8896E-002  
  561.00  1.9007E-002  
  561.50  1.9062E-002  
  562.00  1.9107E-002  
  562.50  1.9147E-002  
  563.00  1.9210E-002  
  563.50  1.9331E-002  
  564.00  1.9457E-002  
  564.50  1.9606E-002  
  565.00  1.9727E-002  
  565.50  1.9789E-002  
  566.00  1.9881E-002  
  566.50  1.9974E-002  
  567.00  2.0107E-002  
  567.50  2.0229E-002  
  568.00  2.0369E-002  
  568.50  2.0513E-002  
  569.00  2.0622E-002  
  569.50  2.0692E-002  
  570.00  2.0758E-002  
  570.50  2.0840E-002  
  571.00  2.0920E-002  
  571.50  2.0987E-002  
  572.00  2.1115E-002  
  572.50  2.1259E-002  
  573.00  2.1392E-002  
  573.50  2.1525E-002  
  574.00  2.1570E-002  
  574.50  2.1624E-002  
  575.00  2.1696E-002  
  575.50  2.1839E-002  
  576.00  2.1995E-002  
  576.50  2.2078E-002  
  577.00  2.2173E-002  
  577.50  2.2240E-002  
  578.00  2.2312E-002  
  578.50  2.2367E-002  
  579.00  2.2458E-002  
  579.50  2.2636E-002  
  580.00  2.2735E-002  
  580.50  2.2833E-002  
  581.00  2.2872E-002  
  581.50  2.2943E-002  
  582.00  2.3020E-002  
  582.50  2.3125E-002  
  583.00  2.3253E-002  
  583.50  2.3372E-002  
  584.00  2.3456E-002  
  584.50  2.3550E-002  
  585.00  2.3647E-002  
  585.50  2.3828E-002  
  586.00  2.3987E-002  
  586.50  2.4077E-002  
  587.00  2.4116E-002  
  587.50  2.4150E-002  
  588.00  2.4215E-002  
  588.50  2.4306E-002  
  589.00  2.4351E-002  
  589.50  2.4398E-002  
  590.00  2.4448E-002  
  590.50  2.4536E-002  
  591.00  2.4666E-002  
  591.50  2.4769E-002  
  592.00  2.4865E-002  
  592.50  2.4931E-002  
  593.00  2.5048E-002  
  593.50  2.5063E-002  
  594.00  2.5036E-002  
  594.50  2.5010E-002  
  595.00  2.5048E-002  
  595.50  2.5157E-002  
  596.00  2.5219E-002  
  596.50  2.5235E-002  
  597.00  2.5242E-002  
  597.50  2.5213E-002  
  598.00  2.5216E-002  
  598.50  2.5190E-002  
  599.00  2.5196E-002  
  599.50  2.5201E-002  
  600.00  2.5208E-002  
  600.50  2.5261E-002  
  601.00  2.5388E-002  
  601.50  2.5482E-002  
  602.00  2.5549E-002  
  602.50  2.5538E-002  
  603.00  2.5573E-002  
  603.50  2.5565E-002  
  604.00  2.5548E-002  
  604.50  2.5543E-002  
  605.00  2.5530E-002  
  605.50  2.5531E-002  
  606.00  2.5530E-002  
  606.50  2.5525E-002  
  607.00  2.5527E-002  
  607.50  2.5433E-002  
  608.00  2.5359E-002  
  608.50  2.5355E-002  
  609.00  2.5458E-002  
  609.50  2.5530E-002  
  610.00  2.5532E-002  
  610.50  2.5486E-002  
  611.00  2.5455E-002  
  611.50  2.5366E-002  
  612.00  2.5301E-002  
  612.50  2.5274E-002  
  613.00  2.5286E-002  
  613.50  2.5284E-002  
  614.00  2.5248E-002  
  614.50  2.5221E-002  
  615.00  2.5186E-002  
  615.50  2.5063E-002  
  616.00  2.4910E-002  
  616.50  2.4827E-002  
  617.00  2.4824E-002  
  617.50  2.4868E-002  
  618.00  2.4816E-002  
  618.50  2.4684E-002  
  619.00  2.4558E-002  
  619.50  2.4437E-002  
  620.00  2.4356E-002  
  620.50  2.4297E-002  
  621.00  2.4236E-002  
  621.50  2.4184E-002  
  622.00  2.4148E-002  
  622.50  2.4073E-002  
  623.00  2.3920E-002  
  623.50  2.3759E-002  
  624.00  2.3642E-002  
  624.50  2.3626E-002  
  625.00  2.3579E-002  
  625.50  2.3490E-002  
  626.00  2.3360E-002  
  626.50  2.3205E-002  
  627.00  2.3109E-002  
  627.50  2.3084E-002  
  628.00  2.3039E-002  
  628.50  2.2902E-002  
  629.00  2.2682E-002  
  629.50  2.2449E-002  
  630.00  2.2340E-002  
  630.50  2.2313E-002  
  631.00  2.2323E-002  
  631.50  2.2228E-002  
  632.00  2.1989E-002  
  632.50  2.1785E-002  
  633.00  2.1594E-002  
  633.50  2.1456E-002  
  634.00  2.1327E-002  
  634.50  2.1271E-002  
  635.00  2.1324E-002  
  635.50  2.1289E-002  
  636.00  2.1142E-002  
  636.50  2.0887E-002  
  637.00  2.0760E-002  
  637.50  2.0648E-002  
  638.00  2.0551E-002  
  638.50  2.0366E-002  
  639.00  2.0186E-002  
  639.50  2.0085E-002  
  640.00  1.9951E-002  
  640.50  1.9814E-002  
  641.00  1.9613E-002  
  641.50  1.9448E-002  
  642.00  1.9444E-002  
  642.50  1.9425E-002  
  643.00  1.9348E-002  
  643.50  1.9050E-002  
  644.00  1.8803E-002  
  644.50  1.8619E-002  
  645.00  1.8543E-002  
  645.50  1.8445E-002  
  646.00  1.8263E-002  
  646.50  1.8100E-002  
  647.00  1.7947E-002  
  647.50  1.7801E-002  
  648.00  1.7679E-002  
  648.50  1.7534E-002  
  649.00  1.7372E-002  
  649.50  1.7192E-002  
  650.00  1.7024E-002  
  650.50  1.6906E-002  
  651.00  1.6750E-002  
  651.50  1.6536E-002  
  652.00  1.6356E-002  
  652.50  1.6220E-002  
  653.00  1.6103E-002  
  653.50  1.5947E-002  
  654.00  1.5834E-002  
  654.50  1.5739E-002  
  655.00  1.5675E-002  
  655.50  1.5453E-002  
  656.00  1.5236E-002  
  656.50  1.5005E-002  
  657.00  1.4840E-002  
  657.50  1.4714E-002  
  658.00  1.4603E-002  
  658.50  1.4506E-002  
  659.00  1.4328E-002  
  659.50  1.4173E-002  
  660.00  1.4022E-002  
  660.50  1.3939E-002  
  661.00  1.3806E-002  
  661.50  1.3678E-002  
  662.00  1.3501E-002  
  662.50  1.3359E-002  
  663.00  1.3227E-002  
  663.50  1.3070E-002  
  664.00  1.2877E-002  
  664.50  1.2731E-002  
  665.00  1.2613E-002  
  665.50  1.2495E-002  
  666.00  1.2292E-002  
  666.50  1.2158E-002  
  667.00  1.2018E-002  
  667.50  1.1842E-002  
  668.00  1.1621E-002  
  668.50  1.1522E-002  
  669.00  1.1565E-002  
  669.50  1.1509E-002  
  670.00  1.1374E-002  
  670.50  1.1120E-002  
  671.00  1.0920E-002  
  671.50  1.0781E-002  
  672.00  1.0721E-002  
  672.50  1.0670E-002  
  673.00  1.0589E-002  
  673.50  1.0520E-002  
  674.00  1.0450E-002  
  674.50  1.0334E-002  
  675.00  1.0192E-002  
  675.50  1.0031E-002  
  676.00  9.8366E-003  
  676.50  9.6198E-003  
  677.00  9.4831E-003  
  677.50  9.4209E-003  
  678.00  9.3352E-003  
  678.50  9.2673E-003  
  679.00  9.1575E-003  
  679.50  9.0223E-003  
  680.00  8.8798E-003  
  680.50  8.8008E-003  
  681.00  8.6912E-003  
  681.50  8.5197E-003  
  682.00  8.3972E-003  
  682.50  8.4133E-003  
  683.00  8.3851E-003  
  683.50  8.2620E-003  
  684.00  8.0621E-003  
  684.50  7.9146E-003  
  685.00  7.7919E-003  
  685.50  7.7090E-003  
  686.00  7.6656E-003  
  686.50  7.5680E-003  
  687.00  7.5018E-003  
  687.50  7.4533E-003  
  688.00  7.4311E-003  
  688.50  7.3308E-003  
  689.00  7.1353E-003  
  689.50  6.9494E-003  
  690.00  6.8412E-003  
  690.50  6.7722E-003  
  691.00  6.7106E-003  
  691.50  6.6021E-003  
  692.00  6.5979E-003  
  692.50  6.5915E-003  
  693.00  6.5875E-003  
  693.50  6.5100E-003  
  694.00  6.4091E-003  
  694.50  6.2920E-003  
  695.00  6.1695E-003  
  695.50  6.0516E-003  
  696.00  5.9993E-003  
  696.50  5.9195E-003  
  697.00  5.8392E-003  
  697.50  5.7426E-003  
  698.00  5.6452E-003  
  698.50  5.5727E-003  
  699.00  5.4881E-003  
  699.50  5.3726E-003  
  700.00  5.3309E-003  
  700.50  5.2260E-003  
  701.00  5.1541E-003  
  701.50  5.0051E-003  
  702.00  4.9717E-003  
  702.50  4.9637E-003  
  703.00  5.0058E-003  
  703.50  4.9058E-003  
  704.00  4.8216E-003  
  704.50  4.7103E-003  
  705.00  4.7270E-003  
  705.50  4.5852E-003  
  706.00  4.4156E-003  
  706.50  4.3101E-003  
  707.00  4.3201E-003  
  707.50  4.3298E-003  
  708.00  4.2383E-003  
  708.50  4.1590E-003  
  709.00  4.1577E-003  
  709.50  4.1242E-003  
  710.00  4.0189E-003  
  710.50  3.9110E-003  
  711.00  3.8841E-003  
  711.50  3.8710E-003  
  712.00  3.8232E-003  
  712.50  3.8833E-003  
  713.00  3.8210E-003  
  713.50  3.7475E-003  
  714.00  3.5807E-003  
  714.50  3.5898E-003  
  715.00  3.5910E-003  
  715.50  3.5759E-003  
  716.00  3.4856E-003  
  716.50  3.4357E-003  
  717.00  3.3993E-003  
  717.50  3.3716E-003  
  718.00  3.2739E-003  
  718.50  3.2405E-003  
  719.00  3.3228E-003  
  719.50  3.2519E-003  
  720.00  3.1075E-003  
  720.50  2.9997E-003  
  721.00  3.0223E-003  
  721.50  3.0132E-003  
  722.00  2.9586E-003  
  722.50  2.8637E-003  
  723.00  2.8138E-003  
  723.50  2.7845E-003  
  724.00  2.8514E-003  
  724.50  2.8259E-003  
  725.00  2.8286E-003  
  725.50  2.8151E-003  
  726.00  2.7591E-003  
  726.50  2.6247E-003  
  727.00  2.5100E-003  
  727.50  2.4663E-003  
  728.00  2.5127E-003  
  728.50  2.5136E-003  
  729.00  2.4880E-003  
  729.50  2.4238E-003  
  730.00  2.3270E-003  
  730.50  2.2897E-003  
  731.00  2.2336E-003  
  731.50  2.2142E-003  
  732.00  2.0985E-003  
  732.50  1.9572E-003  
  733.00  1.9060E-003  
  733.50  1.9111E-003  
  734.00  1.9915E-003  
  734.50  2.0110E-003  
  735.00  2.1274E-003  
  735.50  2.0692E-003  
  736.00  2.0043E-003  
  736.50  1.9712E-003  
  737.00  1.9167E-003  
  737.50  1.8132E-003  
  738.00  1.6982E-003  
  738.50  1.7647E-003  
  739.00  1.8845E-003  
  739.50  1.9760E-003  
  740.00  1.8045E-003  
  740.50  1.6799E-003  
  741.00  1.6014E-003  
  741.50  1.6465E-003  
  742.00  1.6722E-003  
  742.50  1.7440E-003  
  743.00  1.7788E-003  
  743.50  1.7802E-003  
  744.00  1.7590E-003  
  744.50  1.7371E-003  
  745.00  1.6296E-003  
  745.50  1.5077E-003  
  746.00  1.4868E-003  
  746.50  1.4063E-003  
  747.00  1.4184E-003  
  747.50  1.3940E-003  
  748.00  1.4478E-003  
  748.50  1.3416E-003  
  749.00  1.2731E-003  
  749.50  1.1536E-003  
  750.00  1.0597E-003  
  750.50  1.0669E-003  
  751.00  1.1710E-003  
  751.50  1.1888E-003  
  752.00  1.2623E-003  
  752.50  1.2429E-003  
  753.00  1.1855E-003  
  753.50  1.0612E-003  
  754.00  1.1374E-003  
  754.50  1.1104E-003  
  755.00  9.9668E-004  
  755.50  9.9223E-004  
  756.00  1.1511E-003  
  756.50  1.2799E-003  
  757.00  1.2534E-003  
  757.50  1.2697E-003  
  758.00  1.2570E-003  
  758.50  1.2090E-003  
  759.00  1.1445E-003  
  759.50  1.0935E-003  
  760.00  1.1175E-003  
  760.50  1.0674E-003  
  761.00  9.4341E-004  
  761.50  8.5032E-004  
  762.00  1.0148E-003  
  762.50  1.1337E-003  
  763.00  1.1153E-003  
  763.50  9.7150E-004  
  764.00  9.5152E-004  
  764.50  9.4978E-004  
  765.00  8.6799E-004  
  765.50  6.9232E-004  
  766.00  5.5503E-004  
  766.50  5.3261E-004  
  767.00  6.3299E-004  
  767.50  8.3459E-004  
  768.00  9.4533E-004  
  768.50  1.0766E-003  
  769.00  9.8486E-004  
  769.50  9.0612E-004  
  770.00  7.7663E-004  
  770.50  8.0361E-004  
  771.00  6.6156E-004  
  771.50  7.9035E-004  
  772.00  8.1242E-004  
  772.50  8.3190E-004  
  773.00  6.9588E-004  
  773.50  5.9221E-004  
  774.00  4.7605E-004  
  774.50  5.1637E-004  
  775.00  7.2158E-004  
  775.50  7.3034E-004  
  776.00  5.4580E-004  
  776.50  4.3300E-004  
  777.00  4.7980E-004  
  777.50  6.4708E-004  
  778.00  6.2734E-004  
  778.50  5.6915E-004  
  779.00  5.9750E-004  
  779.50  5.9459E-004  
  780.00  3.7188E-004  
  780.50  2.8167E-004  
  781.00  3.7383E-004  
  781.50  3.9040E-004  
  782.00  2.5498E-004  
  782.50  3.7485E-004  
  783.00  4.8103E-004  
  783.50  4.6601E-004  
  784.00  4.2050E-004  
  784.50  4.0884E-004  
  785.00  3.3745E-004  
  785.50  3.6657E-004  
  786.00  4.1653E-004  
  786.50  5.3540E-004  
  787.00  3.8125E-004  
  787.50  4.1876E-004  
  788.00  4.3248E-004  
  788.50  4.7916E-004  
  789.00  3.5723E-004  
  789.50  1.5828E-004  
  790.00  2.1397E-004  
  790.50  3.3327E-004  
  791.00  5.3661E-004  
  791.50  5.5820E-004  
  792.00  4.0895E-004  
  792.50  3.4874E-004  
  793.00  4.8150E-004  
  793.50  3.8330E-004  
  794.00  1.3979E-004  
  794.50  1.7223E-004  
  795.00  2.4423E-004  
  795.50  2.5668E-004  
  796.00  1.4628E-004  
  796.50  1.7030E-004  
  797.00  1.6073E-004  
  797.50  2.1591E-004  
  798.00  1.3176E-004  
  798.50  2.7965E-004  
  799.00  3.0658E-004  
  799.50  3.3532E-004  
  800.00  2.6122E-004  
  800.50  1.5903E-004  
  801.00  2.6357E-004  
  801.50  5.2892E-004  
  802.00  6.7017E-004  
  802.50  4.6931E-004  
  803.00  2.3971E-004  
  803.50  1.6081E-004  
  804.00  2.0242E-004  
  804.50  2.4290E-004  
  805.00  2.8009E-004  
  805.50  1.3730E-004  
  806.00  7.6931E-005  
  806.50  6.8631E-008  
  807.00  1.9653E-005  
  807.50  7.3758E-005  
  808.00  3.4307E-004  
  808.50  5.7194E-004  
  809.00  4.4312E-004  
  809.50  1.6786E-004  
  810.00  0.0000E+000  
  810.50  5.4609E-005  
  811.00  3.1162E-004  
  811.50  4.8954E-004  
  812.00  4.0180E-004  
  812.50  4.4079E-005  
  813.00  0.0000E+000  
  813.50  0.0000E+000  
  814.00  8.8494E-005  
  814.50  1.5241E-004  
  815.00  3.4638E-004  
  815.50  3.3070E-004  
  816.00  4.0548E-004  
  816.50  3.8427E-004  
  817.00  1.8011E-004  
  817.50  8.8453E-005  
  818.00  9.9889E-005  
  818.50  1.1436E-004  
  819.00  1.1547E-004  
  819.50  1.9435E-004  
  820.00  3.7946E-004  
  820.50  4.5164E-004  
  821.00  2.0375E-004  
  821.50  4.2801E-005  
  822.00  1.7865E-004  
  822.50  3.2644E-006  
  823.00  0.0000E+000  
  823.50  0.0000E+000  
  824.00  1.8819E-004  
  824.50  3.4064E-004  
  825.00  2.1749E-004  
  825.50  9.3157E-006  
  826.00  4.9299E-005  
  826.50  1.6064E-004  
  827.00  1.5749E-004  
  827.50  1.1387E-004  
  828.00  2.6586E-005  
  828.50  8.3272E-005  
  829.00  1.0524E-004  
  829.50  1.0651E-004  
  830.00  0.0000E+000  
  830.50  0.0000E+000  
  831.00  0.0000E+000  
  831.50  8.3937E-005  
  832.00  5.2233E-004  
  832.50  4.1740E-004  
  833.00  2.9175E-004  
  833.50  6.3136E-005  
  834.00  2.4640E-007  
  834.50  0.0000E+000  
  835.00  7.2992E-005  
  835.50  3.3769E-004  
  836.00  1.7732E-004  
  836.50  9.1463E-005  
  837.00  2.9485E-004  
  837.50  2.0106E-004  
  838.00  0.0000E+000  
  838.50  0.0000E+000  
  839.00  0.0000E+000  
  839.50  0.0000E+000  
  840.00  1.1023E-005  
  840.50  3.2869E-004  
  841.00  0.0000E+000  
  841.50  0.0000E+000  
  842.00  0.0000E+000  
  842.50  0.0000E+000  
  843.00  0.0000E+000  
  843.50  2.7278E-004  
  844.00  5.1316E-004  
  844.50  1.9301E-004  
  845.00  0.0000E+000  
  845.50  3.0865E-005  
  846.00  1.5105E-004  
  846.50  6.8425E-005  
  847.00  2.7939E-005  
  847.50  0.0000E+000  
  848.00  2.9562E-004  
  848.50  9.7856E-004  
  849.00  9.2653E-004  
  849.50  7.5988E-004  
  850.00  5.6670E-004  
  850.50  8.6010E-004  
  851.00  6.2151E-004  
  851.50  0.0000E+000  
  852.00  0.0000E+000  
  852.50  2.3052E-004  
  853.00  4.4789E-004  
  853.50  4.0516E-005  
  854.00  7.5718E-005  
  854.50  6.3656E-004  
  855.00  1.0625E-003  
  855.50  8.1989E-004  
  856.00  6.3425E-004  
  856.50  8.0403E-004  
  857.00  5.6188E-004  
  857.50  7.5205E-006  
  858.00  0.0000E+000  
  858.50  0.0000E+000  
  859.00  0.0000E+000  
  859.50  0.0000E+000  
  860.00  7.2461E-005  
  860.50  3.4589E-004  
  861.00  2.1841E-004  
  861.50  0.0000E+000  
  862.00  1.0238E-004  
  862.50  3.6493E-004  
  863.00  3.7259E-004  
  863.50  2.1424E-004  
  864.00  4.6393E-004  
  864.50  2.5531E-004  
  865.00  1.0644E-004  
  865.50  0.0000E+000  
  866.00  0.0000E+000  
  866.50  1.3125E-004  
  867.00  3.5289E-004  
  867.50  1.2048E-004  
  868.00  8.0208E-005  
  868.50  0.0000E+000  
  869.00  9.0437E-006  
  869.50  1.8554E-004  
  870.00  1.5730E-004  
  870.50  1.3003E-004  
  871.00  5.8487E-004  
  871.50  1.0856E-003  
  872.00  8.8729E-004  
  872.50  9.0072E-004  
  873.00  1.7217E-004  
  873.50  0.0000E+000  
  874.00  0.0000E+000  
  874.50  4.9455E-004  
  875.00  5.9822E-004  
  875.50  4.6529E-004  
  876.00  9.7446E-004  
  876.50  1.2304E-003  
  877.00  5.1423E-004  
  877.50  0.0000E+000  
  878.00  0.0000E+000  
  878.50  0.0000E+000  
  879.00  0.0000E+000  
  879.50  2.2548E-004  
  880.00  1.1270E-003  
  880.50  6.9464E-004  
  881.00  2.9081E-004  
  881.50  2.6516E-004  
  882.00  5.5821E-005  
  882.50  0.0000E+000  
  883.00  0.0000E+000  
  883.50  0.0000E+000  
  884.00  0.0000E+000  
  884.50  3.6082E-005  
  885.00  1.4365E-004  
  885.50  1.7207E-004  
  886.00  0.0000E+000  
  886.50  0.0000E+000  
  887.00  1.0071E-005  
  887.50  4.1237E-004  
  888.00  0.0000E+000  
  888.50  0.0000E+000  
  889.00  0.0000E+000  
  889.50  0.0000E+000  
  890.00  0.0000E+000  
  890.50  0.0000E+000  
  891.00  0.0000E+000  
  891.50  0.0000E+000  
  892.00  0.0000E+000  
  892.50  0.0000E+000  
  893.00  2.9283E-004  
  893.50  2.9679E-004  
  894.00  1.8138E-004  
  894.50  0.0000E+000  
  895.00  0.0000E+000  
  895.50  6.9836E-005  
  896.00  6.3576E-004  
  896.50  2.0321E-004  
  897.00  0.0000E+000  
  897.50  0.0000E+000  
  898.00  2.7337E-004  
  898.50  1.0147E-004  
  899.00  0.0000E+000  
  899.50  0.0000E+000  
