
# From lspdd.org
# 
# Name: DEL Sylvania A19 Domestique
# Indice spectral Valeur 
# MSI 0.26 
# SLI 0.46 
# IPI 0.65 
# Pourcentage de bleu 17.0 
# Caractéristique Valeur 
# CCT calculée (K) 2728 
# CCT du fabricant (K) 2700 
# Tension (V) 120 
# Puissance (W) 10.0 
# Efficacité lumineuse (Lum/W) 80.0 
#
# Image: '/app/system/img_2s/2541/medium_image2.JPG?1413486177'
# Image: '/app/system/img_1s/2541/medium_image1.JPG?1413486181'
# 

  273.00  0.0000E+000  
  273.50  0.0000E+000  
  274.00  0.0000E+000  
  274.50  0.0000E+000  
  275.00  0.0000E+000  
  275.50  0.0000E+000  
  276.00  0.0000E+000  
  276.50  0.0000E+000  
  277.00  0.0000E+000  
  277.50  0.0000E+000  
  278.00  0.0000E+000  
  278.50  0.0000E+000  
  279.00  0.0000E+000  
  279.50  0.0000E+000  
  280.00  0.0000E+000  
  280.50  0.0000E+000  
  281.00  0.0000E+000  
  281.50  0.0000E+000  
  282.00  0.0000E+000  
  282.50  0.0000E+000  
  283.00  0.0000E+000  
  283.50  0.0000E+000  
  284.00  0.0000E+000  
  284.50  0.0000E+000  
  285.00  0.0000E+000  
  285.50  0.0000E+000  
  286.00  0.0000E+000  
  286.50  0.0000E+000  
  287.00  0.0000E+000  
  287.50  0.0000E+000  
  288.00  0.0000E+000  
  288.50  0.0000E+000  
  289.00  0.0000E+000  
  289.50  0.0000E+000  
  290.00  0.0000E+000  
  290.50  0.0000E+000  
  291.00  0.0000E+000  
  291.50  0.0000E+000  
  292.00  0.0000E+000  
  292.50  0.0000E+000  
  293.00  0.0000E+000  
  293.50  0.0000E+000  
  294.00  0.0000E+000  
  294.50  0.0000E+000  
  295.00  0.0000E+000  
  295.50  0.0000E+000  
  296.00  0.0000E+000  
  296.50  0.0000E+000  
  297.00  0.0000E+000  
  297.50  0.0000E+000  
  298.00  0.0000E+000  
  298.50  0.0000E+000  
  299.00  0.0000E+000  
  299.50  0.0000E+000  
  300.00  0.0000E+000  
  300.50  0.0000E+000  
  301.00  0.0000E+000  
  301.50  0.0000E+000  
  302.00  6.4223E-007  
  302.50  1.1881E-005  
  303.00  5.3979E-005  
  303.50  2.1785E-005  
  304.00  0.0000E+000  
  304.50  0.0000E+000  
  305.00  0.0000E+000  
  305.50  0.0000E+000  
  306.00  4.2786E-006  
  306.50  0.0000E+000  
  307.00  0.0000E+000  
  307.50  0.0000E+000  
  308.00  2.2640E-006  
  308.50  9.5189E-006  
  309.00  1.4173E-006  
  309.50  0.0000E+000  
  310.00  0.0000E+000  
  310.50  0.0000E+000  
  311.00  0.0000E+000  
  311.50  0.0000E+000  
  312.00  0.0000E+000  
  312.50  0.0000E+000  
  313.00  0.0000E+000  
  313.50  2.4714E-005  
  314.00  8.7349E-005  
  314.50  8.7755E-005  
  315.00  2.8010E-005  
  315.50  4.3773E-008  
  316.00  0.0000E+000  
  316.50  0.0000E+000  
  317.00  0.0000E+000  
  317.50  0.0000E+000  
  318.00  0.0000E+000  
  318.50  0.0000E+000  
  319.00  0.0000E+000  
  319.50  0.0000E+000  
  320.00  1.0916E-005  
  320.50  4.7107E-005  
  321.00  1.2031E-005  
  321.50  0.0000E+000  
  322.00  0.0000E+000  
  322.50  0.0000E+000  
  323.00  0.0000E+000  
  323.50  0.0000E+000  
  324.00  0.0000E+000  
  324.50  0.0000E+000  
  325.00  0.0000E+000  
  325.50  0.0000E+000  
  326.00  0.0000E+000  
  326.50  0.0000E+000  
  327.00  0.0000E+000  
  327.50  0.0000E+000  
  328.00  0.0000E+000  
  328.50  0.0000E+000  
  329.00  0.0000E+000  
  329.50  0.0000E+000  
  330.00  0.0000E+000  
  330.50  0.0000E+000  
  331.00  0.0000E+000  
  331.50  0.0000E+000  
  332.00  0.0000E+000  
  332.50  0.0000E+000  
  333.00  0.0000E+000  
  333.50  0.0000E+000  
  334.00  0.0000E+000  
  334.50  0.0000E+000  
  335.00  0.0000E+000  
  335.50  0.0000E+000  
  336.00  0.0000E+000  
  336.50  0.0000E+000  
  337.00  0.0000E+000  
  337.50  0.0000E+000  
  338.00  0.0000E+000  
  338.50  0.0000E+000  
  339.00  0.0000E+000  
  339.50  0.0000E+000  
  340.00  0.0000E+000  
  340.50  0.0000E+000  
  341.00  0.0000E+000  
  341.50  3.3917E-006  
  342.00  4.7347E-006  
  342.50  2.1370E-006  
  343.00  0.0000E+000  
  343.50  0.0000E+000  
  344.00  0.0000E+000  
  344.50  0.0000E+000  
  345.00  0.0000E+000  
  345.50  4.5392E-006  
  346.00  1.0109E-005  
  346.50  2.4397E-007  
  347.00  0.0000E+000  
  347.50  0.0000E+000  
  348.00  2.7409E-005  
  348.50  6.6550E-005  
  349.00  1.0796E-004  
  349.50  6.8762E-005  
  350.00  3.1620E-005  
  350.50  1.0891E-005  
  351.00  0.0000E+000  
  351.50  0.0000E+000  
  352.00  0.0000E+000  
  352.50  0.0000E+000  
  353.00  0.0000E+000  
  353.50  1.9300E-005  
  354.00  3.8172E-005  
  354.50  2.7921E-005  
  355.00  2.7186E-006  
  355.50  0.0000E+000  
  356.00  0.0000E+000  
  356.50  0.0000E+000  
  357.00  0.0000E+000  
  357.50  0.0000E+000  
  358.00  0.0000E+000  
  358.50  0.0000E+000  
  359.00  0.0000E+000  
  359.50  0.0000E+000  
  360.00  1.1048E-005  
  360.50  3.8860E-005  
  361.00  4.3616E-005  
  361.50  3.2776E-006  
  362.00  0.0000E+000  
  362.50  0.0000E+000  
  363.00  2.6363E-005  
  363.50  7.6865E-005  
  364.00  1.3005E-004  
  364.50  7.2235E-005  
  365.00  4.0459E-005  
  365.50  1.4042E-005  
  366.00  0.0000E+000  
  366.50  0.0000E+000  
  367.00  0.0000E+000  
  367.50  0.0000E+000  
  368.00  0.0000E+000  
  368.50  0.0000E+000  
  369.00  0.0000E+000  
  369.50  0.0000E+000  
  370.00  0.0000E+000  
  370.50  0.0000E+000  
  371.00  0.0000E+000  
  371.50  0.0000E+000  
  372.00  0.0000E+000  
  372.50  0.0000E+000  
  373.00  0.0000E+000  
  373.50  0.0000E+000  
  374.00  0.0000E+000  
  374.50  0.0000E+000  
  375.00  0.0000E+000  
  375.50  0.0000E+000  
  376.00  0.0000E+000  
  376.50  2.9072E-006  
  377.00  0.0000E+000  
  377.50  0.0000E+000  
  378.00  0.0000E+000  
  378.50  0.0000E+000  
  379.00  0.0000E+000  
  379.50  0.0000E+000  
  380.00  0.0000E+000  
  380.50  0.0000E+000  
  381.00  0.0000E+000  
  381.50  0.0000E+000  
  382.00  0.0000E+000  
  382.50  0.0000E+000  
  383.00  2.3866E-005  
  383.50  6.2143E-005  
  384.00  9.8022E-005  
  384.50  9.8668E-005  
  385.00  1.1030E-004  
  385.50  1.0589E-004  
  386.00  1.8304E-005  
  386.50  0.0000E+000  
  387.00  0.0000E+000  
  387.50  0.0000E+000  
  388.00  5.6759E-005  
  388.50  5.7967E-005  
  389.00  4.6043E-005  
  389.50  1.9029E-005  
  390.00  2.7284E-005  
  390.50  3.9375E-005  
  391.00  6.1030E-005  
  391.50  7.0443E-005  
  392.00  5.0015E-005  
  392.50  7.5900E-007  
  393.00  0.0000E+000  
  393.50  0.0000E+000  
  394.00  0.0000E+000  
  394.50  1.1776E-005  
  395.00  4.0095E-005  
  395.50  6.1240E-005  
  396.00  6.4271E-005  
  396.50  7.3022E-005  
  397.00  7.2445E-005  
  397.50  8.4558E-006  
  398.00  0.0000E+000  
  398.50  0.0000E+000  
  399.00  0.0000E+000  
  399.50  6.5878E-006  
  400.00  2.8388E-005  
  400.50  3.6968E-005  
  401.00  5.8395E-005  
  401.50  8.3207E-005  
  402.00  1.1150E-004  
  402.50  1.4812E-004  
  403.00  1.8673E-004  
  403.50  1.8727E-004  
  404.00  2.3423E-004  
  404.50  2.5952E-004  
  405.00  2.4781E-004  
  405.50  2.5384E-004  
  406.00  2.3575E-004  
  406.50  2.0798E-004  
  407.00  1.8521E-004  
  407.50  2.0256E-004  
  408.00  2.3680E-004  
  408.50  3.5360E-004  
  409.00  4.3641E-004  
  409.50  4.9762E-004  
  410.00  5.2294E-004  
  410.50  5.1339E-004  
  411.00  5.1603E-004  
  411.50  4.8346E-004  
  412.00  4.6171E-004  
  412.50  4.8729E-004  
  413.00  5.5956E-004  
  413.50  6.8055E-004  
  414.00  7.7545E-004  
  414.50  8.4435E-004  
  415.00  9.3882E-004  
  415.50  1.0697E-003  
  416.00  1.2267E-003  
  416.50  1.3445E-003  
  417.00  1.4191E-003  
  417.50  1.4840E-003  
  418.00  1.5516E-003  
  418.50  1.6445E-003  
  419.00  1.7790E-003  
  419.50  1.9094E-003  
  420.00  2.0803E-003  
  420.50  2.2907E-003  
  421.00  2.4592E-003  
  421.50  2.6269E-003  
  422.00  2.7637E-003  
  422.50  2.8980E-003  
  423.00  3.0574E-003  
  423.50  3.2354E-003  
  424.00  3.4716E-003  
  424.50  3.7658E-003  
  425.00  4.0049E-003  
  425.50  4.2024E-003  
  426.00  4.3735E-003  
  426.50  4.5853E-003  
  427.00  4.8601E-003  
  427.50  5.1321E-003  
  428.00  5.3920E-003  
  428.50  5.6412E-003  
  429.00  5.8619E-003  
  429.50  6.1083E-003  
  430.00  6.3671E-003  
  430.50  6.6730E-003  
  431.00  6.9813E-003  
  431.50  7.2511E-003  
  432.00  7.5830E-003  
  432.50  7.9941E-003  
  433.00  8.4153E-003  
  433.50  8.7926E-003  
  434.00  9.1210E-003  
  434.50  9.4251E-003  
  435.00  9.8261E-003  
  435.50  1.0251E-002  
  436.00  1.0741E-002  
  436.50  1.1190E-002  
  437.00  1.1694E-002  
  437.50  1.2192E-002  
  438.00  1.2742E-002  
  438.50  1.3210E-002  
  439.00  1.3553E-002  
  439.50  1.3953E-002  
  440.00  1.4356E-002  
  440.50  1.4848E-002  
  441.00  1.5268E-002  
  441.50  1.5561E-002  
  442.00  1.5850E-002  
  442.50  1.6057E-002  
  443.00  1.6283E-002  
  443.50  1.6387E-002  
  444.00  1.6452E-002  
  444.50  1.6495E-002  
  445.00  1.6488E-002  
  445.50  1.6420E-002  
  446.00  1.6236E-002  
  446.50  1.5949E-002  
  447.00  1.5590E-002  
  447.50  1.5277E-002  
  448.00  1.4917E-002  
  448.50  1.4555E-002  
  449.00  1.4221E-002  
  449.50  1.3805E-002  
  450.00  1.3370E-002  
  450.50  1.2884E-002  
  451.00  1.2356E-002  
  451.50  1.1830E-002  
  452.00  1.1317E-002  
  452.50  1.0825E-002  
  453.00  1.0428E-002  
  453.50  1.0035E-002  
  454.00  9.6647E-003  
  454.50  9.2970E-003  
  455.00  8.9639E-003  
  455.50  8.6417E-003  
  456.00  8.3645E-003  
  456.50  8.1035E-003  
  457.00  7.8893E-003  
  457.50  7.6733E-003  
  458.00  7.4387E-003  
  458.50  7.2603E-003  
  459.00  7.0877E-003  
  459.50  6.9245E-003  
  460.00  6.7581E-003  
  460.50  6.5564E-003  
  461.00  6.3985E-003  
  461.50  6.2362E-003  
  462.00  6.0918E-003  
  462.50  5.9474E-003  
  463.00  5.8114E-003  
  463.50  5.6789E-003  
  464.00  5.5773E-003  
  464.50  5.5499E-003  
  465.00  5.5046E-003  
  465.50  5.3688E-003  
  466.00  5.1863E-003  
  466.50  5.0015E-003  
  467.00  4.8843E-003  
  467.50  4.8022E-003  
  468.00  4.6862E-003  
  468.50  4.5711E-003  
  469.00  4.4741E-003  
  469.50  4.4105E-003  
  470.00  4.3796E-003  
  470.50  4.3887E-003  
  471.00  4.4366E-003  
  471.50  4.4663E-003  
  472.00  4.4662E-003  
  472.50  4.4164E-003  
  473.00  4.3913E-003  
  473.50  4.4061E-003  
  474.00  4.4484E-003  
  474.50  4.5244E-003  
  475.00  4.5769E-003  
  475.50  4.6250E-003  
  476.00  4.6613E-003  
  476.50  4.6830E-003  
  477.00  4.7137E-003  
  477.50  4.7631E-003  
  478.00  4.8448E-003  
  478.50  4.9454E-003  
  479.00  5.0474E-003  
  479.50  5.1537E-003  
  480.00  5.2299E-003  
  480.50  5.2873E-003  
  481.00  5.3487E-003  
  481.50  5.4281E-003  
  482.00  5.5377E-003  
  482.50  5.6528E-003  
  483.00  5.7643E-003  
  483.50  5.9059E-003  
  484.00  6.0814E-003  
  484.50  6.2451E-003  
  485.00  6.3730E-003  
  485.50  6.4824E-003  
  486.00  6.5791E-003  
  486.50  6.7076E-003  
  487.00  6.8047E-003  
  487.50  6.9386E-003  
  488.00  7.0873E-003  
  488.50  7.2851E-003  
  489.00  7.4937E-003  
  489.50  7.7035E-003  
  490.00  7.8974E-003  
  490.50  8.0882E-003  
  491.00  8.2673E-003  
  491.50  8.4173E-003  
  492.00  8.5831E-003  
  492.50  8.7380E-003  
  493.00  8.9162E-003  
  493.50  9.1030E-003  
  494.00  9.2633E-003  
  494.50  9.4363E-003  
  495.00  9.5924E-003  
  495.50  9.7455E-003  
  496.00  9.9214E-003  
  496.50  1.0114E-002  
  497.00  1.0345E-002  
  497.50  1.0588E-002  
  498.00  1.0787E-002  
  498.50  1.0922E-002  
  499.00  1.1043E-002  
  499.50  1.1220E-002  
  500.00  1.1424E-002  
  500.50  1.1605E-002  
  501.00  1.1780E-002  
  501.50  1.1946E-002  
  502.00  1.2130E-002  
  502.50  1.2293E-002  
  503.00  1.2431E-002  
  503.50  1.2593E-002  
  504.00  1.2784E-002  
  504.50  1.2985E-002  
  505.00  1.3163E-002  
  505.50  1.3318E-002  
  506.00  1.3480E-002  
  506.50  1.3626E-002  
  507.00  1.3777E-002  
  507.50  1.3932E-002  
  508.00  1.4071E-002  
  508.50  1.4256E-002  
  509.00  1.4421E-002  
  509.50  1.4577E-002  
  510.00  1.4742E-002  
  510.50  1.4864E-002  
  511.00  1.5032E-002  
  511.50  1.5197E-002  
  512.00  1.5352E-002  
  512.50  1.5460E-002  
  513.00  1.5559E-002  
  513.50  1.5663E-002  
  514.00  1.5828E-002  
  514.50  1.6043E-002  
  515.00  1.6225E-002  
  515.50  1.6427E-002  
  516.00  1.6598E-002  
  516.50  1.6776E-002  
  517.00  1.6943E-002  
  517.50  1.7083E-002  
  518.00  1.7191E-002  
  518.50  1.7320E-002  
  519.00  1.7417E-002  
  519.50  1.7519E-002  
  520.00  1.7620E-002  
  520.50  1.7767E-002  
  521.00  1.7946E-002  
  521.50  1.8167E-002  
  522.00  1.8351E-002  
  522.50  1.8559E-002  
  523.00  1.8708E-002  
  523.50  1.8870E-002  
  524.00  1.9016E-002  
  524.50  1.9175E-002  
  525.00  1.9322E-002  
  525.50  1.9424E-002  
  526.00  1.9564E-002  
  526.50  1.9738E-002  
  527.00  1.9929E-002  
  527.50  2.0120E-002  
  528.00  2.0312E-002  
  528.50  2.0528E-002  
  529.00  2.0723E-002  
  529.50  2.0850E-002  
  530.00  2.1009E-002  
  530.50  2.1165E-002  
  531.00  2.1361E-002  
  531.50  2.1566E-002  
  532.00  2.1707E-002  
  532.50  2.1901E-002  
  533.00  2.2058E-002  
  533.50  2.2281E-002  
  534.00  2.2500E-002  
  534.50  2.2717E-002  
  535.00  2.2912E-002  
  535.50  2.3135E-002  
  536.00  2.3329E-002  
  536.50  2.3504E-002  
  537.00  2.3657E-002  
  537.50  2.3843E-002  
  538.00  2.4044E-002  
  538.50  2.4247E-002  
  539.00  2.4461E-002  
  539.50  2.4680E-002  
  540.00  2.4929E-002  
  540.50  2.5162E-002  
  541.00  2.5340E-002  
  541.50  2.5482E-002  
  542.00  2.5641E-002  
  542.50  2.5836E-002  
  543.00  2.6159E-002  
  543.50  2.6440E-002  
  544.00  2.6667E-002  
  544.50  2.6782E-002  
  545.00  2.6925E-002  
  545.50  2.7104E-002  
  546.00  2.7388E-002  
  546.50  2.7639E-002  
  547.00  2.7890E-002  
  547.50  2.8097E-002  
  548.00  2.8295E-002  
  548.50  2.8511E-002  
  549.00  2.8725E-002  
  549.50  2.8948E-002  
  550.00  2.9140E-002  
  550.50  2.9376E-002  
  551.00  2.9625E-002  
  551.50  2.9872E-002  
  552.00  3.0076E-002  
  552.50  3.0259E-002  
  553.00  3.0415E-002  
  553.50  3.0644E-002  
  554.00  3.0871E-002  
  554.50  3.1169E-002  
  555.00  3.1425E-002  
  555.50  3.1639E-002  
  556.00  3.1838E-002  
  556.50  3.2035E-002  
  557.00  3.2311E-002  
  557.50  3.2583E-002  
  558.00  3.2846E-002  
  558.50  3.3084E-002  
  559.00  3.3271E-002  
  559.50  3.3486E-002  
  560.00  3.3673E-002  
  560.50  3.3897E-002  
  561.00  3.4122E-002  
  561.50  3.4297E-002  
  562.00  3.4483E-002  
  562.50  3.4683E-002  
  563.00  3.4977E-002  
  563.50  3.5281E-002  
  564.00  3.5528E-002  
  564.50  3.5715E-002  
  565.00  3.5870E-002  
  565.50  3.6036E-002  
  566.00  3.6153E-002  
  566.50  3.6291E-002  
  567.00  3.6447E-002  
  567.50  3.6658E-002  
  568.00  3.6924E-002  
  568.50  3.7165E-002  
  569.00  3.7408E-002  
  569.50  3.7615E-002  
  570.00  3.7810E-002  
  570.50  3.8051E-002  
  571.00  3.8320E-002  
  571.50  3.8528E-002  
  572.00  3.8655E-002  
  572.50  3.8716E-002  
  573.00  3.8806E-002  
  573.50  3.8917E-002  
  574.00  3.9120E-002  
  574.50  3.9295E-002  
  575.00  3.9550E-002  
  575.50  3.9767E-002  
  576.00  4.0037E-002  
  576.50  4.0315E-002  
  577.00  4.0567E-002  
  577.50  4.0729E-002  
  578.00  4.0845E-002  
  578.50  4.0967E-002  
  579.00  4.1151E-002  
  579.50  4.1332E-002  
  580.00  4.1459E-002  
  580.50  4.1632E-002  
  581.00  4.1844E-002  
  581.50  4.2038E-002  
  582.00  4.2194E-002  
  582.50  4.2362E-002  
  583.00  4.2576E-002  
  583.50  4.2875E-002  
  584.00  4.3090E-002  
  584.50  4.3293E-002  
  585.00  4.3338E-002  
  585.50  4.3473E-002  
  586.00  4.3581E-002  
  586.50  4.3768E-002  
  587.00  4.3878E-002  
  587.50  4.3896E-002  
  588.00  4.4021E-002  
  588.50  4.4191E-002  
  589.00  4.4349E-002  
  589.50  4.4453E-002  
  590.00  4.4555E-002  
  590.50  4.4777E-002  
  591.00  4.5006E-002  
  591.50  4.5153E-002  
  592.00  4.5240E-002  
  592.50  4.5304E-002  
  593.00  4.5430E-002  
  593.50  4.5520E-002  
  594.00  4.5617E-002  
  594.50  4.5624E-002  
  595.00  4.5718E-002  
  595.50  4.5802E-002  
  596.00  4.5959E-002  
  596.50  4.6132E-002  
  597.00  4.6223E-002  
  597.50  4.6369E-002  
  598.00  4.6438E-002  
  598.50  4.6461E-002  
  599.00  4.6442E-002  
  599.50  4.6370E-002  
  600.00  4.6409E-002  
  600.50  4.6465E-002  
  601.00  4.6572E-002  
  601.50  4.6708E-002  
  602.00  4.6738E-002  
  602.50  4.6756E-002  
  603.00  4.6645E-002  
  603.50  4.6702E-002  
  604.00  4.6813E-002  
  604.50  4.6901E-002  
  605.00  4.6862E-002  
  605.50  4.6781E-002  
  606.00  4.6609E-002  
  606.50  4.6578E-002  
  607.00  4.6520E-002  
  607.50  4.6563E-002  
  608.00  4.6651E-002  
  608.50  4.6653E-002  
  609.00  4.6659E-002  
  609.50  4.6560E-002  
  610.00  4.6493E-002  
  610.50  4.6429E-002  
  611.00  4.6431E-002  
  611.50  4.6431E-002  
  612.00  4.6282E-002  
  612.50  4.6104E-002  
  613.00  4.6008E-002  
  613.50  4.6030E-002  
  614.00  4.6009E-002  
  614.50  4.5874E-002  
  615.00  4.5718E-002  
  615.50  4.5577E-002  
  616.00  4.5475E-002  
  616.50  4.5359E-002  
  617.00  4.5299E-002  
  617.50  4.5217E-002  
  618.00  4.5154E-002  
  618.50  4.5043E-002  
  619.00  4.4883E-002  
  619.50  4.4661E-002  
  620.00  4.4563E-002  
  620.50  4.4473E-002  
  621.00  4.4408E-002  
  621.50  4.4232E-002  
  622.00  4.4095E-002  
  622.50  4.3886E-002  
  623.00  4.3646E-002  
  623.50  4.3387E-002  
  624.00  4.3277E-002  
  624.50  4.3154E-002  
  625.00  4.2959E-002  
  625.50  4.2676E-002  
  626.00  4.2506E-002  
  626.50  4.2253E-002  
  627.00  4.2075E-002  
  627.50  4.1848E-002  
  628.00  4.1742E-002  
  628.50  4.1592E-002  
  629.00  4.1357E-002  
  629.50  4.1165E-002  
  630.00  4.0975E-002  
  630.50  4.0822E-002  
  631.00  4.0566E-002  
  631.50  4.0283E-002  
  632.00  4.0002E-002  
  632.50  3.9832E-002  
  633.00  3.9712E-002  
  633.50  3.9567E-002  
  634.00  3.9283E-002  
  634.50  3.8893E-002  
  635.00  3.8460E-002  
  635.50  3.8116E-002  
  636.00  3.7929E-002  
  636.50  3.7852E-002  
  637.00  3.7713E-002  
  637.50  3.7495E-002  
  638.00  3.7193E-002  
  638.50  3.6943E-002  
  639.00  3.6591E-002  
  639.50  3.6211E-002  
  640.00  3.5985E-002  
  640.50  3.5727E-002  
  641.00  3.5607E-002  
  641.50  3.5251E-002  
  642.00  3.4974E-002  
  642.50  3.4637E-002  
  643.00  3.4301E-002  
  643.50  3.3991E-002  
  644.00  3.3653E-002  
  644.50  3.3389E-002  
  645.00  3.3160E-002  
  645.50  3.2903E-002  
  646.00  3.2755E-002  
  646.50  3.2521E-002  
  647.00  3.2332E-002  
  647.50  3.1971E-002  
  648.00  3.1645E-002  
  648.50  3.1360E-002  
  649.00  3.1224E-002  
  649.50  3.1002E-002  
  650.00  3.0675E-002  
  650.50  3.0206E-002  
  651.00  2.9790E-002  
  651.50  2.9458E-002  
  652.00  2.9130E-002  
  652.50  2.8854E-002  
  653.00  2.8643E-002  
  653.50  2.8440E-002  
  654.00  2.8219E-002  
  654.50  2.7871E-002  
  655.00  2.7602E-002  
  655.50  2.7314E-002  
  656.00  2.7099E-002  
  656.50  2.6882E-002  
  657.00  2.6580E-002  
  657.50  2.6265E-002  
  658.00  2.5934E-002  
  658.50  2.5712E-002  
  659.00  2.5501E-002  
  659.50  2.5257E-002  
  660.00  2.4932E-002  
  660.50  2.4609E-002  
  661.00  2.4315E-002  
  661.50  2.4143E-002  
  662.00  2.3912E-002  
  662.50  2.3621E-002  
  663.00  2.3246E-002  
  663.50  2.2925E-002  
  664.00  2.2667E-002  
  664.50  2.2393E-002  
  665.00  2.2156E-002  
  665.50  2.1885E-002  
  666.00  2.1640E-002  
  666.50  2.1378E-002  
  667.00  2.1226E-002  
  667.50  2.1135E-002  
  668.00  2.1007E-002  
  668.50  2.0879E-002  
  669.00  2.0654E-002  
  669.50  2.0358E-002  
  670.00  1.9895E-002  
  670.50  1.9461E-002  
  671.00  1.9127E-002  
  671.50  1.8863E-002  
  672.00  1.8730E-002  
  672.50  1.8565E-002  
  673.00  1.8391E-002  
  673.50  1.8078E-002  
  674.00  1.7848E-002  
  674.50  1.7669E-002  
  675.00  1.7525E-002  
  675.50  1.7241E-002  
  676.00  1.6984E-002  
  676.50  1.6784E-002  
  677.00  1.6685E-002  
  677.50  1.6490E-002  
  678.00  1.6254E-002  
  678.50  1.5948E-002  
  679.00  1.5723E-002  
  679.50  1.5591E-002  
  680.00  1.5514E-002  
  680.50  1.5412E-002  
  681.00  1.5101E-002  
  681.50  1.4764E-002  
  682.00  1.4433E-002  
  682.50  1.4285E-002  
  683.00  1.4138E-002  
  683.50  1.4012E-002  
  684.00  1.3872E-002  
  684.50  1.3770E-002  
  685.00  1.3573E-002  
  685.50  1.3288E-002  
  686.00  1.3035E-002  
  686.50  1.2925E-002  
  687.00  1.2845E-002  
  687.50  1.2688E-002  
  688.00  1.2565E-002  
  688.50  1.2449E-002  
  689.00  1.2281E-002  
  689.50  1.2028E-002  
  690.00  1.1828E-002  
  690.50  1.1633E-002  
  691.00  1.1483E-002  
  691.50  1.1317E-002  
  692.00  1.1139E-002  
  692.50  1.0885E-002  
  693.00  1.0777E-002  
  693.50  1.0790E-002  
  694.00  1.0677E-002  
  694.50  1.0511E-002  
  695.00  1.0292E-002  
  695.50  1.0189E-002  
  696.00  9.9425E-003  
  696.50  9.7692E-003  
  697.00  9.5971E-003  
  697.50  9.4943E-003  
  698.00  9.4016E-003  
  698.50  9.3013E-003  
  699.00  9.1838E-003  
  699.50  9.0020E-003  
  700.00  8.8736E-003  
  700.50  8.7923E-003  
  701.00  8.7328E-003  
  701.50  8.5802E-003  
  702.00  8.4525E-003  
  702.50  8.3127E-003  
  703.00  8.2499E-003  
  703.50  8.1508E-003  
  704.00  7.9984E-003  
  704.50  7.8035E-003  
  705.00  7.6380E-003  
  705.50  7.5059E-003  
  706.00  7.3631E-003  
  706.50  7.2304E-003  
  707.00  7.2555E-003  
  707.50  7.2111E-003  
  708.00  7.1245E-003  
  708.50  6.9959E-003  
  709.00  6.9062E-003  
  709.50  6.7950E-003  
  710.00  6.6880E-003  
  710.50  6.5790E-003  
  711.00  6.4552E-003  
  711.50  6.2895E-003  
  712.00  6.1267E-003  
  712.50  6.0903E-003  
  713.00  6.0668E-003  
  713.50  6.0034E-003  
  714.00  5.8053E-003  
  714.50  5.6334E-003  
  715.00  5.5066E-003  
  715.50  5.4227E-003  
  716.00  5.3715E-003  
  716.50  5.3584E-003  
  717.00  5.3116E-003  
  717.50  5.1884E-003  
  718.00  5.1531E-003  
  718.50  5.1553E-003  
  719.00  5.1138E-003  
  719.50  4.9357E-003  
  720.00  4.9304E-003  
  720.50  4.8767E-003  
  721.00  4.7816E-003  
  721.50  4.6053E-003  
  722.00  4.5546E-003  
  722.50  4.5607E-003  
  723.00  4.4867E-003  
  723.50  4.2533E-003  
  724.00  4.1008E-003  
  724.50  4.1264E-003  
  725.00  4.2481E-003  
  725.50  4.2979E-003  
  726.00  4.1636E-003  
  726.50  3.9532E-003  
  727.00  3.7452E-003  
  727.50  3.7378E-003  
  728.00  3.7557E-003  
  728.50  3.7278E-003  
  729.00  3.6521E-003  
  729.50  3.5893E-003  
  730.00  3.5119E-003  
  730.50  3.4497E-003  
  731.00  3.3339E-003  
  731.50  3.2759E-003  
  732.00  3.3691E-003  
  732.50  3.4254E-003  
  733.00  3.2807E-003  
  733.50  3.0807E-003  
  734.00  3.0128E-003  
  734.50  3.0475E-003  
  735.00  3.0835E-003  
  735.50  3.0780E-003  
  736.00  2.9936E-003  
  736.50  2.7959E-003  
  737.00  2.6533E-003  
  737.50  2.6848E-003  
  738.00  2.7157E-003  
  738.50  2.6362E-003  
  739.00  2.5195E-003  
  739.50  2.5867E-003  
  740.00  2.5916E-003  
  740.50  2.6218E-003  
  741.00  2.5030E-003  
  741.50  2.3971E-003  
  742.00  2.1856E-003  
  742.50  2.1317E-003  
  743.00  2.1773E-003  
  743.50  2.3131E-003  
  744.00  2.2154E-003  
  744.50  2.0272E-003  
  745.00  1.9685E-003  
  745.50  2.1556E-003  
  746.00  2.2579E-003  
  746.50  2.2566E-003  
  747.00  2.2181E-003  
  747.50  2.1479E-003  
  748.00  1.8870E-003  
  748.50  1.6759E-003  
  749.00  1.6796E-003  
  749.50  1.8978E-003  
  750.00  1.9323E-003  
  750.50  1.5439E-003  
  751.00  1.2502E-003  
  751.50  1.3536E-003  
  752.00  1.8799E-003  
  752.50  1.9841E-003  
  753.00  1.9359E-003  
  753.50  1.8131E-003  
  754.00  1.7101E-003  
  754.50  1.6077E-003  
  755.00  1.5536E-003  
  755.50  1.5298E-003  
  756.00  1.5216E-003  
  756.50  1.5246E-003  
  757.00  1.4577E-003  
  757.50  1.5036E-003  
  758.00  1.4558E-003  
  758.50  1.4051E-003  
  759.00  1.4462E-003  
  759.50  1.4148E-003  
  760.00  1.2766E-003  
  760.50  1.0564E-003  
  761.00  1.1063E-003  
  761.50  1.2573E-003  
  762.00  1.2898E-003  
  762.50  1.0981E-003  
  763.00  9.1044E-004  
  763.50  9.4002E-004  
  764.00  9.9784E-004  
  764.50  7.9080E-004  
  765.00  7.4265E-004  
  765.50  8.7388E-004  
  766.00  1.1588E-003  
  766.50  1.2531E-003  
  767.00  1.1752E-003  
  767.50  1.0244E-003  
  768.00  9.6073E-004  
  768.50  9.9242E-004  
  769.00  9.7517E-004  
  769.50  8.6937E-004  
  770.00  7.7663E-004  
  770.50  8.8489E-004  
  771.00  1.0028E-003  
  771.50  9.1294E-004  
  772.00  7.4687E-004  
  772.50  6.2891E-004  
  773.00  6.5109E-004  
  773.50  8.0968E-004  
  774.00  8.8606E-004  
  774.50  9.4075E-004  
  775.00  8.9802E-004  
  775.50  9.0398E-004  
  776.00  8.0590E-004  
  776.50  8.0375E-004  
  777.00  8.3815E-004  
  777.50  6.4379E-004  
  778.00  4.8163E-004  
  778.50  4.9183E-004  
  779.00  6.4966E-004  
  779.50  6.8984E-004  
  780.00  5.3942E-004  
  780.50  3.5316E-004  
  781.00  3.7470E-004  
  781.50  3.4893E-004  
  782.00  3.0903E-004  
  782.50  2.8670E-004  
  783.00  4.5650E-004  
  783.50  5.0685E-004  
  784.00  3.7455E-004  
  784.50  3.5394E-004  
  785.00  3.4076E-004  
  785.50  2.7160E-004  
  786.00  3.0642E-004  
  786.50  4.5839E-004  
  787.00  3.9030E-004  
  787.50  2.9966E-004  
  788.00  3.6848E-004  
  788.50  4.8143E-004  
  789.00  4.8321E-004  
  789.50  3.2341E-004  
  790.00  2.3617E-004  
  790.50  2.4543E-004  
  791.00  1.4076E-004  
  791.50  7.7592E-005  
  792.00  2.1660E-004  
  792.50  3.7034E-004  
  793.00  4.7197E-004  
  793.50  4.5474E-004  
  794.00  5.6197E-004  
  794.50  6.1441E-004  
  795.00  4.8688E-004  
  795.50  2.9176E-004  
  796.00  7.7976E-005  
  796.50  5.8838E-005  
  797.00  1.0002E-004  
  797.50  1.9310E-004  
  798.00  3.1593E-004  
  798.50  4.7429E-004  
  799.00  3.8640E-004  
  799.50  1.4545E-004  
  800.00  2.4401E-006  
  800.50  6.6452E-005  
  801.00  2.8403E-004  
  801.50  2.1019E-004  
  802.00  7.0913E-005  
  802.50  9.5203E-005  
  803.00  2.3812E-004  
  803.50  2.5064E-004  
  804.00  5.5985E-005  
  804.50  0.0000E+000  
  805.00  1.9450E-005  
  805.50  2.3909E-004  
  806.00  2.3339E-004  
  806.50  2.6384E-004  
  807.00  2.2284E-004  
  807.50  1.6587E-005  
  808.00  0.0000E+000  
  808.50  0.0000E+000  
  809.00  2.8209E-005  
  809.50  1.7177E-006  
  810.00  0.0000E+000  
  810.50  0.0000E+000  
  811.00  2.0440E-005  
  811.50  1.6721E-004  
  812.00  3.8832E-005  
  812.50  0.0000E+000  
  813.00  0.0000E+000  
  813.50  0.0000E+000  
  814.00  0.0000E+000  
  814.50  0.0000E+000  
  815.00  6.2928E-005  
  815.50  4.7534E-004  
  816.00  2.8589E-004  
  816.50  5.4705E-005  
  817.00  0.0000E+000  
  817.50  0.0000E+000  
  818.00  0.0000E+000  
  818.50  0.0000E+000  
  819.00  0.0000E+000  
  819.50  0.0000E+000  
  820.00  0.0000E+000  
  820.50  0.0000E+000  
  821.00  0.0000E+000  
  821.50  0.0000E+000  
  822.00  0.0000E+000  
  822.50  0.0000E+000  
  823.00  0.0000E+000  
  823.50  0.0000E+000  
  824.00  0.0000E+000  
  824.50  0.0000E+000  
  825.00  0.0000E+000  
  825.50  0.0000E+000  
  826.00  0.0000E+000  
  826.50  0.0000E+000  
  827.00  0.0000E+000  
  827.50  0.0000E+000  
  828.00  0.0000E+000  
  828.50  0.0000E+000  
  829.00  0.0000E+000  
  829.50  0.0000E+000  
  830.00  0.0000E+000  
  830.50  0.0000E+000  
  831.00  0.0000E+000  
  831.50  0.0000E+000  
  832.00  0.0000E+000  
  832.50  0.0000E+000  
  833.00  0.0000E+000  
  833.50  0.0000E+000  
  834.00  0.0000E+000  
  834.50  0.0000E+000  
  835.00  0.0000E+000  
  835.50  0.0000E+000  
  836.00  0.0000E+000  
  836.50  0.0000E+000  
  837.00  0.0000E+000  
  837.50  0.0000E+000  
  838.00  0.0000E+000  
  838.50  0.0000E+000  
  839.00  0.0000E+000  
  839.50  0.0000E+000  
  840.00  6.6787E-005  
  840.50  0.0000E+000  
  841.00  0.0000E+000  
  841.50  0.0000E+000  
  842.00  0.0000E+000  
  842.50  0.0000E+000  
  843.00  0.0000E+000  
  843.50  0.0000E+000  
  844.00  0.0000E+000  
  844.50  0.0000E+000  
  845.00  0.0000E+000  
  845.50  0.0000E+000  
  846.00  0.0000E+000  
  846.50  0.0000E+000  
  847.00  0.0000E+000  
  847.50  0.0000E+000  
  848.00  0.0000E+000  
  848.50  0.0000E+000  
  849.00  0.0000E+000  
  849.50  0.0000E+000  
  850.00  0.0000E+000  
  850.50  0.0000E+000  
  851.00  1.9321E-006  
  851.50  2.6387E-004  
  852.00  0.0000E+000  
  852.50  0.0000E+000  
  853.00  0.0000E+000  
  853.50  0.0000E+000  
  854.00  0.0000E+000  
  854.50  8.8721E-005  
  855.00  1.6671E-004  
  855.50  1.2570E-004  
  856.00  0.0000E+000  
  856.50  0.0000E+000  
  857.00  0.0000E+000  
  857.50  1.3207E-004  
  858.00  0.0000E+000  
  858.50  0.0000E+000  
  859.00  0.0000E+000  
  859.50  0.0000E+000  
  860.00  0.0000E+000  
  860.50  0.0000E+000  
  861.00  0.0000E+000  
  861.50  0.0000E+000  
  862.00  0.0000E+000  
  862.50  0.0000E+000  
  863.00  0.0000E+000  
  863.50  0.0000E+000  
  864.00  0.0000E+000  
  864.50  0.0000E+000  
  865.00  0.0000E+000  
  865.50  5.6550E-006  
  866.00  5.6021E-006  
  866.50  0.0000E+000  
  867.00  0.0000E+000  
  867.50  4.8580E-004  
  868.00  5.0942E-004  
  868.50  1.6285E-004  
  869.00  1.4232E-004  
  869.50  1.2010E-004  
  870.00  0.0000E+000  
  870.50  0.0000E+000  
  871.00  0.0000E+000  
  871.50  0.0000E+000  
  872.00  0.0000E+000  
  872.50  0.0000E+000  
  873.00  0.0000E+000  
  873.50  0.0000E+000  
  874.00  0.0000E+000  
  874.50  0.0000E+000  
  875.00  0.0000E+000  
  875.50  0.0000E+000  
  876.00  0.0000E+000  
  876.50  0.0000E+000  
  877.00  0.0000E+000  
  877.50  0.0000E+000  
  878.00  0.0000E+000  
  878.50  0.0000E+000  
  879.00  0.0000E+000  
  879.50  0.0000E+000  
  880.00  0.0000E+000  
  880.50  0.0000E+000  
  881.00  0.0000E+000  
  881.50  0.0000E+000  
  882.00  0.0000E+000  
  882.50  0.0000E+000  
  883.00  0.0000E+000  
  883.50  0.0000E+000  
  884.00  0.0000E+000  
  884.50  0.0000E+000  
  885.00  0.0000E+000  
  885.50  0.0000E+000  
  886.00  0.0000E+000  
  886.50  0.0000E+000  
  887.00  0.0000E+000  
  887.50  0.0000E+000  
  888.00  0.0000E+000  
  888.50  0.0000E+000  
  889.00  0.0000E+000  
  889.50  0.0000E+000  
  890.00  0.0000E+000  
  890.50  0.0000E+000  
  891.00  0.0000E+000  
  891.50  0.0000E+000  
  892.00  0.0000E+000  
  892.50  0.0000E+000  
  893.00  0.0000E+000  
  893.50  0.0000E+000  
  894.00  0.0000E+000  
  894.50  0.0000E+000  
  895.00  0.0000E+000  
  895.50  0.0000E+000  
  896.00  0.0000E+000  
  896.50  0.0000E+000  
  897.00  0.0000E+000  
  897.50  0.0000E+000  
  898.00  0.0000E+000  
  898.50  8.6598E-005  
  899.00  2.6136E-005  
  899.50  0.0000E+000  
