
# From lspdd.org
# 
# Name: DEL Philips Lytepro7-Architectural-Wall-Sconce Extérieur
# Indice spectral Valeur 
# MSI 0.04 
# SLI 0.17 
# IPI 0.55 
# Pourcentage de bleu 0.8 
# Caractéristique Valeur 
# CCT calculée (K) 1855 
# CCT du fabricant (K) 1800 
# Tension (V) 120 
# Puissance (W) 13.0 
# Efficacité lumineuse (Lum/W) 42.7 
#
# Image: '/app/system/img_2s/2546/medium_image2.JPG?1413486218'
# Image: '/app/system/img_1s/2546/medium_image1.JPG?1413486234'
# 

  273.00  0.0000E+000  
  273.50  0.0000E+000  
  274.00  0.0000E+000  
  274.50  0.0000E+000  
  275.00  0.0000E+000  
  275.50  0.0000E+000  
  276.00  0.0000E+000  
  276.50  0.0000E+000  
  277.00  0.0000E+000  
  277.50  0.0000E+000  
  278.00  0.0000E+000  
  278.50  0.0000E+000  
  279.00  0.0000E+000  
  279.50  0.0000E+000  
  280.00  0.0000E+000  
  280.50  0.0000E+000  
  281.00  0.0000E+000  
  281.50  0.0000E+000  
  282.00  0.0000E+000  
  282.50  0.0000E+000  
  283.00  0.0000E+000  
  283.50  0.0000E+000  
  284.00  0.0000E+000  
  284.50  0.0000E+000  
  285.00  0.0000E+000  
  285.50  0.0000E+000  
  286.00  0.0000E+000  
  286.50  0.0000E+000  
  287.00  0.0000E+000  
  287.50  0.0000E+000  
  288.00  0.0000E+000  
  288.50  0.0000E+000  
  289.00  0.0000E+000  
  289.50  0.0000E+000  
  290.00  0.0000E+000  
  290.50  0.0000E+000  
  291.00  0.0000E+000  
  291.50  0.0000E+000  
  292.00  0.0000E+000  
  292.50  0.0000E+000  
  293.00  0.0000E+000  
  293.50  0.0000E+000  
  294.00  0.0000E+000  
  294.50  0.0000E+000  
  295.00  0.0000E+000  
  295.50  0.0000E+000  
  296.00  0.0000E+000  
  296.50  0.0000E+000  
  297.00  0.0000E+000  
  297.50  0.0000E+000  
  298.00  0.0000E+000  
  298.50  0.0000E+000  
  299.00  0.0000E+000  
  299.50  0.0000E+000  
  300.00  0.0000E+000  
  300.50  0.0000E+000  
  301.00  0.0000E+000  
  301.50  0.0000E+000  
  302.00  0.0000E+000  
  302.50  0.0000E+000  
  303.00  0.0000E+000  
  303.50  0.0000E+000  
  304.00  0.0000E+000  
  304.50  0.0000E+000  
  305.00  0.0000E+000  
  305.50  0.0000E+000  
  306.00  0.0000E+000  
  306.50  0.0000E+000  
  307.00  0.0000E+000  
  307.50  0.0000E+000  
  308.00  0.0000E+000  
  308.50  0.0000E+000  
  309.00  0.0000E+000  
  309.50  0.0000E+000  
  310.00  0.0000E+000  
  310.50  0.0000E+000  
  311.00  0.0000E+000  
  311.50  0.0000E+000  
  312.00  0.0000E+000  
  312.50  0.0000E+000  
  313.00  0.0000E+000  
  313.50  0.0000E+000  
  314.00  0.0000E+000  
  314.50  0.0000E+000  
  315.00  0.0000E+000  
  315.50  0.0000E+000  
  316.00  0.0000E+000  
  316.50  0.0000E+000  
  317.00  0.0000E+000  
  317.50  0.0000E+000  
  318.00  0.0000E+000  
  318.50  0.0000E+000  
  319.00  0.0000E+000  
  319.50  0.0000E+000  
  320.00  0.0000E+000  
  320.50  0.0000E+000  
  321.00  0.0000E+000  
  321.50  0.0000E+000  
  322.00  0.0000E+000  
  322.50  0.0000E+000  
  323.00  0.0000E+000  
  323.50  0.0000E+000  
  324.00  0.0000E+000  
  324.50  0.0000E+000  
  325.00  0.0000E+000  
  325.50  0.0000E+000  
  326.00  0.0000E+000  
  326.50  0.0000E+000  
  327.00  0.0000E+000  
  327.50  0.0000E+000  
  328.00  0.0000E+000  
  328.50  0.0000E+000  
  329.00  0.0000E+000  
  329.50  0.0000E+000  
  330.00  0.0000E+000  
  330.50  0.0000E+000  
  331.00  0.0000E+000  
  331.50  0.0000E+000  
  332.00  0.0000E+000  
  332.50  0.0000E+000  
  333.00  0.0000E+000  
  333.50  0.0000E+000  
  334.00  0.0000E+000  
  334.50  0.0000E+000  
  335.00  0.0000E+000  
  335.50  0.0000E+000  
  336.00  0.0000E+000  
  336.50  0.0000E+000  
  337.00  0.0000E+000  
  337.50  0.0000E+000  
  338.00  0.0000E+000  
  338.50  0.0000E+000  
  339.00  0.0000E+000  
  339.50  0.0000E+000  
  340.00  0.0000E+000  
  340.50  0.0000E+000  
  341.00  0.0000E+000  
  341.50  0.0000E+000  
  342.00  0.0000E+000  
  342.50  0.0000E+000  
  343.00  0.0000E+000  
  343.50  0.0000E+000  
  344.00  0.0000E+000  
  344.50  0.0000E+000  
  345.00  0.0000E+000  
  345.50  0.0000E+000  
  346.00  0.0000E+000  
  346.50  0.0000E+000  
  347.00  0.0000E+000  
  347.50  0.0000E+000  
  348.00  0.0000E+000  
  348.50  0.0000E+000  
  349.00  0.0000E+000  
  349.50  0.0000E+000  
  350.00  0.0000E+000  
  350.50  0.0000E+000  
  351.00  0.0000E+000  
  351.50  0.0000E+000  
  352.00  0.0000E+000  
  352.50  0.0000E+000  
  353.00  0.0000E+000  
  353.50  0.0000E+000  
  354.00  0.0000E+000  
  354.50  0.0000E+000  
  355.00  0.0000E+000  
  355.50  0.0000E+000  
  356.00  0.0000E+000  
  356.50  0.0000E+000  
  357.00  0.0000E+000  
  357.50  0.0000E+000  
  358.00  0.0000E+000  
  358.50  0.0000E+000  
  359.00  0.0000E+000  
  359.50  0.0000E+000  
  360.00  0.0000E+000  
  360.50  0.0000E+000  
  361.00  0.0000E+000  
  361.50  0.0000E+000  
  362.00  0.0000E+000  
  362.50  0.0000E+000  
  363.00  0.0000E+000  
  363.50  0.0000E+000  
  364.00  0.0000E+000  
  364.50  0.0000E+000  
  365.00  0.0000E+000  
  365.50  0.0000E+000  
  366.00  0.0000E+000  
  366.50  0.0000E+000  
  367.00  0.0000E+000  
  367.50  0.0000E+000  
  368.00  0.0000E+000  
  368.50  0.0000E+000  
  369.00  0.0000E+000  
  369.50  0.0000E+000  
  370.00  0.0000E+000  
  370.50  0.0000E+000  
  371.00  0.0000E+000  
  371.50  0.0000E+000  
  372.00  0.0000E+000  
  372.50  0.0000E+000  
  373.00  0.0000E+000  
  373.50  0.0000E+000  
  374.00  0.0000E+000  
  374.50  0.0000E+000  
  375.00  0.0000E+000  
  375.50  0.0000E+000  
  376.00  0.0000E+000  
  376.50  0.0000E+000  
  377.00  0.0000E+000  
  377.50  0.0000E+000  
  378.00  0.0000E+000  
  378.50  0.0000E+000  
  379.00  0.0000E+000  
  379.50  0.0000E+000  
  380.00  0.0000E+000  
  380.50  0.0000E+000  
  381.00  0.0000E+000  
  381.50  0.0000E+000  
  382.00  0.0000E+000  
  382.50  0.0000E+000  
  383.00  0.0000E+000  
  383.50  0.0000E+000  
  384.00  0.0000E+000  
  384.50  0.0000E+000  
  385.00  0.0000E+000  
  385.50  0.0000E+000  
  386.00  0.0000E+000  
  386.50  0.0000E+000  
  387.00  0.0000E+000  
  387.50  0.0000E+000  
  388.00  0.0000E+000  
  388.50  0.0000E+000  
  389.00  0.0000E+000  
  389.50  0.0000E+000  
  390.00  0.0000E+000  
  390.50  0.0000E+000  
  391.00  0.0000E+000  
  391.50  0.0000E+000  
  392.00  0.0000E+000  
  392.50  0.0000E+000  
  393.00  0.0000E+000  
  393.50  0.0000E+000  
  394.00  0.0000E+000  
  394.50  0.0000E+000  
  395.00  0.0000E+000  
  395.50  0.0000E+000  
  396.00  0.0000E+000  
  396.50  0.0000E+000  
  397.00  0.0000E+000  
  397.50  0.0000E+000  
  398.00  0.0000E+000  
  398.50  0.0000E+000  
  399.00  0.0000E+000  
  399.50  0.0000E+000  
  400.00  0.0000E+000  
  400.50  0.0000E+000  
  401.00  0.0000E+000  
  401.50  0.0000E+000  
  402.00  0.0000E+000  
  402.50  0.0000E+000  
  403.00  0.0000E+000  
  403.50  0.0000E+000  
  404.00  0.0000E+000  
  404.50  0.0000E+000  
  405.00  0.0000E+000  
  405.50  0.0000E+000  
  406.00  0.0000E+000  
  406.50  0.0000E+000  
  407.00  0.0000E+000  
  407.50  0.0000E+000  
  408.00  0.0000E+000  
  408.50  0.0000E+000  
  409.00  0.0000E+000  
  409.50  0.0000E+000  
  410.00  0.0000E+000  
  410.50  0.0000E+000  
  411.00  0.0000E+000  
  411.50  0.0000E+000  
  412.00  0.0000E+000  
  412.50  0.0000E+000  
  413.00  0.0000E+000  
  413.50  0.0000E+000  
  414.00  0.0000E+000  
  414.50  0.0000E+000  
  415.00  0.0000E+000  
  415.50  0.0000E+000  
  416.00  0.0000E+000  
  416.50  0.0000E+000  
  417.00  0.0000E+000  
  417.50  0.0000E+000  
  418.00  0.0000E+000  
  418.50  0.0000E+000  
  419.00  0.0000E+000  
  419.50  0.0000E+000  
  420.00  0.0000E+000  
  420.50  0.0000E+000  
  421.00  0.0000E+000  
  421.50  0.0000E+000  
  422.00  0.0000E+000  
  422.50  0.0000E+000  
  423.00  0.0000E+000  
  423.50  0.0000E+000  
  424.00  0.0000E+000  
  424.50  0.0000E+000  
  425.00  0.0000E+000  
  425.50  0.0000E+000  
  426.00  0.0000E+000  
  426.50  0.0000E+000  
  427.00  0.0000E+000  
  427.50  0.0000E+000  
  428.00  0.0000E+000  
  428.50  0.0000E+000  
  429.00  0.0000E+000  
  429.50  0.0000E+000  
  430.00  0.0000E+000  
  430.50  7.0444E-007  
  431.00  1.9786E-005  
  431.50  2.1707E-005  
  432.00  3.1379E-005  
  432.50  7.3193E-006  
  433.00  4.9920E-007  
  433.50  6.9339E-006  
  434.00  7.8515E-007  
  434.50  0.0000E+000  
  435.00  0.0000E+000  
  435.50  0.0000E+000  
  436.00  2.6369E-005  
  436.50  1.4825E-004  
  437.00  2.4997E-004  
  437.50  3.0478E-004  
  438.00  3.1410E-004  
  438.50  3.4759E-004  
  439.00  3.3694E-004  
  439.50  3.1574E-004  
  440.00  2.9848E-004  
  440.50  3.3310E-004  
  441.00  4.6978E-004  
  441.50  6.0475E-004  
  442.00  6.6240E-004  
  442.50  6.6649E-004  
  443.00  6.0875E-004  
  443.50  5.5996E-004  
  444.00  5.3349E-004  
  444.50  5.4571E-004  
  445.00  5.9231E-004  
  445.50  6.3057E-004  
  446.00  6.3717E-004  
  446.50  6.7229E-004  
  447.00  6.9756E-004  
  447.50  7.3373E-004  
  448.00  7.6192E-004  
  448.50  7.0414E-004  
  449.00  6.0771E-004  
  449.50  5.4945E-004  
  450.00  5.3310E-004  
  450.50  5.6002E-004  
  451.00  5.7866E-004  
  451.50  5.5071E-004  
  452.00  5.4182E-004  
  452.50  5.1677E-004  
  453.00  5.0658E-004  
  453.50  4.6854E-004  
  454.00  4.6687E-004  
  454.50  4.3555E-004  
  455.00  3.7313E-004  
  455.50  3.1666E-004  
  456.00  3.1695E-004  
  456.50  3.5985E-004  
  457.00  4.4504E-004  
  457.50  5.1512E-004  
  458.00  5.2162E-004  
  458.50  4.7873E-004  
  459.00  4.1133E-004  
  459.50  3.8746E-004  
  460.00  3.8191E-004  
  460.50  3.5783E-004  
  461.00  2.7040E-004  
  461.50  2.1940E-004  
  462.00  2.2008E-004  
  462.50  2.6465E-004  
  463.00  2.8749E-004  
  463.50  2.8185E-004  
  464.00  2.9618E-004  
  464.50  3.2728E-004  
  465.00  3.3213E-004  
  465.50  2.7029E-004  
  466.00  2.0537E-004  
  466.50  1.8151E-004  
  467.00  1.6666E-004  
  467.50  1.2614E-004  
  468.00  1.1657E-004  
  468.50  1.5658E-004  
  469.00  2.1434E-004  
  469.50  2.4091E-004  
  470.00  2.0802E-004  
  470.50  1.6040E-004  
  471.00  1.2792E-004  
  471.50  1.1225E-004  
  472.00  1.2334E-004  
  472.50  1.2631E-004  
  473.00  1.2246E-004  
  473.50  1.1800E-004  
  474.00  9.4205E-005  
  474.50  1.1175E-004  
  475.00  1.3387E-004  
  475.50  1.6005E-004  
  476.00  1.8676E-004  
  476.50  1.9116E-004  
  477.00  1.5847E-004  
  477.50  1.2702E-004  
  478.00  1.0404E-004  
  478.50  8.5261E-005  
  479.00  7.7271E-005  
  479.50  7.4467E-005  
  480.00  8.5697E-005  
  480.50  1.0883E-004  
  481.00  9.1954E-005  
  481.50  8.5778E-005  
  482.00  6.6972E-005  
  482.50  6.8909E-005  
  483.00  5.2271E-005  
  483.50  4.0632E-005  
  484.00  3.8525E-005  
  484.50  5.3826E-005  
  485.00  8.1762E-005  
  485.50  8.9719E-005  
  486.00  5.7550E-005  
  486.50  4.6956E-005  
  487.00  3.3244E-005  
  487.50  5.1877E-005  
  488.00  7.4285E-005  
  488.50  7.1614E-005  
  489.00  6.2152E-005  
  489.50  4.1543E-005  
  490.00  1.5838E-005  
  490.50  2.7680E-005  
  491.00  3.6585E-005  
  491.50  4.3063E-005  
  492.00  4.7327E-005  
  492.50  4.3321E-005  
  493.00  5.9022E-005  
  493.50  6.6234E-005  
  494.00  4.3264E-005  
  494.50  1.8598E-005  
  495.00  8.2686E-006  
  495.50  1.0207E-005  
  496.00  3.4482E-005  
  496.50  5.6222E-005  
  497.00  7.4019E-005  
  497.50  5.0202E-005  
  498.00  2.3466E-005  
  498.50  0.0000E+000  
  499.00  0.0000E+000  
  499.50  0.0000E+000  
  500.00  1.0363E-005  
  500.50  4.7308E-005  
  501.00  6.5244E-005  
  501.50  6.2919E-005  
  502.00  5.7029E-005  
  502.50  5.5345E-005  
  503.00  7.2231E-005  
  503.50  8.4257E-005  
  504.00  9.0869E-005  
  504.50  7.4109E-005  
  505.00  4.3364E-005  
  505.50  8.9063E-006  
  506.00  7.6539E-006  
  506.50  4.1690E-005  
  507.00  8.0739E-005  
  507.50  1.2503E-004  
  508.00  1.3754E-004  
  508.50  1.5717E-004  
  509.00  1.7623E-004  
  509.50  1.9273E-004  
  510.00  2.0038E-004  
  510.50  1.6553E-004  
  511.00  1.5340E-004  
  511.50  1.4469E-004  
  512.00  1.6731E-004  
  512.50  1.9008E-004  
  513.00  1.9754E-004  
  513.50  2.3740E-004  
  514.00  2.6623E-004  
  514.50  3.1746E-004  
  515.00  3.2614E-004  
  515.50  3.3276E-004  
  516.00  3.5622E-004  
  516.50  3.8846E-004  
  517.00  4.2049E-004  
  517.50  4.4300E-004  
  518.00  4.6710E-004  
  518.50  4.8822E-004  
  519.00  5.2991E-004  
  519.50  5.7138E-004  
  520.00  6.2733E-004  
  520.50  6.5604E-004  
  521.00  6.7951E-004  
  521.50  7.1541E-004  
  522.00  7.5523E-004  
  522.50  8.1457E-004  
  523.00  8.7168E-004  
  523.50  9.2639E-004  
  524.00  9.8014E-004  
  524.50  1.0276E-003  
  525.00  1.0843E-003  
  525.50  1.1624E-003  
  526.00  1.2368E-003  
  526.50  1.3321E-003  
  527.00  1.4024E-003  
  527.50  1.4948E-003  
  528.00  1.5439E-003  
  528.50  1.6003E-003  
  529.00  1.6672E-003  
  529.50  1.7975E-003  
  530.00  1.9416E-003  
  530.50  2.0667E-003  
  531.00  2.1717E-003  
  531.50  2.2602E-003  
  532.00  2.3689E-003  
  532.50  2.4856E-003  
  533.00  2.6061E-003  
  533.50  2.7313E-003  
  534.00  2.8668E-003  
  534.50  3.0090E-003  
  535.00  3.1751E-003  
  535.50  3.3589E-003  
  536.00  3.5430E-003  
  536.50  3.7103E-003  
  537.00  3.8979E-003  
  537.50  4.0774E-003  
  538.00  4.2667E-003  
  538.50  4.4473E-003  
  539.00  4.6923E-003  
  539.50  4.9537E-003  
  540.00  5.2438E-003  
  540.50  5.4906E-003  
  541.00  5.7518E-003  
  541.50  6.0230E-003  
  542.00  6.2820E-003  
  542.50  6.5512E-003  
  543.00  6.8419E-003  
  543.50  7.1630E-003  
  544.00  7.4937E-003  
  544.50  7.7972E-003  
  545.00  8.1259E-003  
  545.50  8.4707E-003  
  546.00  8.8219E-003  
  546.50  9.2022E-003  
  547.00  9.5450E-003  
  547.50  9.9328E-003  
  548.00  1.0346E-002  
  548.50  1.0811E-002  
  549.00  1.1268E-002  
  549.50  1.1706E-002  
  550.00  1.2115E-002  
  550.50  1.2512E-002  
  551.00  1.2970E-002  
  551.50  1.3459E-002  
  552.00  1.4017E-002  
  552.50  1.4551E-002  
  553.00  1.5042E-002  
  553.50  1.5508E-002  
  554.00  1.6028E-002  
  554.50  1.6575E-002  
  555.00  1.7155E-002  
  555.50  1.7713E-002  
  556.00  1.8273E-002  
  556.50  1.8828E-002  
  557.00  1.9370E-002  
  557.50  1.9983E-002  
  558.00  2.0597E-002  
  558.50  2.1216E-002  
  559.00  2.1809E-002  
  559.50  2.2377E-002  
  560.00  2.2982E-002  
  560.50  2.3624E-002  
  561.00  2.4236E-002  
  561.50  2.4814E-002  
  562.00  2.5389E-002  
  562.50  2.6014E-002  
  563.00  2.6631E-002  
  563.50  2.7211E-002  
  564.00  2.7781E-002  
  564.50  2.8400E-002  
  565.00  2.9061E-002  
  565.50  2.9649E-002  
  566.00  3.0179E-002  
  566.50  3.0672E-002  
  567.00  3.1176E-002  
  567.50  3.1872E-002  
  568.00  3.2586E-002  
  568.50  3.3279E-002  
  569.00  3.3820E-002  
  569.50  3.4372E-002  
  570.00  3.4928E-002  
  570.50  3.5522E-002  
  571.00  3.6064E-002  
  571.50  3.6587E-002  
  572.00  3.7100E-002  
  572.50  3.7605E-002  
  573.00  3.8095E-002  
  573.50  3.8553E-002  
  574.00  3.8972E-002  
  574.50  3.9368E-002  
  575.00  3.9822E-002  
  575.50  4.0299E-002  
  576.00  4.0789E-002  
  576.50  4.1300E-002  
  577.00  4.1747E-002  
  577.50  4.2171E-002  
  578.00  4.2567E-002  
  578.50  4.2931E-002  
  579.00  4.3309E-002  
  579.50  4.3645E-002  
  580.00  4.4016E-002  
  580.50  4.4442E-002  
  581.00  4.4819E-002  
  581.50  4.5155E-002  
  582.00  4.5355E-002  
  582.50  4.5576E-002  
  583.00  4.5824E-002  
  583.50  4.6136E-002  
  584.00  4.6369E-002  
  584.50  4.6573E-002  
  585.00  4.6768E-002  
  585.50  4.6963E-002  
  586.00  4.7181E-002  
  586.50  4.7315E-002  
  587.00  4.7465E-002  
  587.50  4.7576E-002  
  588.00  4.7747E-002  
  588.50  4.7897E-002  
  589.00  4.8042E-002  
  589.50  4.8068E-002  
  590.00  4.8115E-002  
  590.50  4.8158E-002  
  591.00  4.8222E-002  
  591.50  4.8358E-002  
  592.00  4.8421E-002  
  592.50  4.8399E-002  
  593.00  4.8386E-002  
  593.50  4.8282E-002  
  594.00  4.8325E-002  
  594.50  4.8257E-002  
  595.00  4.8178E-002  
  595.50  4.8060E-002  
  596.00  4.7931E-002  
  596.50  4.7926E-002  
  597.00  4.7878E-002  
  597.50  4.7848E-002  
  598.00  4.7732E-002  
  598.50  4.7612E-002  
  599.00  4.7462E-002  
  599.50  4.7259E-002  
  600.00  4.7076E-002  
  600.50  4.6964E-002  
  601.00  4.6890E-002  
  601.50  4.6759E-002  
  602.00  4.6552E-002  
  602.50  4.6331E-002  
  603.00  4.6085E-002  
  603.50  4.5833E-002  
  604.00  4.5574E-002  
  604.50  4.5333E-002  
  605.00  4.5083E-002  
  605.50  4.4836E-002  
  606.00  4.4524E-002  
  606.50  4.4283E-002  
  607.00  4.3952E-002  
  607.50  4.3720E-002  
  608.00  4.3458E-002  
  608.50  4.3232E-002  
  609.00  4.2955E-002  
  609.50  4.2639E-002  
  610.00  4.2309E-002  
  610.50  4.1954E-002  
  611.00  4.1600E-002  
  611.50  4.1149E-002  
  612.00  4.0801E-002  
  612.50  4.0522E-002  
  613.00  4.0380E-002  
  613.50  4.0170E-002  
  614.00  3.9894E-002  
  614.50  3.9591E-002  
  615.00  3.9304E-002  
  615.50  3.8864E-002  
  616.00  3.8330E-002  
  616.50  3.7848E-002  
  617.00  3.7515E-002  
  617.50  3.7216E-002  
  618.00  3.6813E-002  
  618.50  3.6496E-002  
  619.00  3.6142E-002  
  619.50  3.5830E-002  
  620.00  3.5472E-002  
  620.50  3.5224E-002  
  621.00  3.4911E-002  
  621.50  3.4532E-002  
  622.00  3.4155E-002  
  622.50  3.3856E-002  
  623.00  3.3554E-002  
  623.50  3.3203E-002  
  624.00  3.2814E-002  
  624.50  3.2420E-002  
  625.00  3.2146E-002  
  625.50  3.1917E-002  
  626.00  3.1588E-002  
  626.50  3.1138E-002  
  627.00  3.0655E-002  
  627.50  3.0344E-002  
  628.00  3.0052E-002  
  628.50  2.9770E-002  
  629.00  2.9418E-002  
  629.50  2.9024E-002  
  630.00  2.8607E-002  
  630.50  2.8292E-002  
  631.00  2.8097E-002  
  631.50  2.7885E-002  
  632.00  2.7541E-002  
  632.50  2.7103E-002  
  633.00  2.6731E-002  
  633.50  2.6495E-002  
  634.00  2.6269E-002  
  634.50  2.5974E-002  
  635.00  2.5601E-002  
  635.50  2.5273E-002  
  636.00  2.4938E-002  
  636.50  2.4652E-002  
  637.00  2.4342E-002  
  637.50  2.4099E-002  
  638.00  2.3770E-002  
  638.50  2.3409E-002  
  639.00  2.3045E-002  
  639.50  2.2686E-002  
  640.00  2.2399E-002  
  640.50  2.2078E-002  
  641.00  2.1847E-002  
  641.50  2.1607E-002  
  642.00  2.1356E-002  
  642.50  2.1061E-002  
  643.00  2.0753E-002  
  643.50  2.0420E-002  
  644.00  2.0148E-002  
  644.50  1.9923E-002  
  645.00  1.9678E-002  
  645.50  1.9445E-002  
  646.00  1.9153E-002  
  646.50  1.8897E-002  
  647.00  1.8610E-002  
  647.50  1.8310E-002  
  648.00  1.8003E-002  
  648.50  1.7735E-002  
  649.00  1.7525E-002  
  649.50  1.7359E-002  
  650.00  1.7143E-002  
  650.50  1.6901E-002  
  651.00  1.6544E-002  
  651.50  1.6257E-002  
  652.00  1.5979E-002  
  652.50  1.5767E-002  
  653.00  1.5584E-002  
  653.50  1.5349E-002  
  654.00  1.5129E-002  
  654.50  1.4897E-002  
  655.00  1.4705E-002  
  655.50  1.4526E-002  
  656.00  1.4303E-002  
  656.50  1.4063E-002  
  657.00  1.3839E-002  
  657.50  1.3568E-002  
  658.00  1.3276E-002  
  658.50  1.3086E-002  
  659.00  1.3007E-002  
  659.50  1.2896E-002  
  660.00  1.2609E-002  
  660.50  1.2284E-002  
  661.00  1.2072E-002  
  661.50  1.1981E-002  
  662.00  1.1869E-002  
  662.50  1.1736E-002  
  663.00  1.1555E-002  
  663.50  1.1316E-002  
  664.00  1.1045E-002  
  664.50  1.0800E-002  
  665.00  1.0593E-002  
  665.50  1.0398E-002  
  666.00  1.0252E-002  
  666.50  1.0201E-002  
  667.00  1.0170E-002  
  667.50  1.0025E-002  
  668.00  9.7584E-003  
  668.50  9.4578E-003  
  669.00  9.3233E-003  
  669.50  9.2213E-003  
  670.00  9.1451E-003  
  670.50  8.9627E-003  
  671.00  8.8078E-003  
  671.50  8.7230E-003  
  672.00  8.5860E-003  
  672.50  8.3901E-003  
  673.00  8.1308E-003  
  673.50  7.9565E-003  
  674.00  7.8635E-003  
  674.50  7.7817E-003  
  675.00  7.6623E-003  
  675.50  7.5531E-003  
  676.00  7.4008E-003  
  676.50  7.3323E-003  
  677.00  7.2194E-003  
  677.50  7.1397E-003  
  678.00  7.0602E-003  
  678.50  6.9142E-003  
  679.00  6.7509E-003  
  679.50  6.5218E-003  
  680.00  6.3987E-003  
  680.50  6.2900E-003  
  681.00  6.2288E-003  
  681.50  6.0906E-003  
  682.00  5.9920E-003  
  682.50  5.8409E-003  
  683.00  5.7334E-003  
  683.50  5.6727E-003  
  684.00  5.6785E-003  
  684.50  5.6669E-003  
  685.00  5.5474E-003  
  685.50  5.4220E-003  
  686.00  5.2574E-003  
  686.50  5.1540E-003  
  687.00  5.0597E-003  
  687.50  4.9598E-003  
  688.00  4.8969E-003  
  688.50  4.8177E-003  
  689.00  4.7204E-003  
  689.50  4.5743E-003  
  690.00  4.4857E-003  
  690.50  4.4966E-003  
  691.00  4.5086E-003  
  691.50  4.4261E-003  
  692.00  4.3370E-003  
  692.50  4.2081E-003  
  693.00  4.1540E-003  
  693.50  4.0737E-003  
  694.00  4.0181E-003  
  694.50  3.9622E-003  
  695.00  3.9427E-003  
  695.50  3.9633E-003  
  696.00  3.9129E-003  
  696.50  3.7482E-003  
  697.00  3.5642E-003  
  697.50  3.4354E-003  
  698.00  3.3710E-003  
  698.50  3.2336E-003  
  699.00  3.1430E-003  
  699.50  3.0784E-003  
  700.00  3.1200E-003  
  700.50  3.1444E-003  
  701.00  3.1754E-003  
  701.50  3.1769E-003  
  702.00  3.1159E-003  
  702.50  3.0028E-003  
  703.00  2.9311E-003  
  703.50  2.9305E-003  
  704.00  2.9138E-003  
  704.50  2.7527E-003  
  705.00  2.6126E-003  
  705.50  2.5200E-003  
  706.00  2.5167E-003  
  706.50  2.4898E-003  
  707.00  2.4397E-003  
  707.50  2.4087E-003  
  708.00  2.3995E-003  
  708.50  2.4378E-003  
  709.00  2.4537E-003  
  709.50  2.4284E-003  
  710.00  2.3782E-003  
  710.50  2.3329E-003  
  711.00  2.2808E-003  
  711.50  2.1176E-003  
  712.00  1.9718E-003  
  712.50  1.8897E-003  
  713.00  1.8924E-003  
  713.50  1.8300E-003  
  714.00  1.7725E-003  
  714.50  1.7869E-003  
  715.00  1.7732E-003  
  715.50  1.7733E-003  
  716.00  1.7768E-003  
  716.50  1.7275E-003  
  717.00  1.6448E-003  
  717.50  1.5897E-003  
  718.00  1.5335E-003  
  718.50  1.5004E-003  
  719.00  1.4968E-003  
  719.50  1.5171E-003  
  720.00  1.4455E-003  
  720.50  1.3369E-003  
  721.00  1.3411E-003  
  721.50  1.2736E-003  
  722.00  1.2908E-003  
  722.50  1.2287E-003  
  723.00  1.2758E-003  
  723.50  1.2950E-003  
  724.00  1.3093E-003  
  724.50  1.2287E-003  
  725.00  1.1218E-003  
  725.50  1.0572E-003  
  726.00  1.0406E-003  
  726.50  1.0313E-003  
  727.00  1.0235E-003  
  727.50  1.1146E-003  
  728.00  1.1842E-003  
  728.50  1.1845E-003  
  729.00  1.0409E-003  
  729.50  8.4975E-004  
  730.00  7.6035E-004  
  730.50  7.1638E-004  
  731.00  7.1517E-004  
  731.50  6.8724E-004  
  732.00  6.9675E-004  
  732.50  6.8086E-004  
  733.00  5.5865E-004  
  733.50  5.6653E-004  
  734.00  5.8510E-004  
  734.50  6.1752E-004  
  735.00  6.1413E-004  
  735.50  6.3550E-004  
  736.00  6.7795E-004  
  736.50  6.4363E-004  
  737.00  6.6004E-004  
  737.50  5.3324E-004  
  738.00  4.6996E-004  
  738.50  4.9226E-004  
  739.00  6.0825E-004  
  739.50  6.1236E-004  
  740.00  5.9064E-004  
  740.50  5.7587E-004  
  741.00  6.2310E-004  
  741.50  5.9146E-004  
  742.00  5.3891E-004  
  742.50  4.3426E-004  
  743.00  4.3357E-004  
  743.50  5.0950E-004  
  744.00  5.0652E-004  
  744.50  4.8291E-004  
  745.00  5.2970E-004  
  745.50  5.6591E-004  
  746.00  6.1302E-004  
  746.50  5.2770E-004  
  747.00  5.0791E-004  
  747.50  4.1839E-004  
  748.00  3.7472E-004  
  748.50  3.0074E-004  
  749.00  2.6959E-004  
  749.50  2.5255E-004  
  750.00  3.1315E-004  
  750.50  4.1344E-004  
  751.00  3.7556E-004  
  751.50  3.6604E-004  
  752.00  1.9024E-004  
  752.50  1.0186E-004  
  753.00  5.7536E-005  
  753.50  8.9536E-005  
  754.00  7.1933E-005  
  754.50  5.0909E-006  
  755.00  2.2163E-005  
  755.50  4.2064E-005  
  756.00  6.3209E-005  
  756.50  5.7590E-005  
  757.00  6.3449E-005  
  757.50  5.2842E-005  
  758.00  1.0288E-005  
  758.50  2.1300E-006  
  759.00  4.3863E-005  
  759.50  2.9272E-007  
  760.00  9.6463E-008  
  760.50  0.0000E+000  
  761.00  0.0000E+000  
  761.50  0.0000E+000  
  762.00  0.0000E+000  
  762.50  1.2392E-005  
  763.00  9.4093E-005  
  763.50  1.2074E-004  
  764.00  1.1645E-004  
  764.50  1.0337E-004  
  765.00  2.2553E-005  
  765.50  0.0000E+000  
  766.00  0.0000E+000  
  766.50  0.0000E+000  
  767.00  0.0000E+000  
  767.50  0.0000E+000  
  768.00  0.0000E+000  
  768.50  0.0000E+000  
  769.00  5.0521E-005  
  769.50  1.8958E-004  
  770.00  2.6222E-005  
  770.50  0.0000E+000  
  771.00  0.0000E+000  
  771.50  0.0000E+000  
  772.00  0.0000E+000  
  772.50  0.0000E+000  
  773.00  0.0000E+000  
  773.50  0.0000E+000  
  774.00  0.0000E+000  
  774.50  0.0000E+000  
  775.00  0.0000E+000  
  775.50  0.0000E+000  
  776.00  0.0000E+000  
  776.50  0.0000E+000  
  777.00  0.0000E+000  
  777.50  0.0000E+000  
  778.00  0.0000E+000  
  778.50  0.0000E+000  
  779.00  0.0000E+000  
  779.50  0.0000E+000  
  780.00  0.0000E+000  
  780.50  0.0000E+000  
  781.00  0.0000E+000  
  781.50  0.0000E+000  
  782.00  0.0000E+000  
  782.50  0.0000E+000  
  783.00  0.0000E+000  
  783.50  0.0000E+000  
  784.00  0.0000E+000  
  784.50  0.0000E+000  
  785.00  0.0000E+000  
  785.50  0.0000E+000  
  786.00  0.0000E+000  
  786.50  0.0000E+000  
  787.00  0.0000E+000  
  787.50  0.0000E+000  
  788.00  0.0000E+000  
  788.50  0.0000E+000  
  789.00  0.0000E+000  
  789.50  0.0000E+000  
  790.00  0.0000E+000  
  790.50  0.0000E+000  
  791.00  0.0000E+000  
  791.50  0.0000E+000  
  792.00  0.0000E+000  
  792.50  0.0000E+000  
  793.00  0.0000E+000  
  793.50  0.0000E+000  
  794.00  0.0000E+000  
  794.50  0.0000E+000  
  795.00  0.0000E+000  
  795.50  0.0000E+000  
  796.00  0.0000E+000  
  796.50  0.0000E+000  
  797.00  0.0000E+000  
  797.50  0.0000E+000  
  798.00  0.0000E+000  
  798.50  0.0000E+000  
  799.00  0.0000E+000  
  799.50  0.0000E+000  
  800.00  0.0000E+000  
  800.50  0.0000E+000  
  801.00  0.0000E+000  
  801.50  0.0000E+000  
  802.00  0.0000E+000  
  802.50  0.0000E+000  
  803.00  0.0000E+000  
  803.50  0.0000E+000  
  804.00  0.0000E+000  
  804.50  0.0000E+000  
  805.00  0.0000E+000  
  805.50  0.0000E+000  
  806.00  0.0000E+000  
  806.50  0.0000E+000  
  807.00  0.0000E+000  
  807.50  0.0000E+000  
  808.00  0.0000E+000  
  808.50  0.0000E+000  
  809.00  0.0000E+000  
  809.50  0.0000E+000  
  810.00  0.0000E+000  
  810.50  0.0000E+000  
  811.00  0.0000E+000  
  811.50  0.0000E+000  
  812.00  0.0000E+000  
  812.50  0.0000E+000  
  813.00  0.0000E+000  
  813.50  0.0000E+000  
  814.00  0.0000E+000  
  814.50  0.0000E+000  
  815.00  0.0000E+000  
  815.50  0.0000E+000  
  816.00  0.0000E+000  
  816.50  0.0000E+000  
  817.00  0.0000E+000  
  817.50  0.0000E+000  
  818.00  0.0000E+000  
  818.50  0.0000E+000  
  819.00  0.0000E+000  
  819.50  0.0000E+000  
  820.00  0.0000E+000  
  820.50  0.0000E+000  
  821.00  0.0000E+000  
  821.50  0.0000E+000  
  822.00  0.0000E+000  
  822.50  0.0000E+000  
  823.00  0.0000E+000  
  823.50  0.0000E+000  
  824.00  0.0000E+000  
  824.50  0.0000E+000  
  825.00  0.0000E+000  
  825.50  0.0000E+000  
  826.00  0.0000E+000  
  826.50  0.0000E+000  
  827.00  0.0000E+000  
  827.50  0.0000E+000  
  828.00  0.0000E+000  
  828.50  0.0000E+000  
  829.00  0.0000E+000  
  829.50  0.0000E+000  
  830.00  0.0000E+000  
  830.50  0.0000E+000  
  831.00  0.0000E+000  
  831.50  0.0000E+000  
  832.00  0.0000E+000  
  832.50  0.0000E+000  
  833.00  0.0000E+000  
  833.50  0.0000E+000  
  834.00  0.0000E+000  
  834.50  0.0000E+000  
  835.00  0.0000E+000  
  835.50  0.0000E+000  
  836.00  0.0000E+000  
  836.50  0.0000E+000  
  837.00  0.0000E+000  
  837.50  0.0000E+000  
  838.00  0.0000E+000  
  838.50  0.0000E+000  
  839.00  0.0000E+000  
  839.50  0.0000E+000  
  840.00  0.0000E+000  
  840.50  0.0000E+000  
  841.00  0.0000E+000  
  841.50  0.0000E+000  
  842.00  0.0000E+000  
  842.50  0.0000E+000  
  843.00  0.0000E+000  
  843.50  0.0000E+000  
  844.00  0.0000E+000  
  844.50  0.0000E+000  
  845.00  0.0000E+000  
  845.50  0.0000E+000  
  846.00  0.0000E+000  
  846.50  0.0000E+000  
  847.00  0.0000E+000  
  847.50  0.0000E+000  
  848.00  0.0000E+000  
  848.50  0.0000E+000  
  849.00  0.0000E+000  
  849.50  0.0000E+000  
  850.00  0.0000E+000  
  850.50  0.0000E+000  
  851.00  0.0000E+000  
  851.50  0.0000E+000  
  852.00  0.0000E+000  
  852.50  0.0000E+000  
  853.00  0.0000E+000  
  853.50  0.0000E+000  
  854.00  0.0000E+000  
  854.50  0.0000E+000  
  855.00  0.0000E+000  
  855.50  0.0000E+000  
  856.00  0.0000E+000  
  856.50  0.0000E+000  
  857.00  0.0000E+000  
  857.50  0.0000E+000  
  858.00  0.0000E+000  
  858.50  0.0000E+000  
  859.00  0.0000E+000  
  859.50  0.0000E+000  
  860.00  0.0000E+000  
  860.50  0.0000E+000  
  861.00  0.0000E+000  
  861.50  0.0000E+000  
  862.00  0.0000E+000  
  862.50  0.0000E+000  
  863.00  0.0000E+000  
  863.50  0.0000E+000  
  864.00  0.0000E+000  
  864.50  0.0000E+000  
  865.00  0.0000E+000  
  865.50  0.0000E+000  
  866.00  0.0000E+000  
  866.50  0.0000E+000  
  867.00  0.0000E+000  
  867.50  0.0000E+000  
  868.00  0.0000E+000  
  868.50  0.0000E+000  
  869.00  0.0000E+000  
  869.50  0.0000E+000  
  870.00  0.0000E+000  
  870.50  0.0000E+000  
  871.00  0.0000E+000  
  871.50  0.0000E+000  
  872.00  0.0000E+000  
  872.50  0.0000E+000  
  873.00  0.0000E+000  
  873.50  0.0000E+000  
  874.00  0.0000E+000  
  874.50  0.0000E+000  
  875.00  0.0000E+000  
  875.50  0.0000E+000  
  876.00  0.0000E+000  
  876.50  0.0000E+000  
  877.00  0.0000E+000  
  877.50  0.0000E+000  
  878.00  0.0000E+000  
  878.50  0.0000E+000  
  879.00  0.0000E+000  
  879.50  0.0000E+000  
  880.00  0.0000E+000  
  880.50  0.0000E+000  
  881.00  0.0000E+000  
  881.50  0.0000E+000  
  882.00  0.0000E+000  
  882.50  0.0000E+000  
  883.00  0.0000E+000  
  883.50  0.0000E+000  
  884.00  0.0000E+000  
  884.50  0.0000E+000  
  885.00  0.0000E+000  
  885.50  0.0000E+000  
  886.00  0.0000E+000  
  886.50  0.0000E+000  
  887.00  0.0000E+000  
  887.50  0.0000E+000  
  888.00  0.0000E+000  
  888.50  0.0000E+000  
  889.00  0.0000E+000  
  889.50  0.0000E+000  
  890.00  0.0000E+000  
  890.50  0.0000E+000  
  891.00  0.0000E+000  
  891.50  0.0000E+000  
  892.00  0.0000E+000  
  892.50  0.0000E+000  
  893.00  0.0000E+000  
  893.50  0.0000E+000  
  894.00  0.0000E+000  
  894.50  0.0000E+000  
  895.00  0.0000E+000  
  895.50  0.0000E+000  
  896.00  0.0000E+000  
  896.50  0.0000E+000  
  897.00  0.0000E+000  
  897.50  0.0000E+000  
  898.00  0.0000E+000  
  898.50  0.0000E+000  
  899.00  0.0000E+000  
  899.50  0.0000E+000  
