
# From lspdd.org
# 
# Name: DEL CREE A19 Domestique
# Indice spectral Valeur 
# MSI 0.25 
# SLI 0.47 
# IPI 0.64 
# Pourcentage de bleu 17.1 
# Caractéristique Valeur 
# CCT calculée (K) 2636 
# CCT du fabricant (K) 2700 
# Tension (V) 120 
# Puissance (W) 6.0 
# Efficacité lumineuse (Lum/W) 75.0 
#
# Image: '/app/system/img_2s/2547/medium_image2.JPG?1413486241'
# Image: '/app/system/img_1s/2547/medium_image1.JPG?1413486245'
# 

  273.00  0.0000E+000  
  273.50  0.0000E+000  
  274.00  0.0000E+000  
  274.50  0.0000E+000  
  275.00  0.0000E+000  
  275.50  0.0000E+000  
  276.00  0.0000E+000  
  276.50  0.0000E+000  
  277.00  0.0000E+000  
  277.50  0.0000E+000  
  278.00  0.0000E+000  
  278.50  0.0000E+000  
  279.00  0.0000E+000  
  279.50  0.0000E+000  
  280.00  0.0000E+000  
  280.50  0.0000E+000  
  281.00  0.0000E+000  
  281.50  0.0000E+000  
  282.00  0.0000E+000  
  282.50  0.0000E+000  
  283.00  0.0000E+000  
  283.50  0.0000E+000  
  284.00  0.0000E+000  
  284.50  0.0000E+000  
  285.00  0.0000E+000  
  285.50  0.0000E+000  
  286.00  0.0000E+000  
  286.50  0.0000E+000  
  287.00  0.0000E+000  
  287.50  0.0000E+000  
  288.00  0.0000E+000  
  288.50  0.0000E+000  
  289.00  0.0000E+000  
  289.50  0.0000E+000  
  290.00  0.0000E+000  
  290.50  0.0000E+000  
  291.00  0.0000E+000  
  291.50  0.0000E+000  
  292.00  0.0000E+000  
  292.50  0.0000E+000  
  293.00  0.0000E+000  
  293.50  0.0000E+000  
  294.00  0.0000E+000  
  294.50  0.0000E+000  
  295.00  0.0000E+000  
  295.50  0.0000E+000  
  296.00  0.0000E+000  
  296.50  0.0000E+000  
  297.00  0.0000E+000  
  297.50  0.0000E+000  
  298.00  0.0000E+000  
  298.50  0.0000E+000  
  299.00  0.0000E+000  
  299.50  0.0000E+000  
  300.00  0.0000E+000  
  300.50  0.0000E+000  
  301.00  0.0000E+000  
  301.50  0.0000E+000  
  302.00  1.4775E-005  
  302.50  4.5525E-005  
  303.00  8.5633E-005  
  303.50  9.9924E-005  
  304.00  6.1721E-005  
  304.50  4.4155E-005  
  305.00  2.5343E-005  
  305.50  2.8393E-005  
  306.00  3.0666E-005  
  306.50  3.8792E-006  
  307.00  2.2352E-005  
  307.50  6.2532E-006  
  308.00  1.9855E-005  
  308.50  5.3848E-005  
  309.00  3.3922E-005  
  309.50  4.7535E-005  
  310.00  4.9300E-005  
  310.50  4.0490E-005  
  311.00  3.6482E-005  
  311.50  3.5368E-005  
  312.00  3.7381E-005  
  312.50  2.3611E-005  
  313.00  1.1929E-005  
  313.50  0.0000E+000  
  314.00  0.0000E+000  
  314.50  0.0000E+000  
  315.00  0.0000E+000  
  315.50  0.0000E+000  
  316.00  0.0000E+000  
  316.50  0.0000E+000  
  317.00  0.0000E+000  
  317.50  0.0000E+000  
  318.00  0.0000E+000  
  318.50  0.0000E+000  
  319.00  0.0000E+000  
  319.50  0.0000E+000  
  320.00  0.0000E+000  
  320.50  0.0000E+000  
  321.00  0.0000E+000  
  321.50  0.0000E+000  
  322.00  0.0000E+000  
  322.50  0.0000E+000  
  323.00  0.0000E+000  
  323.50  0.0000E+000  
  324.00  0.0000E+000  
  324.50  6.8052E-006  
  325.00  3.1515E-005  
  325.50  5.4744E-005  
  326.00  4.0061E-005  
  326.50  2.5431E-006  
  327.00  0.0000E+000  
  327.50  0.0000E+000  
  328.00  0.0000E+000  
  328.50  0.0000E+000  
  329.00  0.0000E+000  
  329.50  0.0000E+000  
  330.00  0.0000E+000  
  330.50  0.0000E+000  
  331.00  0.0000E+000  
  331.50  0.0000E+000  
  332.00  0.0000E+000  
  332.50  0.0000E+000  
  333.00  1.5241E-007  
  333.50  1.1606E-005  
  334.00  1.6403E-005  
  334.50  0.0000E+000  
  335.00  0.0000E+000  
  335.50  0.0000E+000  
  336.00  1.1102E-008  
  336.50  2.4646E-005  
  337.00  1.0010E-004  
  337.50  1.0909E-004  
  338.00  2.2959E-005  
  338.50  1.4336E-006  
  339.00  0.0000E+000  
  339.50  0.0000E+000  
  340.00  0.0000E+000  
  340.50  0.0000E+000  
  341.00  0.0000E+000  
  341.50  0.0000E+000  
  342.00  0.0000E+000  
  342.50  7.1237E-006  
  343.00  0.0000E+000  
  343.50  0.0000E+000  
  344.00  0.0000E+000  
  344.50  0.0000E+000  
  345.00  0.0000E+000  
  345.50  3.9710E-005  
  346.00  7.5579E-005  
  346.50  5.9852E-005  
  347.00  4.0771E-006  
  347.50  4.4097E-005  
  348.00  1.3272E-004  
  348.50  1.9037E-004  
  349.00  2.2175E-004  
  349.50  1.6594E-004  
  350.00  5.9788E-005  
  350.50  7.7630E-006  
  351.00  0.0000E+000  
  351.50  0.0000E+000  
  352.00  0.0000E+000  
  352.50  0.0000E+000  
  353.00  0.0000E+000  
  353.50  0.0000E+000  
  354.00  5.8399E-006  
  354.50  3.5936E-006  
  355.00  0.0000E+000  
  355.50  0.0000E+000  
  356.00  0.0000E+000  
  356.50  0.0000E+000  
  357.00  9.4687E-007  
  357.50  6.1195E-006  
  358.00  5.6918E-006  
  358.50  1.2028E-005  
  359.00  0.0000E+000  
  359.50  0.0000E+000  
  360.00  6.4461E-006  
  360.50  3.9351E-005  
  361.00  4.7691E-005  
  361.50  1.4477E-005  
  362.00  0.0000E+000  
  362.50  0.0000E+000  
  363.00  0.0000E+000  
  363.50  0.0000E+000  
  364.00  0.0000E+000  
  364.50  8.6184E-006  
  365.00  6.7567E-005  
  365.50  1.1657E-004  
  366.00  1.1612E-004  
  366.50  4.8810E-005  
  367.00  1.2208E-007  
  367.50  4.5092E-006  
  368.00  1.8790E-006  
  368.50  2.8214E-005  
  369.00  1.5011E-005  
  369.50  0.0000E+000  
  370.00  0.0000E+000  
  370.50  0.0000E+000  
  371.00  0.0000E+000  
  371.50  0.0000E+000  
  372.00  0.0000E+000  
  372.50  1.1885E-005  
  373.00  1.5916E-005  
  373.50  3.8296E-005  
  374.00  3.8391E-005  
  374.50  4.1593E-005  
  375.00  5.0091E-005  
  375.50  1.2449E-005  
  376.00  6.5604E-006  
  376.50  0.0000E+000  
  377.00  0.0000E+000  
  377.50  0.0000E+000  
  378.00  0.0000E+000  
  378.50  0.0000E+000  
  379.00  0.0000E+000  
  379.50  0.0000E+000  
  380.00  0.0000E+000  
  380.50  0.0000E+000  
  381.00  0.0000E+000  
  381.50  0.0000E+000  
  382.00  0.0000E+000  
  382.50  0.0000E+000  
  383.00  6.7019E-006  
  383.50  1.2286E-005  
  384.00  3.5886E-005  
  384.50  4.1008E-005  
  385.00  1.1285E-005  
  385.50  2.6101E-005  
  386.00  2.0757E-006  
  386.50  0.0000E+000  
  387.00  0.0000E+000  
  387.50  0.0000E+000  
  388.00  1.8872E-005  
  388.50  1.7046E-005  
  389.00  1.0387E-005  
  389.50  1.8541E-005  
  390.00  1.8617E-005  
  390.50  1.1463E-005  
  391.00  3.9658E-006  
  391.50  1.5022E-005  
  392.00  3.1263E-005  
  392.50  3.9571E-005  
  393.00  2.7669E-005  
  393.50  0.0000E+000  
  394.00  0.0000E+000  
  394.50  0.0000E+000  
  395.00  0.0000E+000  
  395.50  0.0000E+000  
  396.00  0.0000E+000  
  396.50  0.0000E+000  
  397.00  0.0000E+000  
  397.50  0.0000E+000  
  398.00  0.0000E+000  
  398.50  0.0000E+000  
  399.00  0.0000E+000  
  399.50  0.0000E+000  
  400.00  0.0000E+000  
  400.50  0.0000E+000  
  401.00  4.9875E-006  
  401.50  2.5196E-005  
  402.00  4.8669E-005  
  402.50  7.7525E-005  
  403.00  9.8355E-005  
  403.50  9.7617E-005  
  404.00  7.8891E-005  
  404.50  7.7805E-005  
  405.00  4.1952E-005  
  405.50  3.9306E-005  
  406.00  3.7075E-005  
  406.50  3.0068E-005  
  407.00  3.0659E-005  
  407.50  5.8751E-005  
  408.00  5.0870E-005  
  408.50  9.9472E-005  
  409.00  1.0443E-004  
  409.50  1.1984E-004  
  410.00  1.3138E-004  
  410.50  1.0689E-004  
  411.00  9.9677E-005  
  411.50  4.7859E-005  
  412.00  2.2923E-005  
  412.50  5.3281E-005  
  413.00  1.1164E-004  
  413.50  1.7070E-004  
  414.00  2.0279E-004  
  414.50  1.6238E-004  
  415.00  1.4782E-004  
  415.50  1.5656E-004  
  416.00  1.9908E-004  
  416.50  2.1038E-004  
  417.00  2.4213E-004  
  417.50  2.5470E-004  
  418.00  2.7444E-004  
  418.50  3.0183E-004  
  419.00  3.0919E-004  
  419.50  3.2985E-004  
  420.00  3.8420E-004  
  420.50  4.4039E-004  
  421.00  4.9815E-004  
  421.50  5.7478E-004  
  422.00  6.3757E-004  
  422.50  6.8223E-004  
  423.00  7.4407E-004  
  423.50  7.7530E-004  
  424.00  8.4039E-004  
  424.50  9.0276E-004  
  425.00  9.3627E-004  
  425.50  9.6180E-004  
  426.00  9.6722E-004  
  426.50  9.9080E-004  
  427.00  1.0034E-003  
  427.50  1.0204E-003  
  428.00  1.0500E-003  
  428.50  1.1596E-003  
  429.00  1.2328E-003  
  429.50  1.3447E-003  
  430.00  1.4002E-003  
  430.50  1.4012E-003  
  431.00  1.3982E-003  
  431.50  1.4019E-003  
  432.00  1.5141E-003  
  432.50  1.6732E-003  
  433.00  1.8102E-003  
  433.50  1.8872E-003  
  434.00  1.9422E-003  
  434.50  2.0154E-003  
  435.00  2.1154E-003  
  435.50  2.1724E-003  
  436.00  2.2497E-003  
  436.50  2.3664E-003  
  437.00  2.5511E-003  
  437.50  2.6923E-003  
  438.00  2.7483E-003  
  438.50  2.8264E-003  
  439.00  2.8961E-003  
  439.50  3.0582E-003  
  440.00  3.2390E-003  
  440.50  3.4044E-003  
  441.00  3.6200E-003  
  441.50  3.8513E-003  
  442.00  4.0683E-003  
  442.50  4.2703E-003  
  443.00  4.4441E-003  
  443.50  4.6192E-003  
  444.00  4.7665E-003  
  444.50  4.9515E-003  
  445.00  5.1674E-003  
  445.50  5.3892E-003  
  446.00  5.5944E-003  
  446.50  5.7102E-003  
  447.00  5.8038E-003  
  447.50  5.9352E-003  
  448.00  6.0678E-003  
  448.50  6.2161E-003  
  449.00  6.3470E-003  
  449.50  6.4216E-003  
  450.00  6.4416E-003  
  450.50  6.4114E-003  
  451.00  6.3825E-003  
  451.50  6.2717E-003  
  452.00  6.1793E-003  
  452.50  6.0293E-003  
  453.00  5.8989E-003  
  453.50  5.7972E-003  
  454.00  5.7003E-003  
  454.50  5.6015E-003  
  455.00  5.4902E-003  
  455.50  5.3505E-003  
  456.00  5.2442E-003  
  456.50  5.1449E-003  
  457.00  5.0431E-003  
  457.50  4.9147E-003  
  458.00  4.7444E-003  
  458.50  4.6065E-003  
  459.00  4.5130E-003  
  459.50  4.4426E-003  
  460.00  4.3994E-003  
  460.50  4.3349E-003  
  461.00  4.2392E-003  
  461.50  4.1567E-003  
  462.00  4.0804E-003  
  462.50  4.0451E-003  
  463.00  4.0314E-003  
  463.50  4.0481E-003  
  464.00  4.0668E-003  
  464.50  4.0870E-003  
  465.00  4.0807E-003  
  465.50  4.0173E-003  
  466.00  3.9384E-003  
  466.50  3.8594E-003  
  467.00  3.8049E-003  
  467.50  3.7700E-003  
  468.00  3.7464E-003  
  468.50  3.7278E-003  
  469.00  3.7168E-003  
  469.50  3.6924E-003  
  470.00  3.6198E-003  
  470.50  3.5345E-003  
  471.00  3.4996E-003  
  471.50  3.5072E-003  
  472.00  3.5171E-003  
  472.50  3.4881E-003  
  473.00  3.4288E-003  
  473.50  3.4198E-003  
  474.00  3.4117E-003  
  474.50  3.3968E-003  
  475.00  3.3727E-003  
  475.50  3.3393E-003  
  476.00  3.3388E-003  
  476.50  3.3190E-003  
  477.00  3.3276E-003  
  477.50  3.3218E-003  
  478.00  3.3404E-003  
  478.50  3.3737E-003  
  479.00  3.4241E-003  
  479.50  3.4849E-003  
  480.00  3.5058E-003  
  480.50  3.5071E-003  
  481.00  3.5146E-003  
  481.50  3.5266E-003  
  482.00  3.5437E-003  
  482.50  3.5888E-003  
  483.00  3.6135E-003  
  483.50  3.6966E-003  
  484.00  3.7754E-003  
  484.50  3.8203E-003  
  485.00  3.8493E-003  
  485.50  3.8642E-003  
  486.00  3.8620E-003  
  486.50  3.8773E-003  
  487.00  3.9013E-003  
  487.50  3.9507E-003  
  488.00  4.0410E-003  
  488.50  4.1276E-003  
  489.00  4.1931E-003  
  489.50  4.2507E-003  
  490.00  4.2954E-003  
  490.50  4.3456E-003  
  491.00  4.4020E-003  
  491.50  4.4569E-003  
  492.00  4.5623E-003  
  492.50  4.6786E-003  
  493.00  4.7795E-003  
  493.50  4.8579E-003  
  494.00  4.9245E-003  
  494.50  4.9858E-003  
  495.00  5.0368E-003  
  495.50  5.0640E-003  
  496.00  5.1039E-003  
  496.50  5.1691E-003  
  497.00  5.2659E-003  
  497.50  5.3458E-003  
  498.00  5.3892E-003  
  498.50  5.4642E-003  
  499.00  5.5414E-003  
  499.50  5.6430E-003  
  500.00  5.7302E-003  
  500.50  5.7528E-003  
  501.00  5.8074E-003  
  501.50  5.8763E-003  
  502.00  5.9701E-003  
  502.50  6.0600E-003  
  503.00  6.1305E-003  
  503.50  6.1818E-003  
  504.00  6.2492E-003  
  504.50  6.3240E-003  
  505.00  6.4109E-003  
  505.50  6.4958E-003  
  506.00  6.5580E-003  
  506.50  6.6068E-003  
  507.00  6.6663E-003  
  507.50  6.7397E-003  
  508.00  6.7812E-003  
  508.50  6.7986E-003  
  509.00  6.8263E-003  
  509.50  6.8737E-003  
  510.00  6.9926E-003  
  510.50  7.0825E-003  
  511.00  7.1519E-003  
  511.50  7.1856E-003  
  512.00  7.2116E-003  
  512.50  7.2440E-003  
  513.00  7.3048E-003  
  513.50  7.3605E-003  
  514.00  7.4557E-003  
  514.50  7.5389E-003  
  515.00  7.6252E-003  
  515.50  7.6981E-003  
  516.00  7.7685E-003  
  516.50  7.8226E-003  
  517.00  7.8903E-003  
  517.50  7.9297E-003  
  518.00  7.9473E-003  
  518.50  8.0008E-003  
  519.00  8.0505E-003  
  519.50  8.1367E-003  
  520.00  8.1924E-003  
  520.50  8.2591E-003  
  521.00  8.3157E-003  
  521.50  8.3795E-003  
  522.00  8.4544E-003  
  522.50  8.5168E-003  
  523.00  8.5888E-003  
  523.50  8.6380E-003  
  524.00  8.6976E-003  
  524.50  8.7650E-003  
  525.00  8.8352E-003  
  525.50  8.8755E-003  
  526.00  8.9103E-003  
  526.50  8.9721E-003  
  527.00  9.0335E-003  
  527.50  9.1298E-003  
  528.00  9.1826E-003  
  528.50  9.2420E-003  
  529.00  9.3025E-003  
  529.50  9.3331E-003  
  530.00  9.3976E-003  
  530.50  9.4833E-003  
  531.00  9.5632E-003  
  531.50  9.6130E-003  
  532.00  9.6244E-003  
  532.50  9.6702E-003  
  533.00  9.7598E-003  
  533.50  9.8577E-003  
  534.00  9.9552E-003  
  534.50  1.0005E-002  
  535.00  1.0067E-002  
  535.50  1.0123E-002  
  536.00  1.0186E-002  
  536.50  1.0234E-002  
  537.00  1.0305E-002  
  537.50  1.0400E-002  
  538.00  1.0525E-002  
  538.50  1.0609E-002  
  539.00  1.0712E-002  
  539.50  1.0786E-002  
  540.00  1.0876E-002  
  540.50  1.0956E-002  
  541.00  1.0986E-002  
  541.50  1.1051E-002  
  542.00  1.1135E-002  
  542.50  1.1233E-002  
  543.00  1.1335E-002  
  543.50  1.1398E-002  
  544.00  1.1482E-002  
  544.50  1.1574E-002  
  545.00  1.1674E-002  
  545.50  1.1772E-002  
  546.00  1.1865E-002  
  546.50  1.1953E-002  
  547.00  1.2009E-002  
  547.50  1.2082E-002  
  548.00  1.2148E-002  
  548.50  1.2212E-002  
  549.00  1.2269E-002  
  549.50  1.2321E-002  
  550.00  1.2401E-002  
  550.50  1.2526E-002  
  551.00  1.2658E-002  
  551.50  1.2745E-002  
  552.00  1.2826E-002  
  552.50  1.2887E-002  
  553.00  1.3032E-002  
  553.50  1.3185E-002  
  554.00  1.3353E-002  
  554.50  1.3435E-002  
  555.00  1.3502E-002  
  555.50  1.3537E-002  
  556.00  1.3624E-002  
  556.50  1.3765E-002  
  557.00  1.3920E-002  
  557.50  1.4070E-002  
  558.00  1.4192E-002  
  558.50  1.4305E-002  
  559.00  1.4410E-002  
  559.50  1.4512E-002  
  560.00  1.4610E-002  
  560.50  1.4685E-002  
  561.00  1.4765E-002  
  561.50  1.4836E-002  
  562.00  1.4937E-002  
  562.50  1.5046E-002  
  563.00  1.5167E-002  
  563.50  1.5293E-002  
  564.00  1.5416E-002  
  564.50  1.5513E-002  
  565.00  1.5629E-002  
  565.50  1.5743E-002  
  566.00  1.5862E-002  
  566.50  1.5961E-002  
  567.00  1.6054E-002  
  567.50  1.6150E-002  
  568.00  1.6291E-002  
  568.50  1.6400E-002  
  569.00  1.6561E-002  
  569.50  1.6678E-002  
  570.00  1.6808E-002  
  570.50  1.6947E-002  
  571.00  1.7126E-002  
  571.50  1.7266E-002  
  572.00  1.7394E-002  
  572.50  1.7475E-002  
  573.00  1.7564E-002  
  573.50  1.7649E-002  
  574.00  1.7779E-002  
  574.50  1.7910E-002  
  575.00  1.8027E-002  
  575.50  1.8139E-002  
  576.00  1.8274E-002  
  576.50  1.8443E-002  
  577.00  1.8648E-002  
  577.50  1.8794E-002  
  578.00  1.8900E-002  
  578.50  1.8898E-002  
  579.00  1.9014E-002  
  579.50  1.9211E-002  
  580.00  1.9419E-002  
  580.50  1.9550E-002  
  581.00  1.9630E-002  
  581.50  1.9720E-002  
  582.00  1.9868E-002  
  582.50  2.0041E-002  
  583.00  2.0191E-002  
  583.50  2.0338E-002  
  584.00  2.0404E-002  
  584.50  2.0494E-002  
  585.00  2.0573E-002  
  585.50  2.0704E-002  
  586.00  2.0859E-002  
  586.50  2.0990E-002  
  587.00  2.1084E-002  
  587.50  2.1131E-002  
  588.00  2.1203E-002  
  588.50  2.1330E-002  
  589.00  2.1405E-002  
  589.50  2.1508E-002  
  590.00  2.1661E-002  
  590.50  2.1834E-002  
  591.00  2.1991E-002  
  591.50  2.2053E-002  
  592.00  2.2130E-002  
  592.50  2.2217E-002  
  593.00  2.2314E-002  
  593.50  2.2322E-002  
  594.00  2.2348E-002  
  594.50  2.2348E-002  
  595.00  2.2456E-002  
  595.50  2.2541E-002  
  596.00  2.2654E-002  
  596.50  2.2718E-002  
  597.00  2.2796E-002  
  597.50  2.2813E-002  
  598.00  2.2826E-002  
  598.50  2.2848E-002  
  599.00  2.2918E-002  
  599.50  2.3004E-002  
  600.00  2.3130E-002  
  600.50  2.3213E-002  
  601.00  2.3225E-002  
  601.50  2.3173E-002  
  602.00  2.3101E-002  
  602.50  2.3154E-002  
  603.00  2.3186E-002  
  603.50  2.3258E-002  
  604.00  2.3339E-002  
  604.50  2.3400E-002  
  605.00  2.3379E-002  
  605.50  2.3296E-002  
  606.00  2.3194E-002  
  606.50  2.3189E-002  
  607.00  2.3186E-002  
  607.50  2.3173E-002  
  608.00  2.3194E-002  
  608.50  2.3220E-002  
  609.00  2.3299E-002  
  609.50  2.3308E-002  
  610.00  2.3228E-002  
  610.50  2.3116E-002  
  611.00  2.3025E-002  
  611.50  2.2988E-002  
  612.00  2.2940E-002  
  612.50  2.2888E-002  
  613.00  2.2884E-002  
  613.50  2.2884E-002  
  614.00  2.2855E-002  
  614.50  2.2821E-002  
  615.00  2.2769E-002  
  615.50  2.2712E-002  
  616.00  2.2543E-002  
  616.50  2.2417E-002  
  617.00  2.2361E-002  
  617.50  2.2354E-002  
  618.00  2.2304E-002  
  618.50  2.2148E-002  
  619.00  2.1971E-002  
  619.50  2.1818E-002  
  620.00  2.1727E-002  
  620.50  2.1646E-002  
  621.00  2.1537E-002  
  621.50  2.1459E-002  
  622.00  2.1434E-002  
  622.50  2.1374E-002  
  623.00  2.1267E-002  
  623.50  2.1107E-002  
  624.00  2.0965E-002  
  624.50  2.0812E-002  
  625.00  2.0665E-002  
  625.50  2.0656E-002  
  626.00  2.0582E-002  
  626.50  2.0485E-002  
  627.00  2.0306E-002  
  627.50  2.0189E-002  
  628.00  2.0078E-002  
  628.50  1.9933E-002  
  629.00  1.9802E-002  
  629.50  1.9660E-002  
  630.00  1.9515E-002  
  630.50  1.9340E-002  
  631.00  1.9132E-002  
  631.50  1.8962E-002  
  632.00  1.8775E-002  
  632.50  1.8665E-002  
  633.00  1.8590E-002  
  633.50  1.8499E-002  
  634.00  1.8433E-002  
  634.50  1.8301E-002  
  635.00  1.8184E-002  
  635.50  1.7955E-002  
  636.00  1.7781E-002  
  636.50  1.7597E-002  
  637.00  1.7437E-002  
  637.50  1.7258E-002  
  638.00  1.7092E-002  
  638.50  1.7001E-002  
  639.00  1.6892E-002  
  639.50  1.6768E-002  
  640.00  1.6662E-002  
  640.50  1.6515E-002  
  641.00  1.6366E-002  
  641.50  1.6206E-002  
  642.00  1.6056E-002  
  642.50  1.5909E-002  
  643.00  1.5702E-002  
  643.50  1.5551E-002  
  644.00  1.5346E-002  
  644.50  1.5130E-002  
  645.00  1.4895E-002  
  645.50  1.4697E-002  
  646.00  1.4556E-002  
  646.50  1.4419E-002  
  647.00  1.4282E-002  
  647.50  1.4180E-002  
  648.00  1.4061E-002  
  648.50  1.3925E-002  
  649.00  1.3762E-002  
  649.50  1.3560E-002  
  650.00  1.3430E-002  
  650.50  1.3252E-002  
  651.00  1.3122E-002  
  651.50  1.2974E-002  
  652.00  1.2853E-002  
  652.50  1.2718E-002  
  653.00  1.2577E-002  
  653.50  1.2374E-002  
  654.00  1.2172E-002  
  654.50  1.2001E-002  
  655.00  1.1910E-002  
  655.50  1.1847E-002  
  656.00  1.1714E-002  
  656.50  1.1583E-002  
  657.00  1.1471E-002  
  657.50  1.1364E-002  
  658.00  1.1220E-002  
  658.50  1.1017E-002  
  659.00  1.0863E-002  
  659.50  1.0746E-002  
  660.00  1.0627E-002  
  660.50  1.0467E-002  
  661.00  1.0330E-002  
  661.50  1.0195E-002  
  662.00  1.0043E-002  
  662.50  9.8132E-003  
  663.00  9.6574E-003  
  663.50  9.5729E-003  
  664.00  9.5038E-003  
  664.50  9.3482E-003  
  665.00  9.1758E-003  
  665.50  9.0207E-003  
  666.00  8.9072E-003  
  666.50  8.8216E-003  
  667.00  8.7665E-003  
  667.50  8.7786E-003  
  668.00  8.6958E-003  
  668.50  8.5979E-003  
  669.00  8.4324E-003  
  669.50  8.2989E-003  
  670.00  8.1119E-003  
  670.50  7.9677E-003  
  671.00  7.8116E-003  
  671.50  7.6753E-003  
  672.00  7.5105E-003  
  672.50  7.4352E-003  
  673.00  7.3771E-003  
  673.50  7.2961E-003  
  674.00  7.1781E-003  
  674.50  7.0353E-003  
  675.00  6.9016E-003  
  675.50  6.7986E-003  
  676.00  6.7296E-003  
  676.50  6.6388E-003  
  677.00  6.5586E-003  
  677.50  6.4776E-003  
  678.00  6.4237E-003  
  678.50  6.3543E-003  
  679.00  6.2815E-003  
  679.50  6.1946E-003  
  680.00  6.0661E-003  
  680.50  5.9980E-003  
  681.00  5.8749E-003  
  681.50  5.7235E-003  
  682.00  5.5359E-003  
  682.50  5.4048E-003  
  683.00  5.3028E-003  
  683.50  5.3352E-003  
  684.00  5.3677E-003  
  684.50  5.3758E-003  
  685.00  5.2483E-003  
  685.50  5.1717E-003  
  686.00  5.1083E-003  
  686.50  5.0411E-003  
  687.00  4.9197E-003  
  687.50  4.7765E-003  
  688.00  4.6568E-003  
  688.50  4.5709E-003  
  689.00  4.5462E-003  
  689.50  4.5045E-003  
  690.00  4.4959E-003  
  690.50  4.4484E-003  
  691.00  4.4115E-003  
  691.50  4.3275E-003  
  692.00  4.1556E-003  
  692.50  4.0524E-003  
  693.00  4.0395E-003  
  693.50  4.1648E-003  
  694.00  4.1401E-003  
  694.50  4.0794E-003  
  695.00  3.8800E-003  
  695.50  3.7269E-003  
  696.00  3.5359E-003  
  696.50  3.4421E-003  
  697.00  3.3705E-003  
  697.50  3.3752E-003  
  698.00  3.3786E-003  
  698.50  3.3687E-003  
  699.00  3.3268E-003  
  699.50  3.3742E-003  
  700.00  3.3829E-003  
  700.50  3.3695E-003  
  701.00  3.2514E-003  
  701.50  3.1563E-003  
  702.00  3.0593E-003  
  702.50  3.0088E-003  
  703.00  2.9816E-003  
  703.50  2.9743E-003  
  704.00  2.9280E-003  
  704.50  2.8497E-003  
  705.00  2.7448E-003  
  705.50  2.6762E-003  
  706.00  2.5895E-003  
  706.50  2.5478E-003  
  707.00  2.5103E-003  
  707.50  2.5007E-003  
  708.00  2.5076E-003  
  708.50  2.5126E-003  
  709.00  2.4624E-003  
  709.50  2.3700E-003  
  710.00  2.3063E-003  
  710.50  2.3176E-003  
  711.00  2.3129E-003  
  711.50  2.2700E-003  
  712.00  2.1367E-003  
  712.50  2.0783E-003  
  713.00  2.0164E-003  
  713.50  1.9933E-003  
  714.00  1.9502E-003  
  714.50  1.8991E-003  
  715.00  1.8967E-003  
  715.50  1.8583E-003  
  716.00  1.9030E-003  
  716.50  1.9589E-003  
  717.00  1.9807E-003  
  717.50  1.9578E-003  
  718.00  1.9335E-003  
  718.50  1.9741E-003  
  719.00  1.9214E-003  
  719.50  1.8197E-003  
  720.00  1.7829E-003  
  720.50  1.7248E-003  
  721.00  1.6423E-003  
  721.50  1.4466E-003  
  722.00  1.4347E-003  
  722.50  1.5002E-003  
  723.00  1.5934E-003  
  723.50  1.4906E-003  
  724.00  1.4356E-003  
  724.50  1.4138E-003  
  725.00  1.4086E-003  
  725.50  1.3750E-003  
  726.00  1.3141E-003  
  726.50  1.2853E-003  
  727.00  1.2652E-003  
  727.50  1.3504E-003  
  728.00  1.3695E-003  
  728.50  1.3526E-003  
  729.00  1.2599E-003  
  729.50  1.1864E-003  
  730.00  1.0500E-003  
  730.50  1.0256E-003  
  731.00  1.0342E-003  
  731.50  1.0699E-003  
  732.00  1.0838E-003  
  732.50  1.1058E-003  
  733.00  1.0834E-003  
  733.50  1.0124E-003  
  734.00  9.7374E-004  
  734.50  9.7535E-004  
  735.00  1.0981E-003  
  735.50  1.1500E-003  
  736.00  1.0608E-003  
  736.50  8.7886E-004  
  737.00  7.5701E-004  
  737.50  7.9424E-004  
  738.00  8.6733E-004  
  738.50  8.5637E-004  
  739.00  7.9536E-004  
  739.50  8.7021E-004  
  740.00  9.0933E-004  
  740.50  9.3987E-004  
  741.00  8.7004E-004  
  741.50  8.3868E-004  
  742.00  7.0735E-004  
  742.50  6.6153E-004  
  743.00  7.5095E-004  
  743.50  7.8672E-004  
  744.00  7.6398E-004  
  744.50  7.1527E-004  
  745.00  7.4149E-004  
  745.50  8.0378E-004  
  746.00  8.9986E-004  
  746.50  8.7234E-004  
  747.00  8.8184E-004  
  747.50  8.3560E-004  
  748.00  7.3467E-004  
  748.50  5.3657E-004  
  749.00  5.4571E-004  
  749.50  6.3450E-004  
  750.00  6.7264E-004  
  750.50  4.2584E-004  
  751.00  1.4013E-004  
  751.50  1.7800E-004  
  752.00  5.7674E-004  
  752.50  6.9037E-004  
  753.00  6.8389E-004  
  753.50  6.6941E-004  
  754.00  7.1333E-004  
  754.50  7.1533E-004  
  755.00  6.9848E-004  
  755.50  6.6597E-004  
  756.00  5.0612E-004  
  756.50  4.2616E-004  
  757.00  4.0740E-004  
  757.50  4.2174E-004  
  758.00  4.3200E-004  
  758.50  5.0645E-004  
  759.00  6.0188E-004  
  759.50  5.9741E-004  
  760.00  5.6239E-004  
  760.50  3.9526E-004  
  761.00  3.5815E-004  
  761.50  4.0633E-004  
  762.00  4.6454E-004  
  762.50  3.1228E-004  
  763.00  1.7986E-004  
  763.50  1.6323E-004  
  764.00  1.4521E-004  
  764.50  9.7897E-005  
  765.00  2.0197E-004  
  765.50  3.6103E-004  
  766.00  3.5542E-004  
  766.50  3.7779E-004  
  767.00  4.1545E-004  
  767.50  3.6284E-004  
  768.00  3.1490E-004  
  768.50  3.1970E-004  
  769.00  3.7108E-004  
  769.50  3.8116E-004  
  770.00  3.8007E-004  
  770.50  4.0083E-004  
  771.00  3.1581E-004  
  771.50  3.0990E-004  
  772.00  3.3193E-004  
  772.50  3.2408E-004  
  773.00  3.1608E-004  
  773.50  4.4966E-004  
  774.00  4.4925E-004  
  774.50  3.2625E-004  
  775.00  2.4326E-004  
  775.50  1.7468E-004  
  776.00  1.3793E-004  
  776.50  1.2633E-004  
  777.00  1.5167E-004  
  777.50  6.4275E-005  
  778.00  1.2876E-004  
  778.50  1.7908E-004  
  779.00  3.4112E-004  
  779.50  4.2319E-004  
  780.00  4.5601E-004  
  780.50  3.5187E-004  
  781.00  2.1101E-004  
  781.50  1.9480E-006  
  782.00  0.0000E+000  
  782.50  5.0376E-005  
  783.00  3.0115E-004  
  783.50  3.8866E-004  
  784.00  3.0267E-004  
  784.50  2.3682E-004  
  785.00  1.6129E-004  
  785.50  1.3289E-004  
  786.00  2.2207E-004  
  786.50  2.7226E-004  
  787.00  2.2159E-004  
  787.50  1.9104E-004  
  788.00  3.0244E-004  
  788.50  2.3354E-004  
  789.00  5.0478E-005  
  789.50  0.0000E+000  
  790.00  8.9201E-005  
  790.50  2.3096E-004  
  791.00  1.6758E-004  
  791.50  2.4181E-004  
  792.00  2.9236E-004  
  792.50  2.8202E-004  
  793.00  2.6526E-004  
  793.50  2.2315E-004  
  794.00  2.0300E-004  
  794.50  2.6312E-004  
  795.00  2.9423E-004  
  795.50  9.9594E-005  
  796.00  0.0000E+000  
  796.50  0.0000E+000  
  797.00  0.0000E+000  
  797.50  0.0000E+000  
  798.00  4.8362E-005  
  798.50  1.8383E-004  
  799.00  3.4898E-005  
  799.50  0.0000E+000  
  800.00  0.0000E+000  
  800.50  0.0000E+000  
  801.00  1.9646E-005  
  801.50  6.9843E-005  
  802.00  3.9219E-005  
  802.50  0.0000E+000  
  803.00  0.0000E+000  
  803.50  0.0000E+000  
  804.00  0.0000E+000  
  804.50  0.0000E+000  
  805.00  0.0000E+000  
  805.50  0.0000E+000  
  806.00  0.0000E+000  
  806.50  0.0000E+000  
  807.00  0.0000E+000  
  807.50  0.0000E+000  
  808.00  0.0000E+000  
  808.50  0.0000E+000  
  809.00  0.0000E+000  
  809.50  2.6693E-005  
  810.00  1.3714E-004  
  810.50  6.9893E-005  
  811.00  0.0000E+000  
  811.50  0.0000E+000  
  812.00  0.0000E+000  
  812.50  0.0000E+000  
  813.00  0.0000E+000  
  813.50  0.0000E+000  
  814.00  0.0000E+000  
  814.50  9.1365E-005  
  815.00  2.5792E-004  
  815.50  4.1173E-004  
  816.00  3.4083E-004  
  816.50  5.3673E-005  
  817.00  0.0000E+000  
  817.50  0.0000E+000  
  818.00  0.0000E+000  
  818.50  0.0000E+000  
  819.00  0.0000E+000  
  819.50  0.0000E+000  
  820.00  0.0000E+000  
  820.50  0.0000E+000  
  821.00  0.0000E+000  
  821.50  0.0000E+000  
  822.00  0.0000E+000  
  822.50  0.0000E+000  
  823.00  0.0000E+000  
  823.50  4.4787E-005  
  824.00  7.4005E-006  
  824.50  0.0000E+000  
  825.00  0.0000E+000  
  825.50  0.0000E+000  
  826.00  5.5456E-005  
  826.50  2.2961E-004  
  827.00  2.2033E-004  
  827.50  4.5716E-005  
  828.00  0.0000E+000  
  828.50  0.0000E+000  
  829.00  0.0000E+000  
  829.50  0.0000E+000  
  830.00  0.0000E+000  
  830.50  0.0000E+000  
  831.00  0.0000E+000  
  831.50  0.0000E+000  
  832.00  0.0000E+000  
  832.50  0.0000E+000  
  833.00  0.0000E+000  
  833.50  0.0000E+000  
  834.00  0.0000E+000  
  834.50  0.0000E+000  
  835.00  0.0000E+000  
  835.50  0.0000E+000  
  836.00  0.0000E+000  
  836.50  0.0000E+000  
  837.00  0.0000E+000  
  837.50  2.9858E-006  
  838.00  8.6534E-005  
  838.50  2.8925E-004  
  839.00  5.7540E-004  
  839.50  4.6286E-004  
  840.00  1.1694E-004  
  840.50  0.0000E+000  
  841.00  0.0000E+000  
  841.50  0.0000E+000  
  842.00  0.0000E+000  
  842.50  0.0000E+000  
  843.00  0.0000E+000  
  843.50  0.0000E+000  
  844.00  6.1312E-005  
  844.50  1.7824E-004  
  845.00  6.6821E-005  
  845.50  1.0997E-005  
  846.00  0.0000E+000  
  846.50  0.0000E+000  
  847.00  0.0000E+000  
  847.50  0.0000E+000  
  848.00  0.0000E+000  
  848.50  0.0000E+000  
  849.00  0.0000E+000  
  849.50  0.0000E+000  
  850.00  1.7134E-004  
  850.50  0.0000E+000  
  851.00  2.0223E-005  
  851.50  3.7402E-004  
  852.00  4.5844E-005  
  852.50  0.0000E+000  
  853.00  0.0000E+000  
  853.50  0.0000E+000  
  854.00  0.0000E+000  
  854.50  0.0000E+000  
  855.00  0.0000E+000  
  855.50  0.0000E+000  
  856.00  0.0000E+000  
  856.50  0.0000E+000  
  857.00  0.0000E+000  
  857.50  0.0000E+000  
  858.00  0.0000E+000  
  858.50  0.0000E+000  
  859.00  0.0000E+000  
  859.50  0.0000E+000  
  860.00  0.0000E+000  
  860.50  0.0000E+000  
  861.00  0.0000E+000  
  861.50  0.0000E+000  
  862.00  0.0000E+000  
  862.50  0.0000E+000  
  863.00  0.0000E+000  
  863.50  0.0000E+000  
  864.00  0.0000E+000  
  864.50  0.0000E+000  
  865.00  1.0182E-004  
  865.50  2.6835E-005  
  866.00  0.0000E+000  
  866.50  0.0000E+000  
  867.00  0.0000E+000  
  867.50  0.0000E+000  
  868.00  0.0000E+000  
  868.50  0.0000E+000  
  869.00  3.9320E-005  
  869.50  2.6004E-004  
  870.00  1.9295E-004  
  870.50  9.8397E-006  
  871.00  0.0000E+000  
  871.50  0.0000E+000  
  872.00  0.0000E+000  
  872.50  0.0000E+000  
  873.00  5.6054E-004  
  873.50  7.0423E-004  
  874.00  3.1053E-004  
  874.50  0.0000E+000  
  875.00  0.0000E+000  
  875.50  0.0000E+000  
  876.00  0.0000E+000  
  876.50  0.0000E+000  
  877.00  0.0000E+000  
  877.50  0.0000E+000  
  878.00  0.0000E+000  
  878.50  2.8103E-004  
  879.00  9.4211E-004  
  879.50  7.9276E-004  
  880.00  0.0000E+000  
  880.50  0.0000E+000  
  881.00  0.0000E+000  
  881.50  0.0000E+000  
  882.00  7.8969E-005  
  882.50  8.6149E-005  
  883.00  0.0000E+000  
  883.50  0.0000E+000  
  884.00  0.0000E+000  
  884.50  0.0000E+000  
  885.00  0.0000E+000  
  885.50  0.0000E+000  
  886.00  0.0000E+000  
  886.50  0.0000E+000  
  887.00  0.0000E+000  
  887.50  0.0000E+000  
  888.00  0.0000E+000  
  888.50  0.0000E+000  
  889.00  0.0000E+000  
  889.50  0.0000E+000  
  890.00  0.0000E+000  
  890.50  0.0000E+000  
  891.00  0.0000E+000  
  891.50  0.0000E+000  
  892.00  8.7619E-008  
  892.50  0.0000E+000  
  893.00  0.0000E+000  
  893.50  0.0000E+000  
  894.00  2.9250E-005  
  894.50  9.8638E-004  
  895.00  1.4149E-003  
  895.50  4.0315E-004  
  896.00  0.0000E+000  
  896.50  0.0000E+000  
  897.00  0.0000E+000  
  897.50  0.0000E+000  
  898.00  0.0000E+000  
  898.50  0.0000E+000  
  899.00  0.0000E+000  
  899.50  4.0507E-006  
