
# From lspdd.org
# 
# Name: INC GE A19 Domestique
# Indice spectral Valeur 
# MSI 0.27 
# SLI 0.48 
# IPI 0.97 
# Pourcentage de bleu 11.1 
# Caractéristique Valeur 
# CCT calculée (K) 2512 
# CCT du fabricant (K) 2512 
# Tension (V) 120 
# Puissance (W) 25.0 
# Efficacité lumineuse (Lum/W) 8.4 
#
# Image: '/app/system/img_1s/2548/medium_image1.jpg?1413486248'
# 

  273.00  0.0000E+000  
  273.50  0.0000E+000  
  274.00  0.0000E+000  
  274.50  0.0000E+000  
  275.00  0.0000E+000  
  275.50  0.0000E+000  
  276.00  0.0000E+000  
  276.50  0.0000E+000  
  277.00  0.0000E+000  
  277.50  0.0000E+000  
  278.00  0.0000E+000  
  278.50  0.0000E+000  
  279.00  0.0000E+000  
  279.50  0.0000E+000  
  280.00  0.0000E+000  
  280.50  0.0000E+000  
  281.00  0.0000E+000  
  281.50  0.0000E+000  
  282.00  0.0000E+000  
  282.50  0.0000E+000  
  283.00  0.0000E+000  
  283.50  0.0000E+000  
  284.00  0.0000E+000  
  284.50  0.0000E+000  
  285.00  0.0000E+000  
  285.50  0.0000E+000  
  286.00  0.0000E+000  
  286.50  0.0000E+000  
  287.00  0.0000E+000  
  287.50  0.0000E+000  
  288.00  0.0000E+000  
  288.50  0.0000E+000  
  289.00  0.0000E+000  
  289.50  0.0000E+000  
  290.00  0.0000E+000  
  290.50  0.0000E+000  
  291.00  0.0000E+000  
  291.50  0.0000E+000  
  292.00  0.0000E+000  
  292.50  0.0000E+000  
  293.00  0.0000E+000  
  293.50  0.0000E+000  
  294.00  0.0000E+000  
  294.50  0.0000E+000  
  295.00  0.0000E+000  
  295.50  0.0000E+000  
  296.00  0.0000E+000  
  296.50  0.0000E+000  
  297.00  0.0000E+000  
  297.50  0.0000E+000  
  298.00  0.0000E+000  
  298.50  0.0000E+000  
  299.00  0.0000E+000  
  299.50  0.0000E+000  
  300.00  6.0757E-005  
  300.50  1.6745E-004  
  301.00  1.5190E-004  
  301.50  9.5578E-005  
  302.00  4.5298E-005  
  302.50  3.0519E-005  
  303.00  1.8951E-005  
  303.50  8.3540E-005  
  304.00  1.1812E-004  
  304.50  6.8845E-005  
  305.00  1.5823E-005  
  305.50  0.0000E+000  
  306.00  0.0000E+000  
  306.50  0.0000E+000  
  307.00  0.0000E+000  
  307.50  0.0000E+000  
  308.00  2.5286E-005  
  308.50  5.4673E-005  
  309.00  6.4862E-005  
  309.50  7.0385E-005  
  310.00  5.5359E-005  
  310.50  2.0212E-005  
  311.00  0.0000E+000  
  311.50  0.0000E+000  
  312.00  0.0000E+000  
  312.50  0.0000E+000  
  313.00  0.0000E+000  
  313.50  4.8448E-007  
  314.00  2.4488E-005  
  314.50  1.8033E-005  
  315.00  9.6990E-007  
  315.50  0.0000E+000  
  316.00  0.0000E+000  
  316.50  0.0000E+000  
  317.00  0.0000E+000  
  317.50  6.0427E-007  
  318.00  6.0532E-006  
  318.50  1.8886E-006  
  319.00  0.0000E+000  
  319.50  0.0000E+000  
  320.00  2.2074E-005  
  320.50  7.2277E-005  
  321.00  3.8423E-005  
  321.50  2.7346E-005  
  322.00  7.7688E-007  
  322.50  1.6091E-006  
  323.00  2.9994E-005  
  323.50  3.4844E-005  
  324.00  8.0013E-005  
  324.50  1.3420E-004  
  325.00  1.1628E-004  
  325.50  1.2386E-004  
  326.00  8.3405E-005  
  326.50  5.0350E-005  
  327.00  7.5965E-005  
  327.50  6.6302E-005  
  328.00  7.6969E-005  
  328.50  1.1497E-004  
  329.00  1.4573E-004  
  329.50  1.7525E-004  
  330.00  1.4347E-004  
  330.50  1.0789E-004  
  331.00  9.1946E-005  
  331.50  7.4704E-005  
  332.00  8.2586E-005  
  332.50  6.9280E-005  
  333.00  5.5791E-005  
  333.50  7.5306E-005  
  334.00  9.1765E-005  
  334.50  1.0462E-004  
  335.00  1.0111E-004  
  335.50  1.1401E-004  
  336.00  1.2559E-004  
  336.50  7.9107E-005  
  337.00  7.6203E-005  
  337.50  9.1828E-005  
  338.00  1.4082E-004  
  338.50  1.6429E-004  
  339.00  1.8278E-004  
  339.50  1.9569E-004  
  340.00  2.0864E-004  
  340.50  2.1854E-004  
  341.00  1.8799E-004  
  341.50  1.0538E-004  
  342.00  6.5635E-005  
  342.50  7.8213E-005  
  343.00  9.6672E-005  
  343.50  1.2999E-004  
  344.00  1.1650E-004  
  344.50  1.2566E-004  
  345.00  1.1531E-004  
  345.50  9.7856E-005  
  346.00  1.1944E-004  
  346.50  1.1819E-004  
  347.00  1.9340E-004  
  347.50  2.4588E-004  
  348.00  2.6980E-004  
  348.50  2.5690E-004  
  349.00  2.4858E-004  
  349.50  2.4775E-004  
  350.00  2.2703E-004  
  350.50  1.8380E-004  
  351.00  1.4063E-004  
  351.50  1.3644E-004  
  352.00  1.3929E-004  
  352.50  1.5202E-004  
  353.00  2.0160E-004  
  353.50  2.3884E-004  
  354.00  2.4932E-004  
  354.50  2.2854E-004  
  355.00  1.4502E-004  
  355.50  9.3680E-005  
  356.00  1.1171E-004  
  356.50  1.2239E-004  
  357.00  1.7176E-004  
  357.50  2.3021E-004  
  358.00  2.6959E-004  
  358.50  3.5391E-004  
  359.00  3.9283E-004  
  359.50  3.9569E-004  
  360.00  3.9123E-004  
  360.50  3.2485E-004  
  361.00  2.5542E-004  
  361.50  2.1963E-004  
  362.00  2.0595E-004  
  362.50  2.4230E-004  
  363.00  3.2940E-004  
  363.50  3.6950E-004  
  364.00  4.2219E-004  
  364.50  4.2126E-004  
  365.00  3.8277E-004  
  365.50  3.6998E-004  
  366.00  3.0441E-004  
  366.50  2.6516E-004  
  367.00  2.7416E-004  
  367.50  3.1441E-004  
  368.00  4.0532E-004  
  368.50  4.8266E-004  
  369.00  4.9902E-004  
  369.50  4.6288E-004  
  370.00  4.2304E-004  
  370.50  4.5602E-004  
  371.00  4.9689E-004  
  371.50  4.9952E-004  
  372.00  4.8359E-004  
  372.50  3.9371E-004  
  373.00  3.7372E-004  
  373.50  3.8592E-004  
  374.00  4.0825E-004  
  374.50  4.5479E-004  
  375.00  4.9293E-004  
  375.50  4.8225E-004  
  376.00  4.6514E-004  
  376.50  4.4410E-004  
  377.00  4.6285E-004  
  377.50  4.4156E-004  
  378.00  4.4150E-004  
  378.50  4.0325E-004  
  379.00  4.0728E-004  
  379.50  4.5631E-004  
  380.00  5.1785E-004  
  380.50  5.4549E-004  
  381.00  5.5677E-004  
  381.50  5.6762E-004  
  382.00  5.5419E-004  
  382.50  6.0738E-004  
  383.00  6.2333E-004  
  383.50  6.3476E-004  
  384.00  6.3690E-004  
  384.50  5.8817E-004  
  385.00  5.7589E-004  
  385.50  5.4987E-004  
  386.00  6.0471E-004  
  386.50  6.5875E-004  
  387.00  7.0519E-004  
  387.50  7.1840E-004  
  388.00  6.5526E-004  
  388.50  6.5439E-004  
  389.00  6.6347E-004  
  389.50  6.3918E-004  
  390.00  6.6367E-004  
  390.50  7.0149E-004  
  391.00  7.6897E-004  
  391.50  8.1763E-004  
  392.00  8.4490E-004  
  392.50  8.2088E-004  
  393.00  8.4596E-004  
  393.50  8.9681E-004  
  394.00  8.5435E-004  
  394.50  8.0160E-004  
  395.00  7.4231E-004  
  395.50  7.1731E-004  
  396.00  7.4253E-004  
  396.50  7.6138E-004  
  397.00  7.2210E-004  
  397.50  6.7662E-004  
  398.00  6.5997E-004  
  398.50  6.7999E-004  
  399.00  7.6044E-004  
  399.50  8.4193E-004  
  400.00  8.6218E-004  
  400.50  8.5820E-004  
  401.00  8.4533E-004  
  401.50  8.5680E-004  
  402.00  8.6346E-004  
  402.50  8.7758E-004  
  403.00  8.5602E-004  
  403.50  8.7768E-004  
  404.00  9.0762E-004  
  404.50  9.3910E-004  
  405.00  9.7419E-004  
  405.50  1.0068E-003  
  406.00  1.0258E-003  
  406.50  1.0189E-003  
  407.00  1.0016E-003  
  407.50  9.9701E-004  
  408.00  1.0242E-003  
  408.50  1.0691E-003  
  409.00  1.0743E-003  
  409.50  1.0515E-003  
  410.00  1.0262E-003  
  410.50  1.0417E-003  
  411.00  1.0871E-003  
  411.50  1.1239E-003  
  412.00  1.1542E-003  
  412.50  1.1335E-003  
  413.00  1.1246E-003  
  413.50  1.1139E-003  
  414.00  1.1469E-003  
  414.50  1.1793E-003  
  415.00  1.2417E-003  
  415.50  1.2552E-003  
  416.00  1.2381E-003  
  416.50  1.2535E-003  
  417.00  1.2565E-003  
  417.50  1.2897E-003  
  418.00  1.2565E-003  
  418.50  1.2603E-003  
  419.00  1.2430E-003  
  419.50  1.2600E-003  
  420.00  1.3358E-003  
  420.50  1.3254E-003  
  421.00  1.3186E-003  
  421.50  1.3238E-003  
  422.00  1.3500E-003  
  422.50  1.4301E-003  
  423.00  1.4835E-003  
  423.50  1.4827E-003  
  424.00  1.4811E-003  
  424.50  1.4841E-003  
  425.00  1.5028E-003  
  425.50  1.5161E-003  
  426.00  1.5356E-003  
  426.50  1.5136E-003  
  427.00  1.5199E-003  
  427.50  1.5389E-003  
  428.00  1.5803E-003  
  428.50  1.5548E-003  
  429.00  1.5550E-003  
  429.50  1.5488E-003  
  430.00  1.5882E-003  
  430.50  1.6376E-003  
  431.00  1.6579E-003  
  431.50  1.6719E-003  
  432.00  1.6789E-003  
  432.50  1.6687E-003  
  433.00  1.6558E-003  
  433.50  1.6558E-003  
  434.00  1.6766E-003  
  434.50  1.6967E-003  
  435.00  1.6917E-003  
  435.50  1.7073E-003  
  436.00  1.7462E-003  
  436.50  1.8551E-003  
  437.00  1.9393E-003  
  437.50  1.9670E-003  
  438.00  1.9281E-003  
  438.50  1.8664E-003  
  439.00  1.8599E-003  
  439.50  1.9413E-003  
  440.00  2.0409E-003  
  440.50  2.0778E-003  
  441.00  2.0653E-003  
  441.50  2.0162E-003  
  442.00  1.9828E-003  
  442.50  1.9753E-003  
  443.00  1.9832E-003  
  443.50  2.0224E-003  
  444.00  2.0794E-003  
  444.50  2.1519E-003  
  445.00  2.2179E-003  
  445.50  2.2211E-003  
  446.00  2.1739E-003  
  446.50  2.1860E-003  
  447.00  2.2073E-003  
  447.50  2.2476E-003  
  448.00  2.2480E-003  
  448.50  2.2312E-003  
  449.00  2.2374E-003  
  449.50  2.2978E-003  
  450.00  2.2794E-003  
  450.50  2.2508E-003  
  451.00  2.2357E-003  
  451.50  2.2414E-003  
  452.00  2.3083E-003  
  452.50  2.3608E-003  
  453.00  2.3827E-003  
  453.50  2.4618E-003  
  454.00  2.4981E-003  
  454.50  2.4756E-003  
  455.00  2.4567E-003  
  455.50  2.4136E-003  
  456.00  2.4363E-003  
  456.50  2.4980E-003  
  457.00  2.5609E-003  
  457.50  2.6012E-003  
  458.00  2.6111E-003  
  458.50  2.6175E-003  
  459.00  2.5699E-003  
  459.50  2.5147E-003  
  460.00  2.5297E-003  
  460.50  2.5686E-003  
  461.00  2.6356E-003  
  461.50  2.7056E-003  
  462.00  2.7088E-003  
  462.50  2.7423E-003  
  463.00  2.7855E-003  
  463.50  2.8597E-003  
  464.00  2.9002E-003  
  464.50  2.9488E-003  
  465.00  2.9347E-003  
  465.50  2.9496E-003  
  466.00  2.9679E-003  
  466.50  2.9529E-003  
  467.00  2.9315E-003  
  467.50  2.9248E-003  
  468.00  2.9166E-003  
  468.50  2.9109E-003  
  469.00  2.9036E-003  
  469.50  2.9158E-003  
  470.00  3.0014E-003  
  470.50  3.1044E-003  
  471.00  3.1748E-003  
  471.50  3.1881E-003  
  472.00  3.1490E-003  
  472.50  3.1577E-003  
  473.00  3.2025E-003  
  473.50  3.3018E-003  
  474.00  3.4085E-003  
  474.50  3.4404E-003  
  475.00  3.4304E-003  
  475.50  3.3971E-003  
  476.00  3.3561E-003  
  476.50  3.3975E-003  
  477.00  3.4242E-003  
  477.50  3.5023E-003  
  478.00  3.5395E-003  
  478.50  3.6008E-003  
  479.00  3.6021E-003  
  479.50  3.6596E-003  
  480.00  3.7228E-003  
  480.50  3.7721E-003  
  481.00  3.8137E-003  
  481.50  3.7614E-003  
  482.00  3.7232E-003  
  482.50  3.7064E-003  
  483.00  3.7131E-003  
  483.50  3.7649E-003  
  484.00  3.8214E-003  
  484.50  3.8587E-003  
  485.00  3.8757E-003  
  485.50  3.9169E-003  
  486.00  3.9442E-003  
  486.50  3.9833E-003  
  487.00  4.0019E-003  
  487.50  4.0151E-003  
  488.00  4.0504E-003  
  488.50  4.0751E-003  
  489.00  4.0869E-003  
  489.50  4.0927E-003  
  490.00  4.1171E-003  
  490.50  4.1494E-003  
  491.00  4.1919E-003  
  491.50  4.2188E-003  
  492.00  4.2557E-003  
  492.50  4.2678E-003  
  493.00  4.2781E-003  
  493.50  4.3008E-003  
  494.00  4.3371E-003  
  494.50  4.4048E-003  
  495.00  4.4715E-003  
  495.50  4.5312E-003  
  496.00  4.5730E-003  
  496.50  4.5837E-003  
  497.00  4.5915E-003  
  497.50  4.5937E-003  
  498.00  4.6154E-003  
  498.50  4.6281E-003  
  499.00  4.6472E-003  
  499.50  4.6798E-003  
  500.00  4.7250E-003  
  500.50  4.7861E-003  
  501.00  4.8328E-003  
  501.50  4.8588E-003  
  502.00  4.8682E-003  
  502.50  4.8673E-003  
  503.00  4.9228E-003  
  503.50  4.9874E-003  
  504.00  5.0703E-003  
  504.50  5.1213E-003  
  505.00  5.1462E-003  
  505.50  5.1880E-003  
  506.00  5.2177E-003  
  506.50  5.2496E-003  
  507.00  5.2848E-003  
  507.50  5.3195E-003  
  508.00  5.3711E-003  
  508.50  5.4359E-003  
  509.00  5.4824E-003  
  509.50  5.5217E-003  
  510.00  5.5394E-003  
  510.50  5.5491E-003  
  511.00  5.6104E-003  
  511.50  5.6738E-003  
  512.00  5.7114E-003  
  512.50  5.7375E-003  
  513.00  5.7657E-003  
  513.50  5.8333E-003  
  514.00  5.9219E-003  
  514.50  5.9726E-003  
  515.00  5.9927E-003  
  515.50  6.0128E-003  
  516.00  6.0612E-003  
  516.50  6.1609E-003  
  517.00  6.2515E-003  
  517.50  6.3077E-003  
  518.00  6.3335E-003  
  518.50  6.3771E-003  
  519.00  6.4590E-003  
  519.50  6.5425E-003  
  520.00  6.5815E-003  
  520.50  6.5724E-003  
  521.00  6.5765E-003  
  521.50  6.5860E-003  
  522.00  6.6647E-003  
  522.50  6.7478E-003  
  523.00  6.8373E-003  
  523.50  6.8921E-003  
  524.00  6.9088E-003  
  524.50  6.9403E-003  
  525.00  6.9722E-003  
  525.50  7.0389E-003  
  526.00  7.1262E-003  
  526.50  7.2465E-003  
  527.00  7.3400E-003  
  527.50  7.3562E-003  
  528.00  7.3424E-003  
  528.50  7.3619E-003  
  529.00  7.4494E-003  
  529.50  7.5372E-003  
  530.00  7.5598E-003  
  530.50  7.5858E-003  
  531.00  7.6012E-003  
  531.50  7.6779E-003  
  532.00  7.7759E-003  
  532.50  7.8539E-003  
  533.00  7.9316E-003  
  533.50  7.9856E-003  
  534.00  8.0585E-003  
  534.50  8.1110E-003  
  535.00  8.1714E-003  
  535.50  8.1702E-003  
  536.00  8.1914E-003  
  536.50  8.2261E-003  
  537.00  8.2923E-003  
  537.50  8.3681E-003  
  538.00  8.4353E-003  
  538.50  8.4849E-003  
  539.00  8.5129E-003  
  539.50  8.5688E-003  
  540.00  8.6217E-003  
  540.50  8.6846E-003  
  541.00  8.7287E-003  
  541.50  8.7201E-003  
  542.00  8.7578E-003  
  542.50  8.7990E-003  
  543.00  8.8742E-003  
  543.50  8.9580E-003  
  544.00  9.0110E-003  
  544.50  9.0939E-003  
  545.00  9.1385E-003  
  545.50  9.2112E-003  
  546.00  9.2755E-003  
  546.50  9.3598E-003  
  547.00  9.4423E-003  
  547.50  9.5012E-003  
  548.00  9.5429E-003  
  548.50  9.5744E-003  
  549.00  9.6384E-003  
  549.50  9.7237E-003  
  550.00  9.8063E-003  
  550.50  9.9051E-003  
  551.00  9.9543E-003  
  551.50  9.9860E-003  
  552.00  9.9748E-003  
  552.50  9.9952E-003  
  553.00  1.0065E-002  
  553.50  1.0169E-002  
  554.00  1.0257E-002  
  554.50  1.0308E-002  
  555.00  1.0310E-002  
  555.50  1.0350E-002  
  556.00  1.0404E-002  
  556.50  1.0513E-002  
  557.00  1.0612E-002  
  557.50  1.0687E-002  
  558.00  1.0740E-002  
  558.50  1.0761E-002  
  559.00  1.0822E-002  
  559.50  1.0880E-002  
  560.00  1.0960E-002  
  560.50  1.1011E-002  
  561.00  1.1043E-002  
  561.50  1.1126E-002  
  562.00  1.1174E-002  
  562.50  1.1204E-002  
  563.00  1.1212E-002  
  563.50  1.1254E-002  
  564.00  1.1321E-002  
  564.50  1.1384E-002  
  565.00  1.1442E-002  
  565.50  1.1468E-002  
  566.00  1.1508E-002  
  566.50  1.1553E-002  
  567.00  1.1622E-002  
  567.50  1.1684E-002  
  568.00  1.1728E-002  
  568.50  1.1810E-002  
  569.00  1.1893E-002  
  569.50  1.1964E-002  
  570.00  1.1990E-002  
  570.50  1.2004E-002  
  571.00  1.2036E-002  
  571.50  1.2116E-002  
  572.00  1.2228E-002  
  572.50  1.2298E-002  
  573.00  1.2312E-002  
  573.50  1.2262E-002  
  574.00  1.2282E-002  
  574.50  1.2342E-002  
  575.00  1.2457E-002  
  575.50  1.2554E-002  
  576.00  1.2627E-002  
  576.50  1.2657E-002  
  577.00  1.2671E-002  
  577.50  1.2706E-002  
  578.00  1.2770E-002  
  578.50  1.2832E-002  
  579.00  1.2896E-002  
  579.50  1.2964E-002  
  580.00  1.3060E-002  
  580.50  1.3140E-002  
  581.00  1.3173E-002  
  581.50  1.3202E-002  
  582.00  1.3226E-002  
  582.50  1.3280E-002  
  583.00  1.3274E-002  
  583.50  1.3286E-002  
  584.00  1.3336E-002  
  584.50  1.3432E-002  
  585.00  1.3544E-002  
  585.50  1.3639E-002  
  586.00  1.3719E-002  
  586.50  1.3780E-002  
  587.00  1.3795E-002  
  587.50  1.3815E-002  
  588.00  1.3860E-002  
  588.50  1.3913E-002  
  589.00  1.4029E-002  
  589.50  1.4051E-002  
  590.00  1.4156E-002  
  590.50  1.4193E-002  
  591.00  1.4279E-002  
  591.50  1.4325E-002  
  592.00  1.4321E-002  
  592.50  1.4284E-002  
  593.00  1.4305E-002  
  593.50  1.4332E-002  
  594.00  1.4424E-002  
  594.50  1.4455E-002  
  595.00  1.4542E-002  
  595.50  1.4616E-002  
  596.00  1.4688E-002  
  596.50  1.4702E-002  
  597.00  1.4699E-002  
  597.50  1.4698E-002  
  598.00  1.4798E-002  
  598.50  1.4886E-002  
  599.00  1.5007E-002  
  599.50  1.5063E-002  
  600.00  1.5095E-002  
  600.50  1.5113E-002  
  601.00  1.5087E-002  
  601.50  1.5108E-002  
  602.00  1.5137E-002  
  602.50  1.5214E-002  
  603.00  1.5265E-002  
  603.50  1.5227E-002  
  604.00  1.5223E-002  
  604.50  1.5262E-002  
  605.00  1.5393E-002  
  605.50  1.5506E-002  
  606.00  1.5553E-002  
  606.50  1.5591E-002  
  607.00  1.5649E-002  
  607.50  1.5704E-002  
  608.00  1.5739E-002  
  608.50  1.5750E-002  
  609.00  1.5788E-002  
  609.50  1.5845E-002  
  610.00  1.5865E-002  
  610.50  1.5858E-002  
  611.00  1.5917E-002  
  611.50  1.6015E-002  
  612.00  1.6068E-002  
  612.50  1.6063E-002  
  613.00  1.6075E-002  
  613.50  1.6110E-002  
  614.00  1.6097E-002  
  614.50  1.6077E-002  
  615.00  1.6078E-002  
  615.50  1.6179E-002  
  616.00  1.6299E-002  
  616.50  1.6407E-002  
  617.00  1.6471E-002  
  617.50  1.6481E-002  
  618.00  1.6496E-002  
  618.50  1.6539E-002  
  619.00  1.6587E-002  
  619.50  1.6617E-002  
  620.00  1.6612E-002  
  620.50  1.6626E-002  
  621.00  1.6651E-002  
  621.50  1.6695E-002  
  622.00  1.6785E-002  
  622.50  1.6873E-002  
  623.00  1.6910E-002  
  623.50  1.6906E-002  
  624.00  1.6934E-002  
  624.50  1.6964E-002  
  625.00  1.7020E-002  
  625.50  1.7072E-002  
  626.00  1.7147E-002  
  626.50  1.7236E-002  
  627.00  1.7283E-002  
  627.50  1.7302E-002  
  628.00  1.7276E-002  
  628.50  1.7259E-002  
  629.00  1.7307E-002  
  629.50  1.7378E-002  
  630.00  1.7414E-002  
  630.50  1.7493E-002  
  631.00  1.7586E-002  
  631.50  1.7681E-002  
  632.00  1.7675E-002  
  632.50  1.7628E-002  
  633.00  1.7595E-002  
  633.50  1.7610E-002  
  634.00  1.7709E-002  
  634.50  1.7862E-002  
  635.00  1.8016E-002  
  635.50  1.8063E-002  
  636.00  1.8000E-002  
  636.50  1.7961E-002  
  637.00  1.8017E-002  
  637.50  1.8100E-002  
  638.00  1.8117E-002  
  638.50  1.8111E-002  
  639.00  1.8198E-002  
  639.50  1.8304E-002  
  640.00  1.8334E-002  
  640.50  1.8258E-002  
  641.00  1.8223E-002  
  641.50  1.8296E-002  
  642.00  1.8457E-002  
  642.50  1.8501E-002  
  643.00  1.8447E-002  
  643.50  1.8369E-002  
  644.00  1.8413E-002  
  644.50  1.8492E-002  
  645.00  1.8583E-002  
  645.50  1.8638E-002  
  646.00  1.8728E-002  
  646.50  1.8717E-002  
  647.00  1.8735E-002  
  647.50  1.8733E-002  
  648.00  1.8869E-002  
  648.50  1.9022E-002  
  649.00  1.9104E-002  
  649.50  1.9089E-002  
  650.00  1.9022E-002  
  650.50  1.8982E-002  
  651.00  1.9015E-002  
  651.50  1.9001E-002  
  652.00  1.9029E-002  
  652.50  1.9093E-002  
  653.00  1.9178E-002  
  653.50  1.9164E-002  
  654.00  1.9121E-002  
  654.50  1.9149E-002  
  655.00  1.9277E-002  
  655.50  1.9288E-002  
  656.00  1.9269E-002  
  656.50  1.9278E-002  
  657.00  1.9346E-002  
  657.50  1.9425E-002  
  658.00  1.9469E-002  
  658.50  1.9527E-002  
  659.00  1.9566E-002  
  659.50  1.9634E-002  
  660.00  1.9665E-002  
  660.50  1.9676E-002  
  661.00  1.9666E-002  
  661.50  1.9631E-002  
  662.00  1.9588E-002  
  662.50  1.9540E-002  
  663.00  1.9659E-002  
  663.50  1.9794E-002  
  664.00  1.9886E-002  
  664.50  1.9837E-002  
  665.00  1.9787E-002  
  665.50  1.9707E-002  
  666.00  1.9722E-002  
  666.50  1.9859E-002  
  667.00  2.0001E-002  
  667.50  2.0029E-002  
  668.00  1.9895E-002  
  668.50  1.9911E-002  
  669.00  2.0027E-002  
  669.50  2.0181E-002  
  670.00  2.0251E-002  
  670.50  2.0244E-002  
  671.00  2.0240E-002  
  671.50  2.0229E-002  
  672.00  2.0272E-002  
  672.50  2.0313E-002  
  673.00  2.0262E-002  
  673.50  2.0173E-002  
  674.00  2.0203E-002  
  674.50  2.0358E-002  
  675.00  2.0419E-002  
  675.50  2.0422E-002  
  676.00  2.0387E-002  
  676.50  2.0406E-002  
  677.00  2.0348E-002  
  677.50  2.0452E-002  
  678.00  2.0575E-002  
  678.50  2.0734E-002  
  679.00  2.0768E-002  
  679.50  2.0688E-002  
  680.00  2.0696E-002  
  680.50  2.0716E-002  
  681.00  2.0868E-002  
  681.50  2.0953E-002  
  682.00  2.0988E-002  
  682.50  2.1006E-002  
  683.00  2.0978E-002  
  683.50  2.1065E-002  
  684.00  2.1138E-002  
  684.50  2.1179E-002  
  685.00  2.1156E-002  
  685.50  2.1113E-002  
  686.00  2.1144E-002  
  686.50  2.1180E-002  
  687.00  2.1234E-002  
  687.50  2.1258E-002  
  688.00  2.1300E-002  
  688.50  2.1273E-002  
  689.00  2.1285E-002  
  689.50  2.1252E-002  
  690.00  2.1361E-002  
  690.50  2.1364E-002  
  691.00  2.1384E-002  
  691.50  2.1434E-002  
  692.00  2.1521E-002  
  692.50  2.1560E-002  
  693.00  2.1633E-002  
  693.50  2.1681E-002  
  694.00  2.1790E-002  
  694.50  2.1786E-002  
  695.00  2.1848E-002  
  695.50  2.1938E-002  
  696.00  2.2021E-002  
  696.50  2.2036E-002  
  697.00  2.1977E-002  
  697.50  2.1897E-002  
  698.00  2.1914E-002  
  698.50  2.1997E-002  
  699.00  2.2092E-002  
  699.50  2.2083E-002  
  700.00  2.2028E-002  
  700.50  2.2009E-002  
  701.00  2.2108E-002  
  701.50  2.2218E-002  
  702.00  2.2277E-002  
  702.50  2.2289E-002  
  703.00  2.2307E-002  
  703.50  2.2372E-002  
  704.00  2.2405E-002  
  704.50  2.2473E-002  
  705.00  2.2481E-002  
  705.50  2.2484E-002  
  706.00  2.2396E-002  
  706.50  2.2427E-002  
  707.00  2.2475E-002  
  707.50  2.2597E-002  
  708.00  2.2592E-002  
  708.50  2.2664E-002  
  709.00  2.2682E-002  
  709.50  2.2719E-002  
  710.00  2.2710E-002  
  710.50  2.2655E-002  
  711.00  2.2677E-002  
  711.50  2.2707E-002  
  712.00  2.2781E-002  
  712.50  2.2813E-002  
  713.00  2.2851E-002  
  713.50  2.2970E-002  
  714.00  2.3009E-002  
  714.50  2.3048E-002  
  715.00  2.2997E-002  
  715.50  2.3121E-002  
  716.00  2.3150E-002  
  716.50  2.3204E-002  
  717.00  2.3269E-002  
  717.50  2.3339E-002  
  718.00  2.3345E-002  
  718.50  2.3358E-002  
  719.00  2.3469E-002  
  719.50  2.3452E-002  
  720.00  2.3361E-002  
  720.50  2.3377E-002  
  721.00  2.3529E-002  
  721.50  2.3567E-002  
  722.00  2.3408E-002  
  722.50  2.3411E-002  
  723.00  2.3518E-002  
  723.50  2.3654E-002  
  724.00  2.3743E-002  
  724.50  2.3800E-002  
  725.00  2.3892E-002  
  725.50  2.3930E-002  
  726.00  2.3902E-002  
  726.50  2.3848E-002  
  727.00  2.3718E-002  
  727.50  2.3615E-002  
  728.00  2.3722E-002  
  728.50  2.4021E-002  
  729.00  2.4332E-002  
  729.50  2.4332E-002  
  730.00  2.4300E-002  
  730.50  2.4180E-002  
  731.00  2.4050E-002  
  731.50  2.3915E-002  
  732.00  2.4005E-002  
  732.50  2.4253E-002  
  733.00  2.4415E-002  
  733.50  2.4413E-002  
  734.00  2.4443E-002  
  734.50  2.4497E-002  
  735.00  2.4595E-002  
  735.50  2.4615E-002  
  736.00  2.4561E-002  
  736.50  2.4506E-002  
  737.00  2.4404E-002  
  737.50  2.4435E-002  
  738.00  2.4550E-002  
  738.50  2.4691E-002  
  739.00  2.4783E-002  
  739.50  2.4759E-002  
  740.00  2.4866E-002  
  740.50  2.4882E-002  
  741.00  2.4972E-002  
  741.50  2.4912E-002  
  742.00  2.4986E-002  
  742.50  2.4941E-002  
  743.00  2.4926E-002  
  743.50  2.4884E-002  
  744.00  2.4947E-002  
  744.50  2.4960E-002  
  745.00  2.5034E-002  
  745.50  2.5052E-002  
  746.00  2.5079E-002  
  746.50  2.5044E-002  
  747.00  2.5150E-002  
  747.50  2.5326E-002  
  748.00  2.5466E-002  
  748.50  2.5430E-002  
  749.00  2.5324E-002  
  749.50  2.5400E-002  
  750.00  2.5697E-002  
  750.50  2.5748E-002  
  751.00  2.5669E-002  
  751.50  2.5337E-002  
  752.00  2.5387E-002  
  752.50  2.5483E-002  
  753.00  2.5856E-002  
  753.50  2.5937E-002  
  754.00  2.6015E-002  
  754.50  2.5932E-002  
  755.00  2.5840E-002  
  755.50  2.5686E-002  
  756.00  2.5600E-002  
  756.50  2.5590E-002  
  757.00  2.5615E-002  
  757.50  2.5787E-002  
  758.00  2.5878E-002  
  758.50  2.5933E-002  
  759.00  2.6055E-002  
  759.50  2.6156E-002  
  760.00  2.6219E-002  
  760.50  2.6220E-002  
  761.00  2.6277E-002  
  761.50  2.6319E-002  
  762.00  2.6186E-002  
  762.50  2.6137E-002  
  763.00  2.6029E-002  
  763.50  2.6051E-002  
  764.00  2.5967E-002  
  764.50  2.6053E-002  
  765.00  2.6322E-002  
  765.50  2.6481E-002  
  766.00  2.6539E-002  
  766.50  2.6486E-002  
  767.00  2.6452E-002  
  767.50  2.6315E-002  
  768.00  2.6301E-002  
  768.50  2.6435E-002  
  769.00  2.6723E-002  
  769.50  2.6774E-002  
  770.00  2.6726E-002  
  770.50  2.6589E-002  
  771.00  2.6615E-002  
  771.50  2.6667E-002  
  772.00  2.6883E-002  
  772.50  2.6792E-002  
  773.00  2.6613E-002  
  773.50  2.6580E-002  
  774.00  2.6832E-002  
  774.50  2.6797E-002  
  775.00  2.6698E-002  
  775.50  2.6684E-002  
  776.00  2.6852E-002  
  776.50  2.6899E-002  
  777.00  2.7034E-002  
  777.50  2.7125E-002  
  778.00  2.7047E-002  
  778.50  2.7063E-002  
  779.00  2.7013E-002  
  779.50  2.6953E-002  
  780.00  2.6926E-002  
  780.50  2.6859E-002  
  781.00  2.7045E-002  
  781.50  2.7113E-002  
  782.00  2.7203E-002  
  782.50  2.6886E-002  
  783.00  2.6869E-002  
  783.50  2.7045E-002  
  784.00  2.7254E-002  
  784.50  2.7396E-002  
  785.00  2.7496E-002  
  785.50  2.7595E-002  
  786.00  2.7659E-002  
  786.50  2.7611E-002  
  787.00  2.7451E-002  
  787.50  2.7227E-002  
  788.00  2.7473E-002  
  788.50  2.7716E-002  
  789.00  2.7737E-002  
  789.50  2.7736E-002  
  790.00  2.7867E-002  
  790.50  2.7981E-002  
  791.00  2.8005E-002  
  791.50  2.7976E-002  
  792.00  2.7919E-002  
  792.50  2.7895E-002  
  793.00  2.8085E-002  
  793.50  2.8229E-002  
  794.00  2.8179E-002  
  794.50  2.8111E-002  
  795.00  2.7957E-002  
  795.50  2.7810E-002  
  796.00  2.7826E-002  
  796.50  2.8519E-002  
  797.00  2.9008E-002  
  797.50  2.8783E-002  
  798.00  2.8378E-002  
  798.50  2.8377E-002  
  799.00  2.8451E-002  
  799.50  2.8654E-002  
  800.00  2.8575E-002  
  800.50  2.8653E-002  
  801.00  2.8520E-002  
  801.50  2.8587E-002  
  802.00  2.8382E-002  
  802.50  2.8559E-002  
  803.00  2.8538E-002  
  803.50  2.8446E-002  
  804.00  2.8434E-002  
  804.50  2.8602E-002  
  805.00  2.8721E-002  
  805.50  2.8636E-002  
  806.00  2.8863E-002  
  806.50  2.8789E-002  
  807.00  2.8646E-002  
  807.50  2.8769E-002  
  808.00  2.9069E-002  
  808.50  2.9016E-002  
  809.00  2.8966E-002  
  809.50  2.9035E-002  
  810.00  2.8788E-002  
  810.50  2.8709E-002  
  811.00  2.8984E-002  
  811.50  2.9095E-002  
  812.00  2.9025E-002  
  812.50  2.8986E-002  
  813.00  2.9159E-002  
  813.50  2.9194E-002  
  814.00  2.9178E-002  
  814.50  2.9067E-002  
  815.00  2.9282E-002  
  815.50  2.9408E-002  
  816.00  2.9353E-002  
  816.50  2.9466E-002  
  817.00  2.9636E-002  
  817.50  2.9721E-002  
  818.00  2.9693E-002  
  818.50  2.9638E-002  
  819.00  2.9785E-002  
  819.50  2.9982E-002  
  820.00  2.9914E-002  
  820.50  2.9762E-002  
  821.00  2.9899E-002  
  821.50  2.9967E-002  
  822.00  2.9831E-002  
  822.50  2.9348E-002  
  823.00  2.9253E-002  
  823.50  2.9628E-002  
  824.00  2.9552E-002  
  824.50  2.9156E-002  
  825.00  2.9460E-002  
  825.50  2.9850E-002  
  826.00  3.0175E-002  
  826.50  3.0141E-002  
  827.00  2.9882E-002  
  827.50  2.9672E-002  
  828.00  2.9828E-002  
  828.50  2.9899E-002  
  829.00  2.9618E-002  
  829.50  2.9727E-002  
  830.00  3.0010E-002  
  830.50  3.0180E-002  
  831.00  3.0172E-002  
  831.50  3.0230E-002  
  832.00  3.0043E-002  
  832.50  2.9987E-002  
  833.00  2.9754E-002  
  833.50  2.9450E-002  
  834.00  2.9121E-002  
  834.50  2.9317E-002  
  835.00  2.9762E-002  
  835.50  2.9675E-002  
  836.00  2.9786E-002  
  836.50  2.9862E-002  
  837.00  3.0126E-002  
  837.50  3.0026E-002  
  838.00  3.0089E-002  
  838.50  3.0296E-002  
  839.00  3.0409E-002  
  839.50  3.0575E-002  
  840.00  3.0627E-002  
  840.50  3.0407E-002  
  841.00  3.0488E-002  
  841.50  3.0274E-002  
  842.00  3.0337E-002  
  842.50  3.0879E-002  
  843.00  3.1449E-002  
  843.50  3.1286E-002  
  844.00  3.0895E-002  
  844.50  3.0601E-002  
  845.00  3.0290E-002  
  845.50  3.0216E-002  
  846.00  3.0075E-002  
  846.50  3.0191E-002  
  847.00  3.0405E-002  
  847.50  3.0353E-002  
  848.00  3.0664E-002  
  848.50  3.1020E-002  
  849.00  3.1128E-002  
  849.50  3.0789E-002  
  850.00  3.0623E-002  
  850.50  3.0727E-002  
  851.00  3.0559E-002  
  851.50  3.0379E-002  
  852.00  3.0415E-002  
  852.50  3.0392E-002  
  853.00  3.0410E-002  
  853.50  3.0311E-002  
  854.00  2.9911E-002  
  854.50  2.9710E-002  
  855.00  2.9893E-002  
  855.50  2.9938E-002  
  856.00  3.0442E-002  
  856.50  3.1443E-002  
  857.00  3.1490E-002  
  857.50  3.0614E-002  
  858.00  3.0202E-002  
  858.50  3.0342E-002  
  859.00  3.0371E-002  
  859.50  3.0471E-002  
  860.00  3.0665E-002  
  860.50  3.1441E-002  
  861.00  3.1866E-002  
  861.50  3.1542E-002  
  862.00  3.1155E-002  
  862.50  3.1245E-002  
  863.00  3.1095E-002  
  863.50  3.0766E-002  
  864.00  3.0722E-002  
  864.50  3.0665E-002  
  865.00  3.0843E-002  
  865.50  3.0980E-002  
  866.00  3.1237E-002  
  866.50  3.1095E-002  
  867.00  3.1028E-002  
  867.50  3.1075E-002  
  868.00  3.1051E-002  
  868.50  3.0767E-002  
  869.00  3.1121E-002  
  869.50  3.1488E-002  
  870.00  3.1381E-002  
  870.50  3.1494E-002  
  871.00  3.1468E-002  
  871.50  3.1528E-002  
  872.00  3.1110E-002  
  872.50  3.0808E-002  
  873.00  3.1558E-002  
  873.50  3.2258E-002  
  874.00  3.1815E-002  
  874.50  3.1258E-002  
  875.00  3.1229E-002  
  875.50  3.1581E-002  
  876.00  3.2725E-002  
  876.50  3.2912E-002  
  877.00  3.2519E-002  
  877.50  3.2581E-002  
  878.00  3.2356E-002  
  878.50  3.1590E-002  
  879.00  3.1579E-002  
  879.50  3.1486E-002  
  880.00  3.1196E-002  
  880.50  3.0627E-002  
  881.00  3.1387E-002  
  881.50  3.2913E-002  
  882.00  3.3029E-002  
  882.50  3.2221E-002  
  883.00  3.1678E-002  
  883.50  3.2178E-002  
  884.00  3.2585E-002  
  884.50  3.2943E-002  
  885.00  3.3088E-002  
  885.50  3.3000E-002  
  886.00  3.2561E-002  
  886.50  3.1431E-002  
  887.00  3.1077E-002  
  887.50  3.0861E-002  
  888.00  3.1418E-002  
  888.50  3.2748E-002  
  889.00  3.3730E-002  
  889.50  3.3353E-002  
  890.00  3.2315E-002  
  890.50  3.2504E-002  
  891.00  3.3252E-002  
  891.50  3.3495E-002  
  892.00  3.3363E-002  
  892.50  3.3519E-002  
  893.00  3.3902E-002  
  893.50  3.3263E-002  
  894.00  3.2565E-002  
  894.50  3.1260E-002  
  895.00  3.1792E-002  
  895.50  3.2816E-002  
  896.00  3.3237E-002  
  896.50  3.2817E-002  
  897.00  3.2324E-002  
  897.50  3.1279E-002  
  898.00  3.1237E-002  
  898.50  3.2458E-002  
  899.00  3.3132E-002  
  899.50  6.5307E-004  
