
# From lspdd.org
# 
# Name: DEL LightingScience PAR20 Domestique
# Indice spectral Valeur 
# MSI 0.65 
# SLI 0.70 
# IPI 0.69 
# Pourcentage de bleu 38.3 
# Caractéristique Valeur 
# CCT calculée (K) 5155 
# CCT du fabricant (K) 5000 
# Tension (V) 120 
# Puissance (W) 8.0 
# Efficacité lumineuse (Lum/W) 52.5 
#
# Image: '/app/system/img_2s/2549/medium_image2.JPG?1413486252'
# Image: '/app/system/img_1s/2549/medium_image1.JPG?1413486256'
# 

  273.00  0.0000E+000  
  273.50  0.0000E+000  
  274.00  0.0000E+000  
  274.50  0.0000E+000  
  275.00  0.0000E+000  
  275.50  0.0000E+000  
  276.00  0.0000E+000  
  276.50  0.0000E+000  
  277.00  0.0000E+000  
  277.50  0.0000E+000  
  278.00  0.0000E+000  
  278.50  0.0000E+000  
  279.00  0.0000E+000  
  279.50  0.0000E+000  
  280.00  0.0000E+000  
  280.50  0.0000E+000  
  281.00  0.0000E+000  
  281.50  0.0000E+000  
  282.00  0.0000E+000  
  282.50  0.0000E+000  
  283.00  0.0000E+000  
  283.50  0.0000E+000  
  284.00  0.0000E+000  
  284.50  0.0000E+000  
  285.00  0.0000E+000  
  285.50  0.0000E+000  
  286.00  0.0000E+000  
  286.50  0.0000E+000  
  287.00  0.0000E+000  
  287.50  0.0000E+000  
  288.00  0.0000E+000  
  288.50  0.0000E+000  
  289.00  0.0000E+000  
  289.50  0.0000E+000  
  290.00  0.0000E+000  
  290.50  0.0000E+000  
  291.00  0.0000E+000  
  291.50  0.0000E+000  
  292.00  0.0000E+000  
  292.50  0.0000E+000  
  293.00  0.0000E+000  
  293.50  0.0000E+000  
  294.00  0.0000E+000  
  294.50  0.0000E+000  
  295.00  0.0000E+000  
  295.50  0.0000E+000  
  296.00  0.0000E+000  
  296.50  0.0000E+000  
  297.00  0.0000E+000  
  297.50  0.0000E+000  
  298.00  0.0000E+000  
  298.50  0.0000E+000  
  299.00  0.0000E+000  
  299.50  0.0000E+000  
  300.00  0.0000E+000  
  300.50  0.0000E+000  
  301.00  0.0000E+000  
  301.50  0.0000E+000  
  302.00  0.0000E+000  
  302.50  0.0000E+000  
  303.00  0.0000E+000  
  303.50  0.0000E+000  
  304.00  0.0000E+000  
  304.50  0.0000E+000  
  305.00  0.0000E+000  
  305.50  0.0000E+000  
  306.00  0.0000E+000  
  306.50  0.0000E+000  
  307.00  0.0000E+000  
  307.50  0.0000E+000  
  308.00  0.0000E+000  
  308.50  0.0000E+000  
  309.00  0.0000E+000  
  309.50  0.0000E+000  
  310.00  0.0000E+000  
  310.50  0.0000E+000  
  311.00  0.0000E+000  
  311.50  0.0000E+000  
  312.00  0.0000E+000  
  312.50  0.0000E+000  
  313.00  0.0000E+000  
  313.50  0.0000E+000  
  314.00  0.0000E+000  
  314.50  0.0000E+000  
  315.00  0.0000E+000  
  315.50  0.0000E+000  
  316.00  0.0000E+000  
  316.50  0.0000E+000  
  317.00  0.0000E+000  
  317.50  0.0000E+000  
  318.00  0.0000E+000  
  318.50  0.0000E+000  
  319.00  0.0000E+000  
  319.50  0.0000E+000  
  320.00  0.0000E+000  
  320.50  0.0000E+000  
  321.00  0.0000E+000  
  321.50  0.0000E+000  
  322.00  0.0000E+000  
  322.50  0.0000E+000  
  323.00  0.0000E+000  
  323.50  0.0000E+000  
  324.00  0.0000E+000  
  324.50  0.0000E+000  
  325.00  0.0000E+000  
  325.50  0.0000E+000  
  326.00  0.0000E+000  
  326.50  0.0000E+000  
  327.00  1.3343E-006  
  327.50  0.0000E+000  
  328.00  0.0000E+000  
  328.50  0.0000E+000  
  329.00  0.0000E+000  
  329.50  0.0000E+000  
  330.00  3.2850E-005  
  330.50  2.7882E-005  
  331.00  1.6437E-005  
  331.50  1.2340E-005  
  332.00  0.0000E+000  
  332.50  0.0000E+000  
  333.00  0.0000E+000  
  333.50  0.0000E+000  
  334.00  0.0000E+000  
  334.50  1.2189E-005  
  335.00  1.0637E-005  
  335.50  0.0000E+000  
  336.00  1.3797E-005  
  336.50  8.0427E-005  
  337.00  1.3911E-004  
  337.50  1.6153E-004  
  338.00  1.0211E-004  
  338.50  7.7117E-005  
  339.00  1.0173E-005  
  339.50  0.0000E+000  
  340.00  0.0000E+000  
  340.50  0.0000E+000  
  341.00  1.7055E-006  
  341.50  2.8427E-005  
  342.00  4.1701E-005  
  342.50  3.5397E-005  
  343.00  7.3281E-006  
  343.50  0.0000E+000  
  344.00  0.0000E+000  
  344.50  0.0000E+000  
  345.00  0.0000E+000  
  345.50  0.0000E+000  
  346.00  2.2015E-007  
  346.50  3.1681E-005  
  347.00  3.9425E-005  
  347.50  3.4232E-005  
  348.00  1.5390E-005  
  348.50  1.8193E-005  
  349.00  3.9649E-005  
  349.50  6.5219E-005  
  350.00  8.4648E-005  
  350.50  6.3793E-005  
  351.00  5.9414E-005  
  351.50  6.8218E-005  
  352.00  3.3639E-005  
  352.50  0.0000E+000  
  353.00  0.0000E+000  
  353.50  0.0000E+000  
  354.00  0.0000E+000  
  354.50  0.0000E+000  
  355.00  0.0000E+000  
  355.50  0.0000E+000  
  356.00  0.0000E+000  
  356.50  0.0000E+000  
  357.00  1.9990E-005  
  357.50  4.6024E-005  
  358.00  9.6447E-005  
  358.50  1.7300E-004  
  359.00  2.2960E-004  
  359.50  2.5520E-004  
  360.00  2.0623E-004  
  360.50  1.7175E-004  
  361.00  1.8549E-004  
  361.50  2.0131E-004  
  362.00  2.4798E-004  
  362.50  2.2876E-004  
  363.00  1.9033E-004  
  363.50  1.6855E-004  
  364.00  1.5165E-004  
  364.50  1.5030E-004  
  365.00  1.1369E-004  
  365.50  8.9944E-005  
  366.00  5.0482E-005  
  366.50  6.4801E-005  
  367.00  1.2832E-004  
  367.50  1.7566E-004  
  368.00  2.3300E-004  
  368.50  2.7894E-004  
  369.00  3.0430E-004  
  369.50  2.8952E-004  
  370.00  2.1336E-004  
  370.50  1.9287E-004  
  371.00  2.1688E-004  
  371.50  2.5992E-004  
  372.00  3.1640E-004  
  372.50  3.3247E-004  
  373.00  3.3888E-004  
  373.50  3.3342E-004  
  374.00  3.2857E-004  
  374.50  2.7143E-004  
  375.00  2.6889E-004  
  375.50  2.8075E-004  
  376.00  3.3185E-004  
  376.50  3.6817E-004  
  377.00  3.9456E-004  
  377.50  3.7475E-004  
  378.00  3.3005E-004  
  378.50  3.0356E-004  
  379.00  2.6573E-004  
  379.50  3.1495E-004  
  380.00  3.8268E-004  
  380.50  4.7521E-004  
  381.00  5.5539E-004  
  381.50  5.4435E-004  
  382.00  5.2362E-004  
  382.50  4.9387E-004  
  383.00  4.6549E-004  
  383.50  4.3472E-004  
  384.00  4.3047E-004  
  384.50  4.5169E-004  
  385.00  4.9751E-004  
  385.50  5.7399E-004  
  386.00  5.8941E-004  
  386.50  6.2091E-004  
  387.00  6.4022E-004  
  387.50  6.7535E-004  
  388.00  6.5462E-004  
  388.50  6.8348E-004  
  389.00  6.8813E-004  
  389.50  6.9507E-004  
  390.00  7.1303E-004  
  390.50  7.1144E-004  
  391.00  7.4711E-004  
  391.50  7.7742E-004  
  392.00  7.9363E-004  
  392.50  7.7857E-004  
  393.00  7.8176E-004  
  393.50  8.1083E-004  
  394.00  8.5950E-004  
  394.50  8.9645E-004  
  395.00  9.0888E-004  
  395.50  9.7394E-004  
  396.00  1.0173E-003  
  396.50  1.0872E-003  
  397.00  1.1393E-003  
  397.50  1.1574E-003  
  398.00  1.1817E-003  
  398.50  1.2170E-003  
  399.00  1.2327E-003  
  399.50  1.3130E-003  
  400.00  1.4235E-003  
  400.50  1.5202E-003  
  401.00  1.6173E-003  
  401.50  1.6783E-003  
  402.00  1.7409E-003  
  402.50  1.8288E-003  
  403.00  1.9538E-003  
  403.50  2.0674E-003  
  404.00  2.2551E-003  
  404.50  2.4181E-003  
  405.00  2.5913E-003  
  405.50  2.7251E-003  
  406.00  2.8236E-003  
  406.50  3.0171E-003  
  407.00  3.2711E-003  
  407.50  3.5450E-003  
  408.00  3.8131E-003  
  408.50  4.0073E-003  
  409.00  4.2308E-003  
  409.50  4.5428E-003  
  410.00  4.9522E-003  
  410.50  5.4487E-003  
  411.00  5.9682E-003  
  411.50  6.5244E-003  
  412.00  7.0836E-003  
  412.50  7.6464E-003  
  413.00  8.1930E-003  
  413.50  8.7912E-003  
  414.00  9.4836E-003  
  414.50  1.0222E-002  
  415.00  1.1055E-002  
  415.50  1.1957E-002  
  416.00  1.3039E-002  
  416.50  1.4209E-002  
  417.00  1.5423E-002  
  417.50  1.6629E-002  
  418.00  1.7933E-002  
  418.50  1.9397E-002  
  419.00  2.1014E-002  
  419.50  2.2697E-002  
  420.00  2.4409E-002  
  420.50  2.6225E-002  
  421.00  2.8198E-002  
  421.50  3.0316E-002  
  422.00  3.2679E-002  
  422.50  3.5204E-002  
  423.00  3.7884E-002  
  423.50  4.0688E-002  
  424.00  4.3553E-002  
  424.50  4.6500E-002  
  425.00  4.9705E-002  
  425.50  5.3072E-002  
  426.00  5.6634E-002  
  426.50  6.0292E-002  
  427.00  6.4219E-002  
  427.50  6.8410E-002  
  428.00  7.2850E-002  
  428.50  7.6973E-002  
  429.00  8.1188E-002  
  429.50  8.5633E-002  
  430.00  9.0424E-002  
  430.50  9.5411E-002  
  431.00  1.0017E-001  
  431.50  1.0480E-001  
  432.00  1.0999E-001  
  432.50  1.1573E-001  
  433.00  1.2176E-001  
  433.50  1.2767E-001  
  434.00  1.3362E-001  
  434.50  1.3997E-001  
  435.00  1.4673E-001  
  435.50  1.5366E-001  
  436.00  1.6086E-001  
  436.50  1.6812E-001  
  437.00  1.7614E-001  
  437.50  1.8417E-001  
  438.00  1.9214E-001  
  438.50  1.9952E-001  
  439.00  2.0675E-001  
  439.50  2.1416E-001  
  440.00  2.2149E-001  
  440.50  2.2864E-001  
  441.00  2.3455E-001  
  441.50  2.3961E-001  
  442.00  2.4399E-001  
  442.50  2.4730E-001  
  443.00  2.5047E-001  
  443.50  2.5286E-001  
  444.00  2.5498E-001  
  444.50  2.5681E-001  
  445.00  2.5818E-001  
  445.50  2.5890E-001  
  446.00  2.5907E-001  
  446.50  2.5814E-001  
  447.00  2.5652E-001  
  447.50  2.5445E-001  
  448.00  2.5187E-001  
  448.50  2.4868E-001  
  449.00  2.4469E-001  
  449.50  2.3991E-001  
  450.00  2.3436E-001  
  450.50  2.2767E-001  
  451.00  2.2019E-001  
  451.50  2.1156E-001  
  452.00  2.0239E-001  
  452.50  1.9286E-001  
  453.00  1.8265E-001  
  453.50  1.7251E-001  
  454.00  1.6267E-001  
  454.50  1.5342E-001  
  455.00  1.4548E-001  
  455.50  1.3779E-001  
  456.00  1.3054E-001  
  456.50  1.2400E-001  
  457.00  1.1805E-001  
  457.50  1.1281E-001  
  458.00  1.0767E-001  
  458.50  1.0251E-001  
  459.00  9.7700E-002  
  459.50  9.3265E-002  
  460.00  8.9427E-002  
  460.50  8.6023E-002  
  461.00  8.2713E-002  
  461.50  7.9313E-002  
  462.00  7.5995E-002  
  462.50  7.2848E-002  
  463.00  6.9880E-002  
  463.50  6.6989E-002  
  464.00  6.4054E-002  
  464.50  6.1142E-002  
  465.00  5.8433E-002  
  465.50  5.5877E-002  
  466.00  5.3257E-002  
  466.50  5.0737E-002  
  467.00  4.8336E-002  
  467.50  4.6155E-002  
  468.00  4.4102E-002  
  468.50  4.2065E-002  
  469.00  4.0197E-002  
  469.50  3.8386E-002  
  470.00  3.6642E-002  
  470.50  3.5037E-002  
  471.00  3.3451E-002  
  471.50  3.1936E-002  
  472.00  3.0504E-002  
  472.50  2.9158E-002  
  473.00  2.8038E-002  
  473.50  2.7178E-002  
  474.00  2.6388E-002  
  474.50  2.5463E-002  
  475.00  2.4593E-002  
  475.50  2.3748E-002  
  476.00  2.3084E-002  
  476.50  2.2527E-002  
  477.00  2.1945E-002  
  477.50  2.1361E-002  
  478.00  2.0793E-002  
  478.50  2.0294E-002  
  479.00  1.9929E-002  
  479.50  1.9625E-002  
  480.00  1.9344E-002  
  480.50  1.8984E-002  
  481.00  1.8588E-002  
  481.50  1.8247E-002  
  482.00  1.8026E-002  
  482.50  1.7832E-002  
  483.00  1.7621E-002  
  483.50  1.7447E-002  
  484.00  1.7307E-002  
  484.50  1.7175E-002  
  485.00  1.7067E-002  
  485.50  1.6959E-002  
  486.00  1.6955E-002  
  486.50  1.7051E-002  
  487.00  1.7196E-002  
  487.50  1.7336E-002  
  488.00  1.7526E-002  
  488.50  1.7725E-002  
  489.00  1.8006E-002  
  489.50  1.8297E-002  
  490.00  1.8606E-002  
  490.50  1.9015E-002  
  491.00  1.9580E-002  
  491.50  2.0189E-002  
  492.00  2.0828E-002  
  492.50  2.1432E-002  
  493.00  2.2092E-002  
  493.50  2.2802E-002  
  494.00  2.3546E-002  
  494.50  2.4294E-002  
  495.00  2.5099E-002  
  495.50  2.6013E-002  
  496.00  2.6973E-002  
  496.50  2.8032E-002  
  497.00  2.9097E-002  
  497.50  3.0213E-002  
  498.00  3.1380E-002  
  498.50  3.2559E-002  
  499.00  3.3814E-002  
  499.50  3.5081E-002  
  500.00  3.6361E-002  
  500.50  3.7666E-002  
  501.00  3.9054E-002  
  501.50  4.0589E-002  
  502.00  4.2227E-002  
  502.50  4.3860E-002  
  503.00  4.5491E-002  
  503.50  4.7161E-002  
  504.00  4.8867E-002  
  504.50  5.0568E-002  
  505.00  5.2278E-002  
  505.50  5.4040E-002  
  506.00  5.5868E-002  
  506.50  5.7643E-002  
  507.00  5.9423E-002  
  507.50  6.1170E-002  
  508.00  6.2939E-002  
  508.50  6.4794E-002  
  509.00  6.6712E-002  
  509.50  6.8682E-002  
  510.00  7.0705E-002  
  510.50  7.2661E-002  
  511.00  7.4687E-002  
  511.50  7.6641E-002  
  512.00  7.8603E-002  
  512.50  8.0516E-002  
  513.00  8.2439E-002  
  513.50  8.4357E-002  
  514.00  8.6171E-002  
  514.50  8.7974E-002  
  515.00  8.9694E-002  
  515.50  9.1369E-002  
  516.00  9.3105E-002  
  516.50  9.4864E-002  
  517.00  9.6699E-002  
  517.50  9.8414E-002  
  518.00  9.9956E-002  
  518.50  1.0145E-001  
  519.00  1.0290E-001  
  519.50  1.0432E-001  
  520.00  1.0563E-001  
  520.50  1.0693E-001  
  521.00  1.0819E-001  
  521.50  1.0942E-001  
  522.00  1.1059E-001  
  522.50  1.1168E-001  
  523.00  1.1274E-001  
  523.50  1.1376E-001  
  524.00  1.1480E-001  
  524.50  1.1580E-001  
  525.00  1.1672E-001  
  525.50  1.1751E-001  
  526.00  1.1823E-001  
  526.50  1.1901E-001  
  527.00  1.1984E-001  
  527.50  1.2069E-001  
  528.00  1.2147E-001  
  528.50  1.2219E-001  
  529.00  1.2285E-001  
  529.50  1.2345E-001  
  530.00  1.2409E-001  
  530.50  1.2473E-001  
  531.00  1.2549E-001  
  531.50  1.2615E-001  
  532.00  1.2676E-001  
  532.50  1.2731E-001  
  533.00  1.2781E-001  
  533.50  1.2831E-001  
  534.00  1.2867E-001  
  534.50  1.2911E-001  
  535.00  1.2958E-001  
  535.50  1.3008E-001  
  536.00  1.3055E-001  
  536.50  1.3100E-001  
  537.00  1.3146E-001  
  537.50  1.3198E-001  
  538.00  1.3242E-001  
  538.50  1.3285E-001  
  539.00  1.3326E-001  
  539.50  1.3365E-001  
  540.00  1.3413E-001  
  540.50  1.3462E-001  
  541.00  1.3504E-001  
  541.50  1.3536E-001  
  542.00  1.3566E-001  
  542.50  1.3598E-001  
  543.00  1.3636E-001  
  543.50  1.3673E-001  
  544.00  1.3711E-001  
  544.50  1.3750E-001  
  545.00  1.3784E-001  
  545.50  1.3810E-001  
  546.00  1.3832E-001  
  546.50  1.3860E-001  
  547.00  1.3892E-001  
  547.50  1.3931E-001  
  548.00  1.3966E-001  
  548.50  1.4002E-001  
  549.00  1.4028E-001  
  549.50  1.4049E-001  
  550.00  1.4064E-001  
  550.50  1.4093E-001  
  551.00  1.4127E-001  
  551.50  1.4172E-001  
  552.00  1.4202E-001  
  552.50  1.4229E-001  
  553.00  1.4254E-001  
  553.50  1.4281E-001  
  554.00  1.4308E-001  
  554.50  1.4331E-001  
  555.00  1.4353E-001  
  555.50  1.4379E-001  
  556.00  1.4407E-001  
  556.50  1.4428E-001  
  557.00  1.4449E-001  
  557.50  1.4476E-001  
  558.00  1.4507E-001  
  558.50  1.4535E-001  
  559.00  1.4561E-001  
  559.50  1.4586E-001  
  560.00  1.4613E-001  
  560.50  1.4631E-001  
  561.00  1.4643E-001  
  561.50  1.4657E-001  
  562.00  1.4679E-001  
  562.50  1.4695E-001  
  563.00  1.4708E-001  
  563.50  1.4715E-001  
  564.00  1.4726E-001  
  564.50  1.4733E-001  
  565.00  1.4745E-001  
  565.50  1.4756E-001  
  566.00  1.4766E-001  
  566.50  1.4778E-001  
  567.00  1.4786E-001  
  567.50  1.4797E-001  
  568.00  1.4811E-001  
  568.50  1.4824E-001  
  569.00  1.4832E-001  
  569.50  1.4838E-001  
  570.00  1.4846E-001  
  570.50  1.4859E-001  
  571.00  1.4869E-001  
  571.50  1.4878E-001  
  572.00  1.4880E-001  
  572.50  1.4881E-001  
  573.00  1.4876E-001  
  573.50  1.4872E-001  
  574.00  1.4869E-001  
  574.50  1.4870E-001  
  575.00  1.4874E-001  
  575.50  1.4880E-001  
  576.00  1.4885E-001  
  576.50  1.4886E-001  
  577.00  1.4881E-001  
  577.50  1.4875E-001  
  578.00  1.4859E-001  
  578.50  1.4852E-001  
  579.00  1.4834E-001  
  579.50  1.4827E-001  
  580.00  1.4813E-001  
  580.50  1.4803E-001  
  581.00  1.4781E-001  
  581.50  1.4750E-001  
  582.00  1.4718E-001  
  582.50  1.4702E-001  
  583.00  1.4691E-001  
  583.50  1.4687E-001  
  584.00  1.4664E-001  
  584.50  1.4641E-001  
  585.00  1.4610E-001  
  585.50  1.4579E-001  
  586.00  1.4542E-001  
  586.50  1.4505E-001  
  587.00  1.4470E-001  
  587.50  1.4435E-001  
  588.00  1.4401E-001  
  588.50  1.4351E-001  
  589.00  1.4301E-001  
  589.50  1.4250E-001  
  590.00  1.4223E-001  
  590.50  1.4196E-001  
  591.00  1.4152E-001  
  591.50  1.4094E-001  
  592.00  1.4024E-001  
  592.50  1.3972E-001  
  593.00  1.3920E-001  
  593.50  1.3861E-001  
  594.00  1.3806E-001  
  594.50  1.3737E-001  
  595.00  1.3667E-001  
  595.50  1.3599E-001  
  596.00  1.3539E-001  
  596.50  1.3483E-001  
  597.00  1.3414E-001  
  597.50  1.3331E-001  
  598.00  1.3261E-001  
  598.50  1.3198E-001  
  599.00  1.3148E-001  
  599.50  1.3067E-001  
  600.00  1.2984E-001  
  600.50  1.2891E-001  
  601.00  1.2819E-001  
  601.50  1.2753E-001  
  602.00  1.2674E-001  
  602.50  1.2595E-001  
  603.00  1.2508E-001  
  603.50  1.2422E-001  
  604.00  1.2341E-001  
  604.50  1.2274E-001  
  605.00  1.2209E-001  
  605.50  1.2128E-001  
  606.00  1.2040E-001  
  606.50  1.1959E-001  
  607.00  1.1885E-001  
  607.50  1.1797E-001  
  608.00  1.1701E-001  
  608.50  1.1616E-001  
  609.00  1.1547E-001  
  609.50  1.1473E-001  
  610.00  1.1391E-001  
  610.50  1.1298E-001  
  611.00  1.1207E-001  
  611.50  1.1125E-001  
  612.00  1.1046E-001  
  612.50  1.0974E-001  
  613.00  1.0891E-001  
  613.50  1.0804E-001  
  614.00  1.0712E-001  
  614.50  1.0623E-001  
  615.00  1.0547E-001  
  615.50  1.0462E-001  
  616.00  1.0371E-001  
  616.50  1.0265E-001  
  617.00  1.0167E-001  
  617.50  1.0074E-001  
  618.00  1.0003E-001  
  618.50  9.9320E-002  
  619.00  9.8555E-002  
  619.50  9.7612E-002  
  620.00  9.6680E-002  
  620.50  9.5793E-002  
  621.00  9.5127E-002  
  621.50  9.4356E-002  
  622.00  9.3631E-002  
  622.50  9.2744E-002  
  623.00  9.1826E-002  
  623.50  9.0951E-002  
  624.00  9.0072E-002  
  624.50  8.9170E-002  
  625.00  8.8229E-002  
  625.50  8.7262E-002  
  626.00  8.6557E-002  
  626.50  8.5859E-002  
  627.00  8.5284E-002  
  627.50  8.4442E-002  
  628.00  8.3608E-002  
  628.50  8.2704E-002  
  629.00  8.1933E-002  
  629.50  8.1221E-002  
  630.00  8.0599E-002  
  630.50  7.9934E-002  
  631.00  7.9109E-002  
  631.50  7.8230E-002  
  632.00  7.7273E-002  
  632.50  7.6519E-002  
  633.00  7.5740E-002  
  633.50  7.5135E-002  
  634.00  7.4531E-002  
  634.50  7.3874E-002  
  635.00  7.3010E-002  
  635.50  7.2125E-002  
  636.00  7.1316E-002  
  636.50  7.0564E-002  
  637.00  6.9844E-002  
  637.50  6.9153E-002  
  638.00  6.8445E-002  
  638.50  6.7647E-002  
  639.00  6.6900E-002  
  639.50  6.6097E-002  
  640.00  6.5359E-002  
  640.50  6.4467E-002  
  641.00  6.3795E-002  
  641.50  6.3221E-002  
  642.00  6.2592E-002  
  642.50  6.1932E-002  
  643.00  6.1228E-002  
  643.50  6.0624E-002  
  644.00  5.9968E-002  
  644.50  5.9259E-002  
  645.00  5.8653E-002  
  645.50  5.8032E-002  
  646.00  5.7411E-002  
  646.50  5.6701E-002  
  647.00  5.6140E-002  
  647.50  5.5634E-002  
  648.00  5.5027E-002  
  648.50  5.4443E-002  
  649.00  5.3829E-002  
  649.50  5.3158E-002  
  650.00  5.2407E-002  
  650.50  5.1593E-002  
  651.00  5.0951E-002  
  651.50  5.0305E-002  
  652.00  4.9729E-002  
  652.50  4.9224E-002  
  653.00  4.8755E-002  
  653.50  4.8217E-002  
  654.00  4.7607E-002  
  654.50  4.6952E-002  
  655.00  4.6435E-002  
  655.50  4.5984E-002  
  656.00  4.5583E-002  
  656.50  4.5051E-002  
  657.00  4.4447E-002  
  657.50  4.3819E-002  
  658.00  4.3247E-002  
  658.50  4.2692E-002  
  659.00  4.2184E-002  
  659.50  4.1747E-002  
  660.00  4.1269E-002  
  660.50  4.0694E-002  
  661.00  4.0163E-002  
  661.50  3.9644E-002  
  662.00  3.9188E-002  
  662.50  3.8648E-002  
  663.00  3.8137E-002  
  663.50  3.7609E-002  
  664.00  3.7171E-002  
  664.50  3.6706E-002  
  665.00  3.6210E-002  
  665.50  3.5692E-002  
  666.00  3.5318E-002  
  666.50  3.4995E-002  
  667.00  3.4564E-002  
  667.50  3.4156E-002  
  668.00  3.3729E-002  
  668.50  3.3347E-002  
  669.00  3.2826E-002  
  669.50  3.2264E-002  
  670.00  3.1760E-002  
  670.50  3.1407E-002  
  671.00  3.1079E-002  
  671.50  3.0722E-002  
  672.00  3.0277E-002  
  672.50  2.9879E-002  
  673.00  2.9473E-002  
  673.50  2.9076E-002  
  674.00  2.8650E-002  
  674.50  2.8263E-002  
  675.00  2.7917E-002  
  675.50  2.7675E-002  
  676.00  2.7346E-002  
  676.50  2.6976E-002  
  677.00  2.6562E-002  
  677.50  2.6230E-002  
  678.00  2.5908E-002  
  678.50  2.5578E-002  
  679.00  2.5284E-002  
  679.50  2.4951E-002  
  680.00  2.4613E-002  
  680.50  2.4249E-002  
  681.00  2.3926E-002  
  681.50  2.3597E-002  
  682.00  2.3291E-002  
  682.50  2.2994E-002  
  683.00  2.2740E-002  
  683.50  2.2378E-002  
  684.00  2.2037E-002  
  684.50  2.1740E-002  
  685.00  2.1507E-002  
  685.50  2.1233E-002  
  686.00  2.0910E-002  
  686.50  2.0589E-002  
  687.00  2.0354E-002  
  687.50  2.0202E-002  
  688.00  2.0055E-002  
  688.50  1.9817E-002  
  689.00  1.9363E-002  
  689.50  1.8960E-002  
  690.00  1.8636E-002  
  690.50  1.8441E-002  
  691.00  1.8242E-002  
  691.50  1.8091E-002  
  692.00  1.7927E-002  
  692.50  1.7699E-002  
  693.00  1.7301E-002  
  693.50  1.7026E-002  
  694.00  1.6767E-002  
  694.50  1.6585E-002  
  695.00  1.6405E-002  
  695.50  1.6206E-002  
  696.00  1.6006E-002  
  696.50  1.5771E-002  
  697.00  1.5599E-002  
  697.50  1.5479E-002  
  698.00  1.5346E-002  
  698.50  1.5158E-002  
  699.00  1.4952E-002  
  699.50  1.4731E-002  
  700.00  1.4498E-002  
  700.50  1.4246E-002  
  701.00  1.4055E-002  
  701.50  1.3940E-002  
  702.00  1.3775E-002  
  702.50  1.3502E-002  
  703.00  1.3184E-002  
  703.50  1.2991E-002  
  704.00  1.2851E-002  
  704.50  1.2741E-002  
  705.00  1.2578E-002  
  705.50  1.2396E-002  
  706.00  1.2259E-002  
  706.50  1.2073E-002  
  707.00  1.1890E-002  
  707.50  1.1794E-002  
  708.00  1.1682E-002  
  708.50  1.1543E-002  
  709.00  1.1303E-002  
  709.50  1.1176E-002  
  710.00  1.0990E-002  
  710.50  1.0808E-002  
  711.00  1.0610E-002  
  711.50  1.0476E-002  
  712.00  1.0245E-002  
  712.50  1.0070E-002  
  713.00  9.9718E-003  
  713.50  9.9012E-003  
  714.00  9.7174E-003  
  714.50  9.5762E-003  
  715.00  9.4713E-003  
  715.50  9.3492E-003  
  716.00  9.1867E-003  
  716.50  8.9953E-003  
  717.00  8.8627E-003  
  717.50  8.8179E-003  
  718.00  8.8659E-003  
  718.50  8.8049E-003  
  719.00  8.6506E-003  
  719.50  8.5409E-003  
  720.00  8.4295E-003  
  720.50  8.2692E-003  
  721.00  8.0459E-003  
  721.50  7.8829E-003  
  722.00  7.7471E-003  
  722.50  7.6386E-003  
  723.00  7.4915E-003  
  723.50  7.3194E-003  
  724.00  7.2157E-003  
  724.50  7.1667E-003  
  725.00  7.2545E-003  
  725.50  7.1813E-003  
  726.00  7.0371E-003  
  726.50  6.7648E-003  
  727.00  6.7363E-003  
  727.50  6.7201E-003  
  728.00  6.7581E-003  
  728.50  6.6068E-003  
  729.00  6.4466E-003  
  729.50  6.3812E-003  
  730.00  6.4399E-003  
  730.50  6.4435E-003  
  731.00  6.3121E-003  
  731.50  6.2014E-003  
  732.00  6.1509E-003  
  732.50  6.0119E-003  
  733.00  5.8954E-003  
  733.50  5.7573E-003  
  734.00  5.6303E-003  
  734.50  5.5010E-003  
  735.00  5.4646E-003  
  735.50  5.3367E-003  
  736.00  5.2497E-003  
  736.50  5.2136E-003  
  737.00  5.1719E-003  
  737.50  5.0245E-003  
  738.00  4.8634E-003  
  738.50  4.8533E-003  
  739.00  4.8427E-003  
  739.50  4.8678E-003  
  740.00  4.9120E-003  
  740.50  4.9590E-003  
  741.00  4.7073E-003  
  741.50  4.3756E-003  
  742.00  4.2128E-003  
  742.50  4.2761E-003  
  743.00  4.2822E-003  
  743.50  4.1639E-003  
  744.00  4.0316E-003  
  744.50  3.8705E-003  
  745.00  3.8368E-003  
  745.50  3.8288E-003  
  746.00  3.8683E-003  
  746.50  3.8690E-003  
  747.00  3.8719E-003  
  747.50  3.8093E-003  
  748.00  3.6078E-003  
  748.50  3.4684E-003  
  749.00  3.4523E-003  
  749.50  3.4578E-003  
  750.00  3.4361E-003  
  750.50  3.4967E-003  
  751.00  3.5707E-003  
  751.50  3.5089E-003  
  752.00  3.2476E-003  
  752.50  3.0458E-003  
  753.00  2.8956E-003  
  753.50  2.9015E-003  
  754.00  2.9612E-003  
  754.50  3.0079E-003  
  755.00  3.0014E-003  
  755.50  2.8601E-003  
  756.00  2.7746E-003  
  756.50  2.8144E-003  
  757.00  2.8578E-003  
  757.50  2.7969E-003  
  758.00  2.7146E-003  
  758.50  2.7626E-003  
  759.00  2.7106E-003  
  759.50  2.6446E-003  
  760.00  2.4772E-003  
  760.50  2.3604E-003  
  761.00  2.3653E-003  
  761.50  2.4705E-003  
  762.00  2.4667E-003  
  762.50  2.3439E-003  
  763.00  2.2637E-003  
  763.50  2.1469E-003  
  764.00  2.0316E-003  
  764.50  1.8125E-003  
  765.00  1.7994E-003  
  765.50  1.9674E-003  
  766.00  2.1067E-003  
  766.50  2.0510E-003  
  767.00  1.7800E-003  
  767.50  1.5990E-003  
  768.00  1.5426E-003  
  768.50  1.5864E-003  
  769.00  1.5836E-003  
  769.50  1.4828E-003  
  770.00  1.4172E-003  
  770.50  1.3362E-003  
  771.00  1.3760E-003  
  771.50  1.3902E-003  
  772.00  1.2884E-003  
  772.50  1.1704E-003  
  773.00  1.2532E-003  
  773.50  1.4783E-003  
  774.00  1.6373E-003  
  774.50  1.6094E-003  
  775.00  1.4596E-003  
  775.50  1.3315E-003  
  776.00  1.3307E-003  
  776.50  1.2904E-003  
  777.00  1.2525E-003  
  777.50  1.1650E-003  
  778.00  1.0710E-003  
  778.50  1.0383E-003  
  779.00  8.9517E-004  
  779.50  7.2849E-004  
  780.00  7.5807E-004  
  780.50  7.5274E-004  
  781.00  7.3062E-004  
  781.50  8.6104E-004  
  782.00  1.1044E-003  
  782.50  1.1536E-003  
  783.00  9.5841E-004  
  783.50  7.1679E-004  
  784.00  4.3340E-004  
  784.50  4.0715E-004  
  785.00  5.8824E-004  
  785.50  7.4771E-004  
  786.00  6.9008E-004  
  786.50  6.8444E-004  
  787.00  7.4443E-004  
  787.50  7.4069E-004  
  788.00  5.1357E-004  
  788.50  4.2461E-004  
  789.00  4.0927E-004  
  789.50  3.8718E-004  
  790.00  2.7461E-004  
  790.50  3.1719E-004  
  791.00  5.8662E-004  
  791.50  8.1795E-004  
  792.00  8.9381E-004  
  792.50  7.0651E-004  
  793.00  4.9547E-004  
  793.50  2.1609E-004  
  794.00  2.6183E-004  
  794.50  4.4992E-004  
  795.00  5.9938E-004  
  795.50  4.7872E-004  
  796.00  5.4147E-004  
  796.50  4.7789E-004  
  797.00  2.5145E-004  
  797.50  1.7160E-005  
  798.00  4.3600E-005  
  798.50  9.1529E-005  
  799.00  2.5840E-004  
  799.50  3.4440E-004  
  800.00  2.5464E-004  
  800.50  2.0669E-005  
  801.00  0.0000E+000  
  801.50  0.0000E+000  
  802.00  0.0000E+000  
  802.50  0.0000E+000  
  803.00  0.0000E+000  
  803.50  0.0000E+000  
  804.00  0.0000E+000  
  804.50  8.4891E-005  
  805.00  0.0000E+000  
  805.50  4.6516E-006  
  806.00  9.0176E-005  
  806.50  1.2278E-004  
  807.00  0.0000E+000  
  807.50  0.0000E+000  
  808.00  0.0000E+000  
  808.50  0.0000E+000  
  809.00  0.0000E+000  
  809.50  0.0000E+000  
  810.00  0.0000E+000  
  810.50  0.0000E+000  
  811.00  0.0000E+000  
  811.50  0.0000E+000  
  812.00  0.0000E+000  
  812.50  0.0000E+000  
  813.00  0.0000E+000  
  813.50  0.0000E+000  
  814.00  0.0000E+000  
  814.50  0.0000E+000  
  815.00  0.0000E+000  
  815.50  0.0000E+000  
  816.00  0.0000E+000  
  816.50  0.0000E+000  
  817.00  0.0000E+000  
  817.50  0.0000E+000  
  818.00  0.0000E+000  
  818.50  0.0000E+000  
  819.00  0.0000E+000  
  819.50  0.0000E+000  
  820.00  0.0000E+000  
  820.50  0.0000E+000  
  821.00  0.0000E+000  
  821.50  0.0000E+000  
  822.00  0.0000E+000  
  822.50  0.0000E+000  
  823.00  0.0000E+000  
  823.50  0.0000E+000  
  824.00  0.0000E+000  
  824.50  0.0000E+000  
  825.00  0.0000E+000  
  825.50  0.0000E+000  
  826.00  0.0000E+000  
  826.50  0.0000E+000  
  827.00  0.0000E+000  
  827.50  0.0000E+000  
  828.00  0.0000E+000  
  828.50  0.0000E+000  
  829.00  0.0000E+000  
  829.50  0.0000E+000  
  830.00  0.0000E+000  
  830.50  0.0000E+000  
  831.00  0.0000E+000  
  831.50  0.0000E+000  
  832.00  0.0000E+000  
  832.50  0.0000E+000  
  833.00  0.0000E+000  
  833.50  0.0000E+000  
  834.00  0.0000E+000  
  834.50  0.0000E+000  
  835.00  0.0000E+000  
  835.50  0.0000E+000  
  836.00  0.0000E+000  
  836.50  0.0000E+000  
  837.00  0.0000E+000  
  837.50  0.0000E+000  
  838.00  0.0000E+000  
  838.50  0.0000E+000  
  839.00  0.0000E+000  
  839.50  0.0000E+000  
  840.00  0.0000E+000  
  840.50  0.0000E+000  
  841.00  0.0000E+000  
  841.50  0.0000E+000  
  842.00  0.0000E+000  
  842.50  0.0000E+000  
  843.00  0.0000E+000  
  843.50  0.0000E+000  
  844.00  0.0000E+000  
  844.50  0.0000E+000  
  845.00  0.0000E+000  
  845.50  0.0000E+000  
  846.00  0.0000E+000  
  846.50  0.0000E+000  
  847.00  0.0000E+000  
  847.50  0.0000E+000  
  848.00  0.0000E+000  
  848.50  0.0000E+000  
  849.00  0.0000E+000  
  849.50  0.0000E+000  
  850.00  0.0000E+000  
  850.50  0.0000E+000  
  851.00  0.0000E+000  
  851.50  0.0000E+000  
  852.00  0.0000E+000  
  852.50  0.0000E+000  
  853.00  0.0000E+000  
  853.50  0.0000E+000  
  854.00  0.0000E+000  
  854.50  0.0000E+000  
  855.00  0.0000E+000  
  855.50  0.0000E+000  
  856.00  0.0000E+000  
  856.50  3.6019E-005  
  857.00  0.0000E+000  
  857.50  0.0000E+000  
  858.00  2.1718E-004  
  858.50  0.0000E+000  
  859.00  0.0000E+000  
  859.50  0.0000E+000  
  860.00  0.0000E+000  
  860.50  0.0000E+000  
  861.00  0.0000E+000  
  861.50  0.0000E+000  
  862.00  0.0000E+000  
  862.50  2.5090E-005  
  863.00  1.5278E-004  
  863.50  0.0000E+000  
  864.00  0.0000E+000  
  864.50  0.0000E+000  
  865.00  0.0000E+000  
  865.50  3.9581E-005  
  866.00  4.6929E-004  
  866.50  3.4899E-004  
  867.00  2.8038E-004  
  867.50  4.7117E-005  
  868.00  0.0000E+000  
  868.50  0.0000E+000  
  869.00  5.4665E-004  
  869.50  6.9695E-004  
  870.00  3.9424E-004  
  870.50  3.8817E-004  
  871.00  6.2064E-005  
  871.50  0.0000E+000  
  872.00  1.2842E-004  
  872.50  4.6541E-004  
  873.00  7.0967E-005  
  873.50  0.0000E+000  
  874.00  0.0000E+000  
  874.50  1.1152E-004  
  875.00  4.2706E-004  
  875.50  5.1759E-004  
  876.00  6.6935E-004  
  876.50  1.2248E-003  
  877.00  1.7211E-003  
  877.50  7.5961E-004  
  878.00  4.6975E-004  
  878.50  1.4545E-003  
  879.00  1.5826E-003  
  879.50  1.1701E-003  
  880.00  8.7004E-004  
  880.50  1.2456E-003  
  881.00  1.9465E-003  
  881.50  2.1366E-003  
  882.00  2.4201E-003  
  882.50  2.7158E-003  
  883.00  3.2061E-003  
  883.50  3.0594E-003  
  884.00  2.0938E-003  
  884.50  1.4431E-003  
  885.00  1.9918E-003  
  885.50  2.9412E-003  
  886.00  3.8443E-003  
  886.50  3.9588E-003  
  887.00  4.2617E-003  
  887.50  3.9313E-003  
  888.00  2.9563E-003  
  888.50  2.9736E-003  
  889.00  3.5385E-003  
  889.50  3.1115E-003  
  890.00  3.0600E-003  
  890.50  2.6408E-003  
  891.00  2.2830E-003  
  891.50  2.4397E-003  
  892.00  1.8076E-003  
  892.50  2.2027E-003  
  893.00  2.6483E-003  
  893.50  2.9612E-003  
  894.00  3.1313E-003  
  894.50  3.4300E-003  
  895.00  4.4069E-003  
  895.50  3.7382E-003  
  896.00  2.4389E-003  
  896.50  1.6737E-003  
  897.00  2.1318E-003  
  897.50  2.3437E-003  
  898.00  1.9819E-003  
  898.50  1.6396E-003  
  899.00  1.5792E-003  
  899.50  3.9982E-005  
