
# From lspdd.org
# 
# Name: INC Globe A19 Domestique
# Indice spectral Valeur 
# MSI 0.24 
# SLI 0.46 
# IPI 1.00 
# Pourcentage de bleu 9.9 
# Caractéristique Valeur 
# CCT calculée (K) 2417 
# CCT du fabricant (K) 2422 
# Tension (V) 120 
# Puissance (W) 40.0 
# Efficacité lumineuse (Lum/W) 8.1 
#
# Image: '/app/system/img_2s/2550/medium_image2.jpg?1413486259'
# Image: '/app/system/img_1s/2550/medium_image1.JPG?1413486260'
# 

  273.00  0.0000E+000  
  273.50  0.0000E+000  
  274.00  0.0000E+000  
  274.50  0.0000E+000  
  275.00  0.0000E+000  
  275.50  0.0000E+000  
  276.00  0.0000E+000  
  276.50  0.0000E+000  
  277.00  0.0000E+000  
  277.50  0.0000E+000  
  278.00  0.0000E+000  
  278.50  0.0000E+000  
  279.00  0.0000E+000  
  279.50  0.0000E+000  
  280.00  0.0000E+000  
  280.50  0.0000E+000  
  281.00  0.0000E+000  
  281.50  0.0000E+000  
  282.00  0.0000E+000  
  282.50  0.0000E+000  
  283.00  0.0000E+000  
  283.50  0.0000E+000  
  284.00  0.0000E+000  
  284.50  0.0000E+000  
  285.00  0.0000E+000  
  285.50  0.0000E+000  
  286.00  0.0000E+000  
  286.50  0.0000E+000  
  287.00  0.0000E+000  
  287.50  0.0000E+000  
  288.00  0.0000E+000  
  288.50  0.0000E+000  
  289.00  0.0000E+000  
  289.50  0.0000E+000  
  290.00  0.0000E+000  
  290.50  0.0000E+000  
  291.00  0.0000E+000  
  291.50  0.0000E+000  
  292.00  0.0000E+000  
  292.50  0.0000E+000  
  293.00  0.0000E+000  
  293.50  0.0000E+000  
  294.00  0.0000E+000  
  294.50  0.0000E+000  
  295.00  0.0000E+000  
  295.50  0.0000E+000  
  296.00  0.0000E+000  
  296.50  0.0000E+000  
  297.00  0.0000E+000  
  297.50  0.0000E+000  
  298.00  0.0000E+000  
  298.50  0.0000E+000  
  299.00  0.0000E+000  
  299.50  0.0000E+000  
  300.00  0.0000E+000  
  300.50  0.0000E+000  
  301.00  0.0000E+000  
  301.50  0.0000E+000  
  302.00  0.0000E+000  
  302.50  0.0000E+000  
  303.00  0.0000E+000  
  303.50  0.0000E+000  
  304.00  0.0000E+000  
  304.50  2.0626E-007  
  305.00  1.3186E-006  
  305.50  0.0000E+000  
  306.00  0.0000E+000  
  306.50  0.0000E+000  
  307.00  1.5099E-006  
  307.50  5.6618E-005  
  308.00  5.1054E-005  
  308.50  5.6775E-005  
  309.00  1.0069E-004  
  309.50  9.1666E-005  
  310.00  6.2967E-005  
  310.50  2.7453E-005  
  311.00  0.0000E+000  
  311.50  0.0000E+000  
  312.00  0.0000E+000  
  312.50  0.0000E+000  
  313.00  0.0000E+000  
  313.50  0.0000E+000  
  314.00  1.6896E-005  
  314.50  0.0000E+000  
  315.00  0.0000E+000  
  315.50  0.0000E+000  
  316.00  0.0000E+000  
  316.50  0.0000E+000  
  317.00  0.0000E+000  
  317.50  0.0000E+000  
  318.00  0.0000E+000  
  318.50  0.0000E+000  
  319.00  4.2855E-005  
  319.50  5.9239E-005  
  320.00  3.9658E-005  
  320.50  3.6410E-006  
  321.00  1.9431E-005  
  321.50  2.8651E-005  
  322.00  1.5922E-005  
  322.50  4.0994E-005  
  323.00  4.5743E-005  
  323.50  3.1685E-005  
  324.00  1.3857E-005  
  324.50  3.1844E-006  
  325.00  0.0000E+000  
  325.50  5.0676E-006  
  326.00  0.0000E+000  
  326.50  0.0000E+000  
  327.00  0.0000E+000  
  327.50  0.0000E+000  
  328.00  2.6984E-005  
  328.50  8.1305E-005  
  329.00  7.6057E-005  
  329.50  5.1346E-005  
  330.00  0.0000E+000  
  330.50  0.0000E+000  
  331.00  0.0000E+000  
  331.50  0.0000E+000  
  332.00  1.8574E-005  
  332.50  6.8969E-005  
  333.00  6.8211E-005  
  333.50  7.3951E-005  
  334.00  5.9654E-005  
  334.50  4.6228E-007  
  335.00  1.9834E-005  
  335.50  4.2785E-005  
  336.00  6.1509E-005  
  336.50  5.7116E-005  
  337.00  4.7984E-005  
  337.50  5.2323E-005  
  338.00  5.4246E-005  
  338.50  2.7217E-005  
  339.00  2.9956E-005  
  339.50  1.8390E-006  
  340.00  0.0000E+000  
  340.50  1.5215E-005  
  341.00  3.8123E-006  
  341.50  5.1210E-005  
  342.00  8.1073E-005  
  342.50  5.2136E-005  
  343.00  6.0373E-005  
  343.50  5.5661E-005  
  344.00  6.5703E-005  
  344.50  9.8479E-005  
  345.00  1.0390E-004  
  345.50  7.9478E-005  
  346.00  7.7538E-005  
  346.50  6.3473E-005  
  347.00  1.2935E-005  
  347.50  2.6858E-005  
  348.00  6.2610E-005  
  348.50  9.1138E-005  
  349.00  1.0242E-004  
  349.50  7.8185E-005  
  350.00  5.2299E-005  
  350.50  8.5980E-005  
  351.00  1.2905E-004  
  351.50  1.4983E-004  
  352.00  1.6687E-004  
  352.50  1.7284E-004  
  353.00  2.1387E-004  
  353.50  1.8505E-004  
  354.00  1.4129E-004  
  354.50  8.1466E-005  
  355.00  3.0555E-005  
  355.50  6.8480E-005  
  356.00  9.2025E-005  
  356.50  1.1757E-004  
  357.00  1.1744E-004  
  357.50  1.1446E-004  
  358.00  1.5146E-004  
  358.50  1.6633E-004  
  359.00  1.9948E-004  
  359.50  1.5423E-004  
  360.00  1.0201E-004  
  360.50  9.8586E-005  
  361.00  1.2300E-004  
  361.50  1.9054E-004  
  362.00  2.1576E-004  
  362.50  1.8382E-004  
  363.00  1.7711E-004  
  363.50  1.6083E-004  
  364.00  2.0671E-004  
  364.50  2.7605E-004  
  365.00  2.9855E-004  
  365.50  3.3883E-004  
  366.00  2.9150E-004  
  366.50  2.3789E-004  
  367.00  1.8738E-004  
  367.50  1.4118E-004  
  368.00  1.2705E-004  
  368.50  1.4045E-004  
  369.00  1.7769E-004  
  369.50  2.3853E-004  
  370.00  2.8653E-004  
  370.50  2.8279E-004  
  371.00  2.9056E-004  
  371.50  2.3996E-004  
  372.00  2.4051E-004  
  372.50  2.5370E-004  
  373.00  2.6341E-004  
  373.50  3.2123E-004  
  374.00  3.2058E-004  
  374.50  3.2812E-004  
  375.00  3.0161E-004  
  375.50  3.0243E-004  
  376.00  3.4037E-004  
  376.50  3.9263E-004  
  377.00  4.4149E-004  
  377.50  4.2412E-004  
  378.00  3.8285E-004  
  378.50  3.4294E-004  
  379.00  3.2531E-004  
  379.50  3.9970E-004  
  380.00  4.6616E-004  
  380.50  4.7265E-004  
  381.00  4.5743E-004  
  381.50  4.0438E-004  
  382.00  3.7823E-004  
  382.50  3.7165E-004  
  383.00  3.3209E-004  
  383.50  3.4935E-004  
  384.00  3.4507E-004  
  384.50  3.5114E-004  
  385.00  3.5991E-004  
  385.50  3.5244E-004  
  386.00  3.9993E-004  
  386.50  4.5126E-004  
  387.00  4.1055E-004  
  387.50  3.5879E-004  
  388.00  3.4166E-004  
  388.50  3.6878E-004  
  389.00  4.4720E-004  
  389.50  5.0710E-004  
  390.00  5.7359E-004  
  390.50  6.0278E-004  
  391.00  5.9491E-004  
  391.50  5.5874E-004  
  392.00  4.9748E-004  
  392.50  5.0539E-004  
  393.00  5.3176E-004  
  393.50  5.4317E-004  
  394.00  5.3200E-004  
  394.50  4.7870E-004  
  395.00  5.0219E-004  
  395.50  5.4097E-004  
  396.00  5.9879E-004  
  396.50  6.5664E-004  
  397.00  6.3695E-004  
  397.50  6.1900E-004  
  398.00  6.3375E-004  
  398.50  6.2519E-004  
  399.00  6.3868E-004  
  399.50  6.1304E-004  
  400.00  5.7016E-004  
  400.50  5.5278E-004  
  401.00  5.6296E-004  
  401.50  5.9059E-004  
  402.00  6.5195E-004  
  402.50  7.0584E-004  
  403.00  7.1037E-004  
  403.50  6.8025E-004  
  404.00  6.7383E-004  
  404.50  7.4044E-004  
  405.00  8.0383E-004  
  405.50  8.9814E-004  
  406.00  8.8416E-004  
  406.50  8.0681E-004  
  407.00  7.8646E-004  
  407.50  7.4891E-004  
  408.00  7.6159E-004  
  408.50  7.7994E-004  
  409.00  7.8863E-004  
  409.50  8.0397E-004  
  410.00  8.1297E-004  
  410.50  7.9198E-004  
  411.00  7.9597E-004  
  411.50  8.0575E-004  
  412.00  8.1272E-004  
  412.50  8.5893E-004  
  413.00  8.4998E-004  
  413.50  8.3890E-004  
  414.00  8.2468E-004  
  414.50  8.3071E-004  
  415.00  8.9309E-004  
  415.50  9.6966E-004  
  416.00  1.0316E-003  
  416.50  1.0590E-003  
  417.00  1.0565E-003  
  417.50  1.0422E-003  
  418.00  1.0315E-003  
  418.50  1.0045E-003  
  419.00  1.0048E-003  
  419.50  1.0396E-003  
  420.00  1.0584E-003  
  420.50  1.0728E-003  
  421.00  1.0125E-003  
  421.50  9.5373E-004  
  422.00  9.5931E-004  
  422.50  9.8443E-004  
  423.00  1.0273E-003  
  423.50  1.0766E-003  
  424.00  1.1055E-003  
  424.50  1.1201E-003  
  425.00  1.1494E-003  
  425.50  1.1630E-003  
  426.00  1.2085E-003  
  426.50  1.2372E-003  
  427.00  1.2210E-003  
  427.50  1.1772E-003  
  428.00  1.1639E-003  
  428.50  1.1517E-003  
  429.00  1.2145E-003  
  429.50  1.2335E-003  
  430.00  1.2315E-003  
  430.50  1.2631E-003  
  431.00  1.3117E-003  
  431.50  1.3657E-003  
  432.00  1.4038E-003  
  432.50  1.4115E-003  
  433.00  1.3949E-003  
  433.50  1.4101E-003  
  434.00  1.4361E-003  
  434.50  1.4035E-003  
  435.00  1.4034E-003  
  435.50  1.4074E-003  
  436.00  1.4057E-003  
  436.50  1.4194E-003  
  437.00  1.4020E-003  
  437.50  1.4243E-003  
  438.00  1.5016E-003  
  438.50  1.5519E-003  
  439.00  1.5526E-003  
  439.50  1.5106E-003  
  440.00  1.4992E-003  
  440.50  1.5084E-003  
  441.00  1.5626E-003  
  441.50  1.5731E-003  
  442.00  1.5164E-003  
  442.50  1.5130E-003  
  443.00  1.5169E-003  
  443.50  1.5618E-003  
  444.00  1.6523E-003  
  444.50  1.6929E-003  
  445.00  1.7304E-003  
  445.50  1.7424E-003  
  446.00  1.7554E-003  
  446.50  1.7523E-003  
  447.00  1.7707E-003  
  447.50  1.8036E-003  
  448.00  1.8359E-003  
  448.50  1.8333E-003  
  449.00  1.7954E-003  
  449.50  1.7615E-003  
  450.00  1.7495E-003  
  450.50  1.8150E-003  
  451.00  1.8365E-003  
  451.50  1.8674E-003  
  452.00  1.8963E-003  
  452.50  1.9387E-003  
  453.00  2.0142E-003  
  453.50  2.0597E-003  
  454.00  2.0914E-003  
  454.50  2.0759E-003  
  455.00  2.0151E-003  
  455.50  1.9586E-003  
  456.00  1.9378E-003  
  456.50  1.9732E-003  
  457.00  2.0231E-003  
  457.50  2.1146E-003  
  458.00  2.1969E-003  
  458.50  2.2729E-003  
  459.00  2.2897E-003  
  459.50  2.2548E-003  
  460.00  2.2342E-003  
  460.50  2.2070E-003  
  461.00  2.2269E-003  
  461.50  2.2448E-003  
  462.00  2.2530E-003  
  462.50  2.3128E-003  
  463.00  2.3772E-003  
  463.50  2.4443E-003  
  464.00  2.5571E-003  
  464.50  2.5832E-003  
  465.00  2.5770E-003  
  465.50  2.5551E-003  
  466.00  2.4705E-003  
  466.50  2.4789E-003  
  467.00  2.4458E-003  
  467.50  2.4083E-003  
  468.00  2.4177E-003  
  468.50  2.4478E-003  
  469.00  2.5042E-003  
  469.50  2.5330E-003  
  470.00  2.5335E-003  
  470.50  2.5400E-003  
  471.00  2.5648E-003  
  471.50  2.6154E-003  
  472.00  2.6447E-003  
  472.50  2.6902E-003  
  473.00  2.7499E-003  
  473.50  2.7800E-003  
  474.00  2.7967E-003  
  474.50  2.8145E-003  
  475.00  2.8447E-003  
  475.50  2.9017E-003  
  476.00  2.9342E-003  
  476.50  2.9326E-003  
  477.00  2.9375E-003  
  477.50  2.9313E-003  
  478.00  2.9592E-003  
  478.50  2.9995E-003  
  479.00  3.0404E-003  
  479.50  3.1015E-003  
  480.00  3.2002E-003  
  480.50  3.2363E-003  
  481.00  3.2548E-003  
  481.50  3.2211E-003  
  482.00  3.1925E-003  
  482.50  3.2034E-003  
  483.00  3.1948E-003  
  483.50  3.2122E-003  
  484.00  3.2416E-003  
  484.50  3.2562E-003  
  485.00  3.2696E-003  
  485.50  3.2920E-003  
  486.00  3.3159E-003  
  486.50  3.3684E-003  
  487.00  3.3992E-003  
  487.50  3.4134E-003  
  488.00  3.4539E-003  
  488.50  3.5143E-003  
  489.00  3.5900E-003  
  489.50  3.6170E-003  
  490.00  3.6011E-003  
  490.50  3.5819E-003  
  491.00  3.6261E-003  
  491.50  3.6832E-003  
  492.00  3.7237E-003  
  492.50  3.7337E-003  
  493.00  3.7432E-003  
  493.50  3.7815E-003  
  494.00  3.8409E-003  
  494.50  3.8924E-003  
  495.00  3.9330E-003  
  495.50  3.9429E-003  
  496.00  3.9379E-003  
  496.50  3.9695E-003  
  497.00  4.0059E-003  
  497.50  4.0527E-003  
  498.00  4.0823E-003  
  498.50  4.0953E-003  
  499.00  4.0992E-003  
  499.50  4.1052E-003  
  500.00  4.1017E-003  
  500.50  4.1324E-003  
  501.00  4.1915E-003  
  501.50  4.2759E-003  
  502.00  4.3648E-003  
  502.50  4.3961E-003  
  503.00  4.3990E-003  
  503.50  4.3948E-003  
  504.00  4.4378E-003  
  504.50  4.5131E-003  
  505.00  4.5532E-003  
  505.50  4.5936E-003  
  506.00  4.5894E-003  
  506.50  4.6177E-003  
  507.00  4.6496E-003  
  507.50  4.7186E-003  
  508.00  4.8033E-003  
  508.50  4.8707E-003  
  509.00  4.9100E-003  
  509.50  4.9285E-003  
  510.00  4.9492E-003  
  510.50  4.9763E-003  
  511.00  4.9898E-003  
  511.50  5.0210E-003  
  512.00  5.0711E-003  
  512.50  5.1265E-003  
  513.00  5.1703E-003  
  513.50  5.2279E-003  
  514.00  5.2656E-003  
  514.50  5.3399E-003  
  515.00  5.3701E-003  
  515.50  5.4022E-003  
  516.00  5.4528E-003  
  516.50  5.5199E-003  
  517.00  5.6082E-003  
  517.50  5.6426E-003  
  518.00  5.6678E-003  
  518.50  5.6766E-003  
  519.00  5.7068E-003  
  519.50  5.7383E-003  
  520.00  5.7934E-003  
  520.50  5.8517E-003  
  521.00  5.9233E-003  
  521.50  5.9709E-003  
  522.00  6.0054E-003  
  522.50  6.0538E-003  
  523.00  6.1076E-003  
  523.50  6.1573E-003  
  524.00  6.2211E-003  
  524.50  6.2585E-003  
  525.00  6.2886E-003  
  525.50  6.3344E-003  
  526.00  6.3902E-003  
  526.50  6.4654E-003  
  527.00  6.5233E-003  
  527.50  6.5704E-003  
  528.00  6.6430E-003  
  528.50  6.7293E-003  
  529.00  6.7900E-003  
  529.50  6.8129E-003  
  530.00  6.8390E-003  
  530.50  6.8693E-003  
  531.00  6.9266E-003  
  531.50  6.9979E-003  
  532.00  7.0497E-003  
  532.50  7.0956E-003  
  533.00  7.1343E-003  
  533.50  7.1582E-003  
  534.00  7.2138E-003  
  534.50  7.2790E-003  
  535.00  7.3413E-003  
  535.50  7.4016E-003  
  536.00  7.4523E-003  
  536.50  7.4773E-003  
  537.00  7.5321E-003  
  537.50  7.6027E-003  
  538.00  7.6859E-003  
  538.50  7.8104E-003  
  539.00  7.8570E-003  
  539.50  7.8745E-003  
  540.00  7.8587E-003  
  540.50  7.8598E-003  
  541.00  7.8984E-003  
  541.50  7.9602E-003  
  542.00  8.0220E-003  
  542.50  8.1002E-003  
  543.00  8.1701E-003  
  543.50  8.2296E-003  
  544.00  8.3105E-003  
  544.50  8.3837E-003  
  545.00  8.4506E-003  
  545.50  8.4750E-003  
  546.00  8.4961E-003  
  546.50  8.5704E-003  
  547.00  8.6174E-003  
  547.50  8.6618E-003  
  548.00  8.6890E-003  
  548.50  8.7457E-003  
  549.00  8.8341E-003  
  549.50  8.8887E-003  
  550.00  8.9290E-003  
  550.50  8.9891E-003  
  551.00  9.0637E-003  
  551.50  9.1551E-003  
  552.00  9.2245E-003  
  552.50  9.2671E-003  
  553.00  9.3316E-003  
  553.50  9.4047E-003  
  554.00  9.5020E-003  
  554.50  9.5464E-003  
  555.00  9.5797E-003  
  555.50  9.6680E-003  
  556.00  9.7410E-003  
  556.50  9.8050E-003  
  557.00  9.7948E-003  
  557.50  9.8436E-003  
  558.00  9.8889E-003  
  558.50  9.9086E-003  
  559.00  9.9102E-003  
  559.50  9.9385E-003  
  560.00  1.0057E-002  
  560.50  1.0174E-002  
  561.00  1.0247E-002  
  561.50  1.0274E-002  
  562.00  1.0299E-002  
  562.50  1.0364E-002  
  563.00  1.0441E-002  
  563.50  1.0500E-002  
  564.00  1.0531E-002  
  564.50  1.0573E-002  
  565.00  1.0640E-002  
  565.50  1.0717E-002  
  566.00  1.0797E-002  
  566.50  1.0867E-002  
  567.00  1.0913E-002  
  567.50  1.0924E-002  
  568.00  1.0957E-002  
  568.50  1.1037E-002  
  569.00  1.1099E-002  
  569.50  1.1166E-002  
  570.00  1.1214E-002  
  570.50  1.1265E-002  
  571.00  1.1308E-002  
  571.50  1.1329E-002  
  572.00  1.1362E-002  
  572.50  1.1398E-002  
  573.00  1.1472E-002  
  573.50  1.1564E-002  
  574.00  1.1660E-002  
  574.50  1.1749E-002  
  575.00  1.1784E-002  
  575.50  1.1816E-002  
  576.00  1.1836E-002  
  576.50  1.1892E-002  
  577.00  1.1955E-002  
  577.50  1.2020E-002  
  578.00  1.2085E-002  
  578.50  1.2196E-002  
  579.00  1.2236E-002  
  579.50  1.2278E-002  
  580.00  1.2281E-002  
  580.50  1.2382E-002  
  581.00  1.2469E-002  
  581.50  1.2539E-002  
  582.00  1.2561E-002  
  582.50  1.2601E-002  
  583.00  1.2630E-002  
  583.50  1.2667E-002  
  584.00  1.2661E-002  
  584.50  1.2695E-002  
  585.00  1.2715E-002  
  585.50  1.2773E-002  
  586.00  1.2845E-002  
  586.50  1.2880E-002  
  587.00  1.2925E-002  
  587.50  1.2971E-002  
  588.00  1.3030E-002  
  588.50  1.3077E-002  
  589.00  1.3128E-002  
  589.50  1.3211E-002  
  590.00  1.3331E-002  
  590.50  1.3431E-002  
  591.00  1.3519E-002  
  591.50  1.3530E-002  
  592.00  1.3495E-002  
  592.50  1.3505E-002  
  593.00  1.3539E-002  
  593.50  1.3640E-002  
  594.00  1.3734E-002  
  594.50  1.3810E-002  
  595.00  1.3870E-002  
  595.50  1.3898E-002  
  596.00  1.3912E-002  
  596.50  1.3920E-002  
  597.00  1.3916E-002  
  597.50  1.3968E-002  
  598.00  1.4062E-002  
  598.50  1.4115E-002  
  599.00  1.4168E-002  
  599.50  1.4178E-002  
  600.00  1.4280E-002  
  600.50  1.4359E-002  
  601.00  1.4397E-002  
  601.50  1.4399E-002  
  602.00  1.4435E-002  
  602.50  1.4508E-002  
  603.00  1.4549E-002  
  603.50  1.4563E-002  
  604.00  1.4581E-002  
  604.50  1.4618E-002  
  605.00  1.4676E-002  
  605.50  1.4741E-002  
  606.00  1.4820E-002  
  606.50  1.4889E-002  
  607.00  1.4981E-002  
  607.50  1.5026E-002  
  608.00  1.5069E-002  
  608.50  1.5091E-002  
  609.00  1.5134E-002  
  609.50  1.5200E-002  
  610.00  1.5211E-002  
  610.50  1.5219E-002  
  611.00  1.5279E-002  
  611.50  1.5336E-002  
  612.00  1.5383E-002  
  612.50  1.5407E-002  
  613.00  1.5408E-002  
  613.50  1.5453E-002  
  614.00  1.5556E-002  
  614.50  1.5652E-002  
  615.00  1.5754E-002  
  615.50  1.5769E-002  
  616.00  1.5826E-002  
  616.50  1.5828E-002  
  617.00  1.5854E-002  
  617.50  1.5847E-002  
  618.00  1.5933E-002  
  618.50  1.5946E-002  
  619.00  1.5967E-002  
  619.50  1.5969E-002  
  620.00  1.6043E-002  
  620.50  1.6120E-002  
  621.00  1.6174E-002  
  621.50  1.6181E-002  
  622.00  1.6165E-002  
  622.50  1.6113E-002  
  623.00  1.6159E-002  
  623.50  1.6252E-002  
  624.00  1.6381E-002  
  624.50  1.6414E-002  
  625.00  1.6429E-002  
  625.50  1.6428E-002  
  626.00  1.6448E-002  
  626.50  1.6460E-002  
  627.00  1.6583E-002  
  627.50  1.6727E-002  
  628.00  1.6869E-002  
  628.50  1.6917E-002  
  629.00  1.6947E-002  
  629.50  1.6946E-002  
  630.00  1.6971E-002  
  630.50  1.6940E-002  
  631.00  1.6905E-002  
  631.50  1.6950E-002  
  632.00  1.7015E-002  
  632.50  1.7059E-002  
  633.00  1.7093E-002  
  633.50  1.7163E-002  
  634.00  1.7252E-002  
  634.50  1.7263E-002  
  635.00  1.7310E-002  
  635.50  1.7359E-002  
  636.00  1.7414E-002  
  636.50  1.7415E-002  
  637.00  1.7486E-002  
  637.50  1.7579E-002  
  638.00  1.7642E-002  
  638.50  1.7649E-002  
  639.00  1.7599E-002  
  639.50  1.7585E-002  
  640.00  1.7645E-002  
  640.50  1.7743E-002  
  641.00  1.7817E-002  
  641.50  1.7855E-002  
  642.00  1.7963E-002  
  642.50  1.8066E-002  
  643.00  1.8132E-002  
  643.50  1.8109E-002  
  644.00  1.8080E-002  
  644.50  1.8067E-002  
  645.00  1.8140E-002  
  645.50  1.8188E-002  
  646.00  1.8216E-002  
  646.50  1.8230E-002  
  647.00  1.8302E-002  
  647.50  1.8372E-002  
  648.00  1.8421E-002  
  648.50  1.8390E-002  
  649.00  1.8377E-002  
  649.50  1.8428E-002  
  650.00  1.8575E-002  
  650.50  1.8712E-002  
  651.00  1.8708E-002  
  651.50  1.8660E-002  
  652.00  1.8636E-002  
  652.50  1.8749E-002  
  653.00  1.8830E-002  
  653.50  1.8916E-002  
  654.00  1.8908E-002  
  654.50  1.8940E-002  
  655.00  1.8968E-002  
  655.50  1.9049E-002  
  656.00  1.9096E-002  
  656.50  1.9192E-002  
  657.00  1.9244E-002  
  657.50  1.9311E-002  
  658.00  1.9311E-002  
  658.50  1.9322E-002  
  659.00  1.9335E-002  
  659.50  1.9412E-002  
  660.00  1.9454E-002  
  660.50  1.9483E-002  
  661.00  1.9505E-002  
  661.50  1.9523E-002  
  662.00  1.9478E-002  
  662.50  1.9403E-002  
  663.00  1.9314E-002  
  663.50  1.9363E-002  
  664.00  1.9397E-002  
  664.50  1.9587E-002  
  665.00  1.9684E-002  
  665.50  1.9760E-002  
  666.00  1.9721E-002  
  666.50  1.9747E-002  
  667.00  1.9828E-002  
  667.50  1.9901E-002  
  668.00  1.9873E-002  
  668.50  1.9775E-002  
  669.00  1.9721E-002  
  669.50  1.9758E-002  
  670.00  1.9914E-002  
  670.50  2.0034E-002  
  671.00  2.0177E-002  
  671.50  2.0211E-002  
  672.00  2.0222E-002  
  672.50  2.0216E-002  
  673.00  2.0189E-002  
  673.50  2.0165E-002  
  674.00  2.0185E-002  
  674.50  2.0255E-002  
  675.00  2.0451E-002  
  675.50  2.0494E-002  
  676.00  2.0521E-002  
  676.50  2.0466E-002  
  677.00  2.0475E-002  
  677.50  2.0486E-002  
  678.00  2.0493E-002  
  678.50  2.0552E-002  
  679.00  2.0618E-002  
  679.50  2.0642E-002  
  680.00  2.0703E-002  
  680.50  2.0792E-002  
  681.00  2.0815E-002  
  681.50  2.0797E-002  
  682.00  2.0754E-002  
  682.50  2.0876E-002  
  683.00  2.0915E-002  
  683.50  2.0935E-002  
  684.00  2.0907E-002  
  684.50  2.0926E-002  
  685.00  2.0925E-002  
  685.50  2.0987E-002  
  686.00  2.1123E-002  
  686.50  2.1301E-002  
  687.00  2.1420E-002  
  687.50  2.1467E-002  
  688.00  2.1482E-002  
  688.50  2.1453E-002  
  689.00  2.1465E-002  
  689.50  2.1512E-002  
  690.00  2.1586E-002  
  690.50  2.1631E-002  
  691.00  2.1659E-002  
  691.50  2.1605E-002  
  692.00  2.1608E-002  
  692.50  2.1686E-002  
  693.00  2.1873E-002  
  693.50  2.1896E-002  
  694.00  2.1877E-002  
  694.50  2.1852E-002  
  695.00  2.1954E-002  
  695.50  2.1996E-002  
  696.00  2.2016E-002  
  696.50  2.2105E-002  
  697.00  2.2222E-002  
  697.50  2.2330E-002  
  698.00  2.2298E-002  
  698.50  2.2336E-002  
  699.00  2.2338E-002  
  699.50  2.2407E-002  
  700.00  2.2471E-002  
  700.50  2.2555E-002  
  701.00  2.2691E-002  
  701.50  2.2710E-002  
  702.00  2.2613E-002  
  702.50  2.2571E-002  
  703.00  2.2634E-002  
  703.50  2.2804E-002  
  704.00  2.2870E-002  
  704.50  2.2910E-002  
  705.00  2.2927E-002  
  705.50  2.2888E-002  
  706.00  2.2853E-002  
  706.50  2.2983E-002  
  707.00  2.3171E-002  
  707.50  2.3333E-002  
  708.00  2.3313E-002  
  708.50  2.3329E-002  
  709.00  2.3423E-002  
  709.50  2.3516E-002  
  710.00  2.3522E-002  
  710.50  2.3430E-002  
  711.00  2.3420E-002  
  711.50  2.3370E-002  
  712.00  2.3424E-002  
  712.50  2.3476E-002  
  713.00  2.3483E-002  
  713.50  2.3560E-002  
  714.00  2.3621E-002  
  714.50  2.3808E-002  
  715.00  2.3815E-002  
  715.50  2.4001E-002  
  716.00  2.4089E-002  
  716.50  2.4232E-002  
  717.00  2.4173E-002  
  717.50  2.4075E-002  
  718.00  2.3962E-002  
  718.50  2.3942E-002  
  719.00  2.4036E-002  
  719.50  2.4301E-002  
  720.00  2.4543E-002  
  720.50  2.4713E-002  
  721.00  2.4681E-002  
  721.50  2.4485E-002  
  722.00  2.4348E-002  
  722.50  2.4339E-002  
  723.00  2.4458E-002  
  723.50  2.4482E-002  
  724.00  2.4551E-002  
  724.50  2.4715E-002  
  725.00  2.4832E-002  
  725.50  2.4855E-002  
  726.00  2.4942E-002  
  726.50  2.5147E-002  
  727.00  2.5200E-002  
  727.50  2.5068E-002  
  728.00  2.4914E-002  
  728.50  2.4938E-002  
  729.00  2.5082E-002  
  729.50  2.5180E-002  
  730.00  2.5269E-002  
  730.50  2.5287E-002  
  731.00  2.5446E-002  
  731.50  2.5521E-002  
  732.00  2.5626E-002  
  732.50  2.5629E-002  
  733.00  2.5759E-002  
  733.50  2.5897E-002  
  734.00  2.5984E-002  
  734.50  2.5930E-002  
  735.00  2.5870E-002  
  735.50  2.5788E-002  
  736.00  2.5777E-002  
  736.50  2.5842E-002  
  737.00  2.5999E-002  
  737.50  2.6075E-002  
  738.00  2.6173E-002  
  738.50  2.6203E-002  
  739.00  2.6202E-002  
  739.50  2.6191E-002  
  740.00  2.6229E-002  
  740.50  2.6231E-002  
  741.00  2.6332E-002  
  741.50  2.6361E-002  
  742.00  2.6381E-002  
  742.50  2.6335E-002  
  743.00  2.6441E-002  
  743.50  2.6734E-002  
  744.00  2.6975E-002  
  744.50  2.6968E-002  
  745.00  2.6739E-002  
  745.50  2.6748E-002  
  746.00  2.6949E-002  
  746.50  2.6944E-002  
  747.00  2.6738E-002  
  747.50  2.6660E-002  
  748.00  2.6877E-002  
  748.50  2.7011E-002  
  749.00  2.7068E-002  
  749.50  2.7196E-002  
  750.00  2.7348E-002  
  750.50  2.7362E-002  
  751.00  2.7230E-002  
  751.50  2.7229E-002  
  752.00  2.7211E-002  
  752.50  2.7247E-002  
  753.00  2.7556E-002  
  753.50  2.7806E-002  
  754.00  2.7840E-002  
  754.50  2.7723E-002  
  755.00  2.7712E-002  
  755.50  2.7828E-002  
  756.00  2.8037E-002  
  756.50  2.8115E-002  
  757.00  2.7882E-002  
  757.50  2.7757E-002  
  758.00  2.7762E-002  
  758.50  2.7875E-002  
  759.00  2.7886E-002  
  759.50  2.7934E-002  
  760.00  2.8064E-002  
  760.50  2.8168E-002  
  761.00  2.8282E-002  
  761.50  2.8305E-002  
  762.00  2.8421E-002  
  762.50  2.8697E-002  
  763.00  2.8670E-002  
  763.50  2.8614E-002  
  764.00  2.8364E-002  
  764.50  2.8468E-002  
  765.00  2.8689E-002  
  765.50  2.9061E-002  
  766.00  2.9092E-002  
  766.50  2.8999E-002  
  767.00  2.8863E-002  
  767.50  2.8991E-002  
  768.00  2.9211E-002  
  768.50  2.9258E-002  
  769.00  2.9204E-002  
  769.50  2.9042E-002  
  770.00  2.8972E-002  
  770.50  2.8904E-002  
  771.00  2.9062E-002  
  771.50  2.9243E-002  
  772.00  2.9275E-002  
  772.50  2.9087E-002  
  773.00  2.9010E-002  
  773.50  2.9059E-002  
  774.00  2.9140E-002  
  774.50  2.9115E-002  
  775.00  2.9178E-002  
  775.50  2.9379E-002  
  776.00  2.9413E-002  
  776.50  2.9425E-002  
  777.00  2.9498E-002  
  777.50  2.9706E-002  
  778.00  2.9885E-002  
  778.50  2.9826E-002  
  779.00  2.9620E-002  
  779.50  2.9517E-002  
  780.00  2.9699E-002  
  780.50  2.9870E-002  
  781.00  2.9889E-002  
  781.50  2.9950E-002  
  782.00  3.0262E-002  
  782.50  3.0464E-002  
  783.00  3.0487E-002  
  783.50  3.0335E-002  
  784.00  3.0126E-002  
  784.50  3.0153E-002  
  785.00  3.0426E-002  
  785.50  3.0541E-002  
  786.00  3.0430E-002  
  786.50  3.0345E-002  
  787.00  3.0356E-002  
  787.50  3.0523E-002  
  788.00  3.0636E-002  
  788.50  3.0741E-002  
  789.00  3.0852E-002  
  789.50  3.1060E-002  
  790.00  3.1106E-002  
  790.50  3.0766E-002  
  791.00  3.0593E-002  
  791.50  3.0544E-002  
  792.00  3.0613E-002  
  792.50  3.0673E-002  
  793.00  3.0830E-002  
  793.50  3.0905E-002  
  794.00  3.0831E-002  
  794.50  3.0794E-002  
  795.00  3.0869E-002  
  795.50  3.0832E-002  
  796.00  3.0900E-002  
  796.50  3.1147E-002  
  797.00  3.1334E-002  
  797.50  3.1176E-002  
  798.00  3.1091E-002  
  798.50  3.1207E-002  
  799.00  3.1294E-002  
  799.50  3.1555E-002  
  800.00  3.1713E-002  
  800.50  3.1680E-002  
  801.00  3.1284E-002  
  801.50  3.1300E-002  
  802.00  3.1514E-002  
  802.50  3.1859E-002  
  803.00  3.1720E-002  
  803.50  3.1406E-002  
  804.00  3.1205E-002  
  804.50  3.1280E-002  
  805.00  3.1654E-002  
  805.50  3.1908E-002  
  806.00  3.2153E-002  
  806.50  3.2422E-002  
  807.00  3.2177E-002  
  807.50  3.2011E-002  
  808.00  3.2095E-002  
  808.50  3.2495E-002  
  809.00  3.2521E-002  
  809.50  3.2617E-002  
  810.00  3.2747E-002  
  810.50  3.2761E-002  
  811.00  3.2334E-002  
  811.50  3.2327E-002  
  812.00  3.2756E-002  
  812.50  3.2981E-002  
  813.00  3.2757E-002  
  813.50  3.2391E-002  
  814.00  3.2502E-002  
  814.50  3.2844E-002  
  815.00  3.3158E-002  
  815.50  3.3246E-002  
  816.00  3.3056E-002  
  816.50  3.3036E-002  
  817.00  3.3113E-002  
  817.50  3.3028E-002  
  818.00  3.2526E-002  
  818.50  3.2112E-002  
  819.00  3.2172E-002  
  819.50  3.2429E-002  
  820.00  3.3034E-002  
  820.50  3.3140E-002  
  821.00  3.3307E-002  
  821.50  3.3522E-002  
  822.00  3.3739E-002  
  822.50  3.3678E-002  
  823.00  3.3553E-002  
  823.50  3.3443E-002  
  824.00  3.3492E-002  
  824.50  3.3408E-002  
  825.00  3.3344E-002  
  825.50  3.3577E-002  
  826.00  3.3897E-002  
  826.50  3.3847E-002  
  827.00  3.3485E-002  
  827.50  3.3512E-002  
  828.00  3.3793E-002  
  828.50  3.3659E-002  
  829.00  3.3280E-002  
  829.50  3.3034E-002  
  830.00  3.3148E-002  
  830.50  3.3565E-002  
  831.00  3.3776E-002  
  831.50  3.4068E-002  
  832.00  3.4197E-002  
  832.50  3.4004E-002  
  833.00  3.4162E-002  
  833.50  3.4166E-002  
  834.00  3.4123E-002  
  834.50  3.4223E-002  
  835.00  3.4459E-002  
  835.50  3.4648E-002  
  836.00  3.4364E-002  
  836.50  3.4412E-002  
  837.00  3.4482E-002  
  837.50  3.4591E-002  
  838.00  3.4867E-002  
  838.50  3.5473E-002  
  839.00  3.5500E-002  
  839.50  3.5249E-002  
  840.00  3.4802E-002  
  840.50  3.4301E-002  
  841.00  3.3913E-002  
  841.50  3.3940E-002  
  842.00  3.4423E-002  
  842.50  3.4530E-002  
  843.00  3.4326E-002  
  843.50  3.4413E-002  
  844.00  3.4827E-002  
  844.50  3.4812E-002  
  845.00  3.4382E-002  
  845.50  3.4458E-002  
  846.00  3.4618E-002  
  846.50  3.4872E-002  
  847.00  3.4953E-002  
  847.50  3.4951E-002  
  848.00  3.4801E-002  
  848.50  3.5007E-002  
  849.00  3.5171E-002  
  849.50  3.5137E-002  
  850.00  3.5309E-002  
  850.50  3.5460E-002  
  851.00  3.5595E-002  
  851.50  3.5347E-002  
  852.00  3.4823E-002  
  852.50  3.4765E-002  
  853.00  3.5052E-002  
  853.50  3.5224E-002  
  854.00  3.5038E-002  
  854.50  3.4950E-002  
  855.00  3.5241E-002  
  855.50  3.5506E-002  
  856.00  3.5686E-002  
  856.50  3.5502E-002  
  857.00  3.4781E-002  
  857.50  3.4203E-002  
  858.00  3.5016E-002  
  858.50  3.6143E-002  
  859.00  3.6054E-002  
  859.50  3.5772E-002  
  860.00  3.6180E-002  
  860.50  3.6027E-002  
  861.00  3.5954E-002  
  861.50  3.6778E-002  
  862.00  3.7105E-002  
  862.50  3.6657E-002  
  863.00  3.6569E-002  
  863.50  3.6527E-002  
  864.00  3.5854E-002  
  864.50  3.5213E-002  
  865.00  3.5456E-002  
  865.50  3.6184E-002  
  866.00  3.7041E-002  
  866.50  3.7667E-002  
  867.00  3.7764E-002  
  867.50  3.6956E-002  
  868.00  3.6154E-002  
  868.50  3.6066E-002  
  869.00  3.6238E-002  
  869.50  3.6873E-002  
  870.00  3.7290E-002  
  870.50  3.6526E-002  
  871.00  3.5832E-002  
  871.50  3.6785E-002  
  872.00  3.8004E-002  
  872.50  3.7259E-002  
  873.00  3.5802E-002  
  873.50  3.4891E-002  
  874.00  3.5265E-002  
  874.50  3.6414E-002  
  875.00  3.7338E-002  
  875.50  3.7663E-002  
  876.00  3.7054E-002  
  876.50  3.6545E-002  
  877.00  3.6960E-002  
  877.50  3.7128E-002  
  878.00  3.7432E-002  
  878.50  3.7532E-002  
  879.00  3.7915E-002  
  879.50  3.8299E-002  
  880.00  3.8034E-002  
  880.50  3.7497E-002  
  881.00  3.7413E-002  
  881.50  3.7848E-002  
  882.00  3.8367E-002  
  882.50  3.8114E-002  
  883.00  3.7649E-002  
  883.50  3.7840E-002  
  884.00  3.8377E-002  
  884.50  3.8179E-002  
  885.00  3.8536E-002  
  885.50  3.8545E-002  
  886.00  3.8231E-002  
  886.50  3.8410E-002  
  887.00  3.7995E-002  
  887.50  3.7411E-002  
  888.00  3.7697E-002  
  888.50  3.8010E-002  
  889.00  3.8006E-002  
  889.50  3.7343E-002  
  890.00  3.7231E-002  
  890.50  3.7596E-002  
  891.00  3.7684E-002  
  891.50  3.7072E-002  
  892.00  3.6572E-002  
  892.50  3.6925E-002  
  893.00  3.7316E-002  
  893.50  3.6914E-002  
  894.00  3.6614E-002  
  894.50  3.7808E-002  
  895.00  3.8778E-002  
  895.50  3.7888E-002  
  896.00  3.7781E-002  
  896.50  3.8941E-002  
  897.00  3.8094E-002  
  897.50  3.7434E-002  
  898.00  3.8243E-002  
  898.50  3.8459E-002  
  899.00  3.8063E-002  
  899.50  7.4841E-004  
