
# From lspdd.org
# 
# Name: INC Sylvania A19 Domestique
# Indice spectral Valeur 
# MSI 0.25 
# SLI 0.47 
# IPI 0.98 
# Pourcentage de bleu 10.4 
# Caractéristique Valeur 
# CCT calculée (K) 2475 
# CCT du fabricant (K) 2476 
# Tension (V) 120 
# Puissance (W) 60.0 
# Efficacité lumineuse (Lum/W) 14.1 
#
# Image: '/app/system/img_2s/2552/medium_image2.JPG?1413486267'
# Image: '/app/system/img_1s/2552/medium_image1.JPG?1413486267'
# 

  273.00  0.0000E+000  
  273.50  0.0000E+000  
  274.00  0.0000E+000  
  274.50  0.0000E+000  
  275.00  0.0000E+000  
  275.50  0.0000E+000  
  276.00  0.0000E+000  
  276.50  0.0000E+000  
  277.00  0.0000E+000  
  277.50  0.0000E+000  
  278.00  0.0000E+000  
  278.50  0.0000E+000  
  279.00  0.0000E+000  
  279.50  0.0000E+000  
  280.00  0.0000E+000  
  280.50  0.0000E+000  
  281.00  0.0000E+000  
  281.50  0.0000E+000  
  282.00  0.0000E+000  
  282.50  0.0000E+000  
  283.00  0.0000E+000  
  283.50  0.0000E+000  
  284.00  0.0000E+000  
  284.50  0.0000E+000  
  285.00  0.0000E+000  
  285.50  0.0000E+000  
  286.00  0.0000E+000  
  286.50  0.0000E+000  
  287.00  0.0000E+000  
  287.50  0.0000E+000  
  288.00  0.0000E+000  
  288.50  0.0000E+000  
  289.00  0.0000E+000  
  289.50  0.0000E+000  
  290.00  0.0000E+000  
  290.50  0.0000E+000  
  291.00  0.0000E+000  
  291.50  0.0000E+000  
  292.00  0.0000E+000  
  292.50  0.0000E+000  
  293.00  0.0000E+000  
  293.50  0.0000E+000  
  294.00  0.0000E+000  
  294.50  0.0000E+000  
  295.00  0.0000E+000  
  295.50  0.0000E+000  
  296.00  0.0000E+000  
  296.50  0.0000E+000  
  297.00  0.0000E+000  
  297.50  0.0000E+000  
  298.00  0.0000E+000  
  298.50  0.0000E+000  
  299.00  0.0000E+000  
  299.50  0.0000E+000  
  300.00  0.0000E+000  
  300.50  0.0000E+000  
  301.00  0.0000E+000  
  301.50  0.0000E+000  
  302.00  0.0000E+000  
  302.50  0.0000E+000  
  303.00  0.0000E+000  
  303.50  0.0000E+000  
  304.00  0.0000E+000  
  304.50  2.6835E-005  
  305.00  6.7295E-006  
  305.50  7.5460E-007  
  306.00  0.0000E+000  
  306.50  0.0000E+000  
  307.00  1.4021E-005  
  307.50  7.5814E-005  
  308.00  1.1080E-004  
  308.50  1.6161E-004  
  309.00  2.1924E-004  
  309.50  2.3014E-004  
  310.00  2.2379E-004  
  310.50  1.7793E-004  
  311.00  7.7479E-005  
  311.50  4.1895E-006  
  312.00  0.0000E+000  
  312.50  0.0000E+000  
  313.00  0.0000E+000  
  313.50  0.0000E+000  
  314.00  0.0000E+000  
  314.50  0.0000E+000  
  315.00  5.6293E-006  
  315.50  1.1821E-006  
  316.00  0.0000E+000  
  316.50  0.0000E+000  
  317.00  0.0000E+000  
  317.50  8.5989E-006  
  318.00  7.7912E-005  
  318.50  7.8434E-005  
  319.00  5.0477E-005  
  319.50  1.5284E-005  
  320.00  1.2371E-005  
  320.50  6.8391E-005  
  321.00  1.5681E-004  
  321.50  1.6321E-004  
  322.00  7.2943E-005  
  322.50  4.1328E-005  
  323.00  9.2950E-006  
  323.50  1.0698E-005  
  324.00  4.9643E-005  
  324.50  8.1539E-005  
  325.00  1.0175E-004  
  325.50  1.0983E-004  
  326.00  1.0953E-004  
  326.50  6.4945E-005  
  327.00  5.9145E-005  
  327.50  4.9071E-005  
  328.00  6.5083E-005  
  328.50  7.7814E-005  
  329.00  5.6988E-005  
  329.50  4.5423E-005  
  330.00  3.2239E-006  
  330.50  0.0000E+000  
  331.00  0.0000E+000  
  331.50  0.0000E+000  
  332.00  0.0000E+000  
  332.50  9.4561E-007  
  333.00  3.2899E-005  
  333.50  5.2338E-005  
  334.00  1.8551E-005  
  334.50  0.0000E+000  
  335.00  0.0000E+000  
  335.50  0.0000E+000  
  336.00  0.0000E+000  
  336.50  0.0000E+000  
  337.00  0.0000E+000  
  337.50  3.6425E-006  
  338.00  3.4340E-005  
  338.50  4.0646E-005  
  339.00  3.2738E-005  
  339.50  0.0000E+000  
  340.00  0.0000E+000  
  340.50  0.0000E+000  
  341.00  1.1838E-005  
  341.50  7.5913E-005  
  342.00  1.1622E-004  
  342.50  9.5120E-005  
  343.00  8.6259E-005  
  343.50  7.4133E-005  
  344.00  4.9706E-005  
  344.50  3.4657E-005  
  345.00  4.5280E-005  
  345.50  3.1854E-005  
  346.00  3.3971E-005  
  346.50  6.1047E-005  
  347.00  7.3090E-005  
  347.50  1.1704E-004  
  348.00  1.5267E-004  
  348.50  1.3802E-004  
  349.00  1.1841E-004  
  349.50  1.2293E-004  
  350.00  1.3529E-004  
  350.50  1.7487E-004  
  351.00  2.4270E-004  
  351.50  2.3781E-004  
  352.00  2.4227E-004  
  352.50  2.3303E-004  
  353.00  2.2146E-004  
  353.50  1.9747E-004  
  354.00  2.2187E-004  
  354.50  2.3145E-004  
  355.00  2.0367E-004  
  355.50  2.1194E-004  
  356.00  1.4871E-004  
  356.50  1.2038E-004  
  357.00  1.1095E-004  
  357.50  1.0054E-004  
  358.00  1.3823E-004  
  358.50  1.8951E-004  
  359.00  2.4583E-004  
  359.50  2.4865E-004  
  360.00  2.4028E-004  
  360.50  2.4024E-004  
  361.00  2.4757E-004  
  361.50  2.4323E-004  
  362.00  2.2575E-004  
  362.50  2.0122E-004  
  363.00  2.4521E-004  
  363.50  2.6469E-004  
  364.00  2.5873E-004  
  364.50  2.7976E-004  
  365.00  2.9614E-004  
  365.50  3.5830E-004  
  366.00  3.5085E-004  
  366.50  2.8141E-004  
  367.00  1.9158E-004  
  367.50  9.4513E-005  
  368.00  6.6583E-005  
  368.50  1.0904E-004  
  369.00  1.6513E-004  
  369.50  2.7145E-004  
  370.00  3.6287E-004  
  370.50  3.8756E-004  
  371.00  4.0901E-004  
  371.50  3.7437E-004  
  372.00  4.1077E-004  
  372.50  4.4369E-004  
  373.00  4.3458E-004  
  373.50  4.0598E-004  
  374.00  3.3186E-004  
  374.50  3.6763E-004  
  375.00  4.4443E-004  
  375.50  5.1254E-004  
  376.00  5.1174E-004  
  376.50  5.0769E-004  
  377.00  4.9760E-004  
  377.50  4.8921E-004  
  378.00  4.5549E-004  
  378.50  4.1955E-004  
  379.00  4.2646E-004  
  379.50  4.6377E-004  
  380.00  5.2084E-004  
  380.50  5.2994E-004  
  381.00  5.5818E-004  
  381.50  6.1316E-004  
  382.00  6.4692E-004  
  382.50  6.1275E-004  
  383.00  5.5145E-004  
  383.50  5.2023E-004  
  384.00  5.2358E-004  
  384.50  5.5969E-004  
  385.00  6.4264E-004  
  385.50  7.0034E-004  
  386.00  7.3796E-004  
  386.50  7.7064E-004  
  387.00  7.2991E-004  
  387.50  7.0074E-004  
  388.00  7.2049E-004  
  388.50  7.8484E-004  
  389.00  8.4292E-004  
  389.50  9.0938E-004  
  390.00  9.5871E-004  
  390.50  9.7186E-004  
  391.00  9.6439E-004  
  391.50  9.7471E-004  
  392.00  9.4721E-004  
  392.50  9.2535E-004  
  393.00  9.2653E-004  
  393.50  9.5176E-004  
  394.00  1.0037E-003  
  394.50  1.0542E-003  
  395.00  1.0757E-003  
  395.50  1.0594E-003  
  396.00  1.0678E-003  
  396.50  1.1240E-003  
  397.00  1.1875E-003  
  397.50  1.2383E-003  
  398.00  1.2920E-003  
  398.50  1.2913E-003  
  399.00  1.3325E-003  
  399.50  1.3577E-003  
  400.00  1.3868E-003  
  400.50  1.3909E-003  
  401.00  1.3979E-003  
  401.50  1.4252E-003  
  402.00  1.4763E-003  
  402.50  1.5275E-003  
  403.00  1.5487E-003  
  403.50  1.5423E-003  
  404.00  1.5388E-003  
  404.50  1.5914E-003  
  405.00  1.6086E-003  
  405.50  1.6533E-003  
  406.00  1.6865E-003  
  406.50  1.6884E-003  
  407.00  1.7636E-003  
  407.50  1.7869E-003  
  408.00  1.8105E-003  
  408.50  1.7886E-003  
  409.00  1.7541E-003  
  409.50  1.7753E-003  
  410.00  1.8205E-003  
  410.50  1.8739E-003  
  411.00  1.8995E-003  
  411.50  1.9443E-003  
  412.00  1.9490E-003  
  412.50  1.9772E-003  
  413.00  1.9666E-003  
  413.50  1.9401E-003  
  414.00  1.9720E-003  
  414.50  2.0182E-003  
  415.00  2.1015E-003  
  415.50  2.1592E-003  
  416.00  2.2098E-003  
  416.50  2.2294E-003  
  417.00  2.2588E-003  
  417.50  2.2311E-003  
  418.00  2.2174E-003  
  418.50  2.2368E-003  
  419.00  2.2581E-003  
  419.50  2.3612E-003  
  420.00  2.4266E-003  
  420.50  2.4592E-003  
  421.00  2.4477E-003  
  421.50  2.3989E-003  
  422.00  2.3843E-003  
  422.50  2.4436E-003  
  423.00  2.5024E-003  
  423.50  2.5777E-003  
  424.00  2.5993E-003  
  424.50  2.6029E-003  
  425.00  2.6368E-003  
  425.50  2.6853E-003  
  426.00  2.7432E-003  
  426.50  2.7848E-003  
  427.00  2.8001E-003  
  427.50  2.7654E-003  
  428.00  2.7881E-003  
  428.50  2.8083E-003  
  429.00  2.8910E-003  
  429.50  2.9460E-003  
  430.00  2.9485E-003  
  430.50  2.9531E-003  
  431.00  2.9632E-003  
  431.50  2.9997E-003  
  432.00  3.0385E-003  
  432.50  3.0883E-003  
  433.00  3.0999E-003  
  433.50  3.1587E-003  
  434.00  3.2025E-003  
  434.50  3.2137E-003  
  435.00  3.2519E-003  
  435.50  3.3261E-003  
  436.00  3.3493E-003  
  436.50  3.4090E-003  
  437.00  3.4272E-003  
  437.50  3.4144E-003  
  438.00  3.4409E-003  
  438.50  3.4395E-003  
  439.00  3.5084E-003  
  439.50  3.6095E-003  
  440.00  3.6976E-003  
  440.50  3.7711E-003  
  441.00  3.8032E-003  
  441.50  3.8307E-003  
  442.00  3.8079E-003  
  442.50  3.7856E-003  
  443.00  3.7512E-003  
  443.50  3.7922E-003  
  444.00  3.8803E-003  
  444.50  3.9410E-003  
  445.00  3.9776E-003  
  445.50  3.9477E-003  
  446.00  3.9576E-003  
  446.50  3.9548E-003  
  447.00  3.9869E-003  
  447.50  4.0615E-003  
  448.00  4.1412E-003  
  448.50  4.2126E-003  
  449.00  4.2598E-003  
  449.50  4.2904E-003  
  450.00  4.3168E-003  
  450.50  4.4011E-003  
  451.00  4.3951E-003  
  451.50  4.4288E-003  
  452.00  4.4768E-003  
  452.50  4.5586E-003  
  453.00  4.6140E-003  
  453.50  4.6126E-003  
  454.00  4.6014E-003  
  454.50  4.6242E-003  
  455.00  4.7049E-003  
  455.50  4.7678E-003  
  456.00  4.7989E-003  
  456.50  4.8335E-003  
  457.00  4.8637E-003  
  457.50  4.9415E-003  
  458.00  4.9909E-003  
  458.50  5.0665E-003  
  459.00  5.0791E-003  
  459.50  5.1095E-003  
  460.00  5.1074E-003  
  460.50  5.1236E-003  
  461.00  5.1884E-003  
  461.50  5.2387E-003  
  462.00  5.2498E-003  
  462.50  5.2699E-003  
  463.00  5.3273E-003  
  463.50  5.4071E-003  
  464.00  5.5090E-003  
  464.50  5.5501E-003  
  465.00  5.5444E-003  
  465.50  5.6253E-003  
  466.00  5.6865E-003  
  466.50  5.8148E-003  
  467.00  5.8723E-003  
  467.50  5.8826E-003  
  468.00  5.8954E-003  
  468.50  5.9304E-003  
  469.00  5.9826E-003  
  469.50  6.0080E-003  
  470.00  6.0207E-003  
  470.50  6.0569E-003  
  471.00  6.1091E-003  
  471.50  6.1916E-003  
  472.00  6.2458E-003  
  472.50  6.3008E-003  
  473.00  6.3608E-003  
  473.50  6.3894E-003  
  474.00  6.4500E-003  
  474.50  6.5056E-003  
  475.00  6.5679E-003  
  475.50  6.6360E-003  
  476.00  6.6751E-003  
  476.50  6.7142E-003  
  477.00  6.7333E-003  
  477.50  6.7494E-003  
  478.00  6.8151E-003  
  478.50  6.9510E-003  
  479.00  7.0751E-003  
  479.50  7.1676E-003  
  480.00  7.2168E-003  
  480.50  7.2392E-003  
  481.00  7.2879E-003  
  481.50  7.3320E-003  
  482.00  7.3152E-003  
  482.50  7.3274E-003  
  483.00  7.3203E-003  
  483.50  7.3536E-003  
  484.00  7.3985E-003  
  484.50  7.4231E-003  
  485.00  7.5264E-003  
  485.50  7.6474E-003  
  486.00  7.7855E-003  
  486.50  7.8502E-003  
  487.00  7.8855E-003  
  487.50  7.9294E-003  
  488.00  7.9947E-003  
  488.50  8.0769E-003  
  489.00  8.1625E-003  
  489.50  8.1973E-003  
  490.00  8.2186E-003  
  490.50  8.2140E-003  
  491.00  8.2648E-003  
  491.50  8.3124E-003  
  492.00  8.4069E-003  
  492.50  8.4846E-003  
  493.00  8.5770E-003  
  493.50  8.6570E-003  
  494.00  8.7308E-003  
  494.50  8.8009E-003  
  495.00  8.8552E-003  
  495.50  8.8904E-003  
  496.00  8.9250E-003  
  496.50  8.9905E-003  
  497.00  9.0761E-003  
  497.50  9.1785E-003  
  498.00  9.2572E-003  
  498.50  9.3286E-003  
  499.00  9.4005E-003  
  499.50  9.4815E-003  
  500.00  9.5733E-003  
  500.50  9.6546E-003  
  501.00  9.7230E-003  
  501.50  9.7930E-003  
  502.00  9.8819E-003  
  502.50  9.9442E-003  
  503.00  1.0005E-002  
  503.50  1.0059E-002  
  504.00  1.0180E-002  
  504.50  1.0323E-002  
  505.00  1.0434E-002  
  505.50  1.0493E-002  
  506.00  1.0507E-002  
  506.50  1.0569E-002  
  507.00  1.0646E-002  
  507.50  1.0734E-002  
  508.00  1.0815E-002  
  508.50  1.0911E-002  
  509.00  1.1037E-002  
  509.50  1.1198E-002  
  510.00  1.1325E-002  
  510.50  1.1402E-002  
  511.00  1.1480E-002  
  511.50  1.1541E-002  
  512.00  1.1625E-002  
  512.50  1.1713E-002  
  513.00  1.1800E-002  
  513.50  1.1905E-002  
  514.00  1.1989E-002  
  514.50  1.2079E-002  
  515.00  1.2165E-002  
  515.50  1.2274E-002  
  516.00  1.2424E-002  
  516.50  1.2577E-002  
  517.00  1.2725E-002  
  517.50  1.2806E-002  
  518.00  1.2866E-002  
  518.50  1.2970E-002  
  519.00  1.3083E-002  
  519.50  1.3166E-002  
  520.00  1.3224E-002  
  520.50  1.3302E-002  
  521.00  1.3405E-002  
  521.50  1.3548E-002  
  522.00  1.3639E-002  
  522.50  1.3760E-002  
  523.00  1.3880E-002  
  523.50  1.3990E-002  
  524.00  1.4109E-002  
  524.50  1.4197E-002  
  525.00  1.4325E-002  
  525.50  1.4454E-002  
  526.00  1.4590E-002  
  526.50  1.4733E-002  
  527.00  1.4829E-002  
  527.50  1.4933E-002  
  528.00  1.4976E-002  
  528.50  1.5034E-002  
  529.00  1.5129E-002  
  529.50  1.5285E-002  
  530.00  1.5466E-002  
  530.50  1.5621E-002  
  531.00  1.5756E-002  
  531.50  1.5865E-002  
  532.00  1.5968E-002  
  532.50  1.6090E-002  
  533.00  1.6231E-002  
  533.50  1.6318E-002  
  534.00  1.6413E-002  
  534.50  1.6514E-002  
  535.00  1.6612E-002  
  535.50  1.6701E-002  
  536.00  1.6803E-002  
  536.50  1.6930E-002  
  537.00  1.7095E-002  
  537.50  1.7225E-002  
  538.00  1.7360E-002  
  538.50  1.7468E-002  
  539.00  1.7570E-002  
  539.50  1.7660E-002  
  540.00  1.7768E-002  
  540.50  1.7876E-002  
  541.00  1.7939E-002  
  541.50  1.8033E-002  
  542.00  1.8181E-002  
  542.50  1.8373E-002  
  543.00  1.8545E-002  
  543.50  1.8682E-002  
  544.00  1.8849E-002  
  544.50  1.8996E-002  
  545.00  1.9140E-002  
  545.50  1.9235E-002  
  546.00  1.9300E-002  
  546.50  1.9410E-002  
  547.00  1.9483E-002  
  547.50  1.9564E-002  
  548.00  1.9658E-002  
  548.50  1.9754E-002  
  549.00  1.9846E-002  
  549.50  1.9941E-002  
  550.00  2.0072E-002  
  550.50  2.0246E-002  
  551.00  2.0403E-002  
  551.50  2.0560E-002  
  552.00  2.0737E-002  
  552.50  2.0914E-002  
  553.00  2.1028E-002  
  553.50  2.1156E-002  
  554.00  2.1321E-002  
  554.50  2.1461E-002  
  555.00  2.1523E-002  
  555.50  2.1588E-002  
  556.00  2.1646E-002  
  556.50  2.1808E-002  
  557.00  2.1938E-002  
  557.50  2.2099E-002  
  558.00  2.2237E-002  
  558.50  2.2330E-002  
  559.00  2.2453E-002  
  559.50  2.2604E-002  
  560.00  2.2775E-002  
  560.50  2.2910E-002  
  561.00  2.2989E-002  
  561.50  2.3027E-002  
  562.00  2.3177E-002  
  562.50  2.3280E-002  
  563.00  2.3376E-002  
  563.50  2.3456E-002  
  564.00  2.3511E-002  
  564.50  2.3621E-002  
  565.00  2.3749E-002  
  565.50  2.3887E-002  
  566.00  2.4053E-002  
  566.50  2.4167E-002  
  567.00  2.4256E-002  
  567.50  2.4305E-002  
  568.00  2.4395E-002  
  568.50  2.4526E-002  
  569.00  2.4668E-002  
  569.50  2.4824E-002  
  570.00  2.4974E-002  
  570.50  2.5116E-002  
  571.00  2.5248E-002  
  571.50  2.5399E-002  
  572.00  2.5558E-002  
  572.50  2.5695E-002  
  573.00  2.5736E-002  
  573.50  2.5736E-002  
  574.00  2.5763E-002  
  574.50  2.5847E-002  
  575.00  2.5990E-002  
  575.50  2.6159E-002  
  576.00  2.6318E-002  
  576.50  2.6390E-002  
  577.00  2.6483E-002  
  577.50  2.6610E-002  
  578.00  2.6750E-002  
  578.50  2.6892E-002  
  579.00  2.7001E-002  
  579.50  2.7182E-002  
  580.00  2.7307E-002  
  580.50  2.7449E-002  
  581.00  2.7535E-002  
  581.50  2.7703E-002  
  582.00  2.7834E-002  
  582.50  2.7907E-002  
  583.00  2.7941E-002  
  583.50  2.7993E-002  
  584.00  2.8071E-002  
  584.50  2.8159E-002  
  585.00  2.8210E-002  
  585.50  2.8319E-002  
  586.00  2.8451E-002  
  586.50  2.8585E-002  
  587.00  2.8675E-002  
  587.50  2.8718E-002  
  588.00  2.8803E-002  
  588.50  2.8919E-002  
  589.00  2.9001E-002  
  589.50  2.9151E-002  
  590.00  2.9286E-002  
  590.50  2.9511E-002  
  591.00  2.9663E-002  
  591.50  2.9751E-002  
  592.00  2.9778E-002  
  592.50  2.9898E-002  
  593.00  3.0051E-002  
  593.50  3.0193E-002  
  594.00  3.0289E-002  
  594.50  3.0363E-002  
  595.00  3.0508E-002  
  595.50  3.0571E-002  
  596.00  3.0562E-002  
  596.50  3.0516E-002  
  597.00  3.0599E-002  
  597.50  3.0738E-002  
  598.00  3.0948E-002  
  598.50  3.1069E-002  
  599.00  3.1143E-002  
  599.50  3.1169E-002  
  600.00  3.1202E-002  
  600.50  3.1285E-002  
  601.00  3.1413E-002  
  601.50  3.1518E-002  
  602.00  3.1673E-002  
  602.50  3.1747E-002  
  603.00  3.1879E-002  
  603.50  3.1983E-002  
  604.00  3.2124E-002  
  604.50  3.2179E-002  
  605.00  3.2244E-002  
  605.50  3.2344E-002  
  606.00  3.2411E-002  
  606.50  3.2502E-002  
  607.00  3.2578E-002  
  607.50  3.2736E-002  
  608.00  3.2860E-002  
  608.50  3.2997E-002  
  609.00  3.3127E-002  
  609.50  3.3188E-002  
  610.00  3.3176E-002  
  610.50  3.3174E-002  
  611.00  3.3257E-002  
  611.50  3.3378E-002  
  612.00  3.3497E-002  
  612.50  3.3587E-002  
  613.00  3.3694E-002  
  613.50  3.3807E-002  
  614.00  3.3883E-002  
  614.50  3.4057E-002  
  615.00  3.4218E-002  
  615.50  3.4350E-002  
  616.00  3.4372E-002  
  616.50  3.4378E-002  
  617.00  3.4412E-002  
  617.50  3.4397E-002  
  618.00  3.4435E-002  
  618.50  3.4537E-002  
  619.00  3.4665E-002  
  619.50  3.4678E-002  
  620.00  3.4770E-002  
  620.50  3.4928E-002  
  621.00  3.5206E-002  
  621.50  3.5342E-002  
  622.00  3.5406E-002  
  622.50  3.5406E-002  
  623.00  3.5446E-002  
  623.50  3.5582E-002  
  624.00  3.5739E-002  
  624.50  3.5789E-002  
  625.00  3.5720E-002  
  625.50  3.5655E-002  
  626.00  3.5766E-002  
  626.50  3.5911E-002  
  627.00  3.6006E-002  
  627.50  3.6021E-002  
  628.00  3.6158E-002  
  628.50  3.6247E-002  
  629.00  3.6377E-002  
  629.50  3.6475E-002  
  630.00  3.6630E-002  
  630.50  3.6685E-002  
  631.00  3.6635E-002  
  631.50  3.6647E-002  
  632.00  3.6746E-002  
  632.50  3.6897E-002  
  633.00  3.7036E-002  
  633.50  3.7192E-002  
  634.00  3.7314E-002  
  634.50  3.7322E-002  
  635.00  3.7375E-002  
  635.50  3.7414E-002  
  636.00  3.7519E-002  
  636.50  3.7504E-002  
  637.00  3.7572E-002  
  637.50  3.7723E-002  
  638.00  3.7902E-002  
  638.50  3.7985E-002  
  639.00  3.8057E-002  
  639.50  3.8131E-002  
  640.00  3.8225E-002  
  640.50  3.8289E-002  
  641.00  3.8440E-002  
  641.50  3.8576E-002  
  642.00  3.8751E-002  
  642.50  3.8888E-002  
  643.00  3.9032E-002  
  643.50  3.9099E-002  
  644.00  3.9050E-002  
  644.50  3.8960E-002  
  645.00  3.8917E-002  
  645.50  3.8974E-002  
  646.00  3.9148E-002  
  646.50  3.9275E-002  
  647.00  3.9368E-002  
  647.50  3.9428E-002  
  648.00  3.9517E-002  
  648.50  3.9583E-002  
  649.00  3.9581E-002  
  649.50  3.9663E-002  
  650.00  3.9883E-002  
  650.50  4.0098E-002  
  651.00  4.0198E-002  
  651.50  4.0145E-002  
  652.00  4.0080E-002  
  652.50  4.0037E-002  
  653.00  4.0081E-002  
  653.50  4.0185E-002  
  654.00  4.0268E-002  
  654.50  4.0339E-002  
  655.00  4.0524E-002  
  655.50  4.0705E-002  
  656.00  4.0812E-002  
  656.50  4.0797E-002  
  657.00  4.0877E-002  
  657.50  4.0910E-002  
  658.00  4.0990E-002  
  658.50  4.1019E-002  
  659.00  4.1213E-002  
  659.50  4.1356E-002  
  660.00  4.1515E-002  
  660.50  4.1542E-002  
  661.00  4.1597E-002  
  661.50  4.1646E-002  
  662.00  4.1686E-002  
  662.50  4.1711E-002  
  663.00  4.1711E-002  
  663.50  4.1748E-002  
  664.00  4.1845E-002  
  664.50  4.1979E-002  
  665.00  4.1998E-002  
  665.50  4.1925E-002  
  666.00  4.1917E-002  
  666.50  4.2036E-002  
  667.00  4.2176E-002  
  667.50  4.2282E-002  
  668.00  4.2280E-002  
  668.50  4.2265E-002  
  669.00  4.2206E-002  
  669.50  4.2241E-002  
  670.00  4.2293E-002  
  670.50  4.2387E-002  
  671.00  4.2543E-002  
  671.50  4.2742E-002  
  672.00  4.2780E-002  
  672.50  4.2837E-002  
  673.00  4.2818E-002  
  673.50  4.2887E-002  
  674.00  4.2959E-002  
  674.50  4.3128E-002  
  675.00  4.3221E-002  
  675.50  4.3262E-002  
  676.00  4.3323E-002  
  676.50  4.3408E-002  
  677.00  4.3516E-002  
  677.50  4.3609E-002  
  678.00  4.3723E-002  
  678.50  4.3788E-002  
  679.00  4.3740E-002  
  679.50  4.3738E-002  
  680.00  4.3749E-002  
  680.50  4.3901E-002  
  681.00  4.4006E-002  
  681.50  4.4127E-002  
  682.00  4.4288E-002  
  682.50  4.4434E-002  
  683.00  4.4509E-002  
  683.50  4.4455E-002  
  684.00  4.4482E-002  
  684.50  4.4350E-002  
  685.00  4.4375E-002  
  685.50  4.4433E-002  
  686.00  4.4701E-002  
  686.50  4.4827E-002  
  687.00  4.5048E-002  
  687.50  4.5272E-002  
  688.00  4.5459E-002  
  688.50  4.5437E-002  
  689.00  4.5374E-002  
  689.50  4.5491E-002  
  690.00  4.5717E-002  
  690.50  4.5814E-002  
  691.00  4.5798E-002  
  691.50  4.5786E-002  
  692.00  4.5783E-002  
  692.50  4.5721E-002  
  693.00  4.5736E-002  
  693.50  4.5959E-002  
  694.00  4.6260E-002  
  694.50  4.6489E-002  
  695.00  4.6625E-002  
  695.50  4.6614E-002  
  696.00  4.6682E-002  
  696.50  4.6784E-002  
  697.00  4.6968E-002  
  697.50  4.7052E-002  
  698.00  4.7090E-002  
  698.50  4.7211E-002  
  699.00  4.7284E-002  
  699.50  4.7333E-002  
  700.00  4.7345E-002  
  700.50  4.7476E-002  
  701.00  4.7611E-002  
  701.50  4.7654E-002  
  702.00  4.7580E-002  
  702.50  4.7535E-002  
  703.00  4.7658E-002  
  703.50  4.7848E-002  
  704.00  4.8103E-002  
  704.50  4.8364E-002  
  705.00  4.8522E-002  
  705.50  4.8463E-002  
  706.00  4.8362E-002  
  706.50  4.8509E-002  
  707.00  4.8674E-002  
  707.50  4.8846E-002  
  708.00  4.8781E-002  
  708.50  4.8717E-002  
  709.00  4.8765E-002  
  709.50  4.8984E-002  
  710.00  4.9177E-002  
  710.50  4.9201E-002  
  711.00  4.9256E-002  
  711.50  4.9319E-002  
  712.00  4.9387E-002  
  712.50  4.9575E-002  
  713.00  4.9803E-002  
  713.50  4.9947E-002  
  714.00  4.9834E-002  
  714.50  4.9817E-002  
  715.00  5.0012E-002  
  715.50  5.0242E-002  
  716.00  5.0477E-002  
  716.50  5.0539E-002  
  717.00  5.0551E-002  
  717.50  5.0422E-002  
  718.00  5.0365E-002  
  718.50  5.0332E-002  
  719.00  5.0406E-002  
  719.50  5.0538E-002  
  720.00  5.0670E-002  
  720.50  5.0788E-002  
  721.00  5.1077E-002  
  721.50  5.1212E-002  
  722.00  5.1159E-002  
  722.50  5.1229E-002  
  723.00  5.1555E-002  
  723.50  5.1732E-002  
  724.00  5.1746E-002  
  724.50  5.1699E-002  
  725.00  5.1809E-002  
  725.50  5.1909E-002  
  726.00  5.2037E-002  
  726.50  5.2245E-002  
  727.00  5.2387E-002  
  727.50  5.2324E-002  
  728.00  5.2147E-002  
  728.50  5.2249E-002  
  729.00  5.2639E-002  
  729.50  5.2898E-002  
  730.00  5.2810E-002  
  730.50  5.2843E-002  
  731.00  5.3078E-002  
  731.50  5.3334E-002  
  732.00  5.3382E-002  
  732.50  5.3365E-002  
  733.00  5.3391E-002  
  733.50  5.3504E-002  
  734.00  5.3526E-002  
  734.50  5.3580E-002  
  735.00  5.3572E-002  
  735.50  5.3706E-002  
  736.00  5.3893E-002  
  736.50  5.4137E-002  
  737.00  5.4198E-002  
  737.50  5.4048E-002  
  738.00  5.4006E-002  
  738.50  5.4340E-002  
  739.00  5.4778E-002  
  739.50  5.4963E-002  
  740.00  5.4892E-002  
  740.50  5.4796E-002  
  741.00  5.4987E-002  
  741.50  5.5163E-002  
  742.00  5.5350E-002  
  742.50  5.5317E-002  
  743.00  5.5379E-002  
  743.50  5.5642E-002  
  744.00  5.5962E-002  
  744.50  5.6116E-002  
  745.00  5.6081E-002  
  745.50  5.5966E-002  
  746.00  5.6155E-002  
  746.50  5.6200E-002  
  747.00  5.6267E-002  
  747.50  5.6230E-002  
  748.00  5.6398E-002  
  748.50  5.6369E-002  
  749.00  5.6307E-002  
  749.50  5.6340E-002  
  750.00  5.6509E-002  
  750.50  5.6539E-002  
  751.00  5.6453E-002  
  751.50  5.6437E-002  
  752.00  5.6504E-002  
  752.50  5.6719E-002  
  753.00  5.6810E-002  
  753.50  5.6929E-002  
  754.00  5.7019E-002  
  754.50  5.6996E-002  
  755.00  5.6938E-002  
  755.50  5.7211E-002  
  756.00  5.7708E-002  
  756.50  5.7775E-002  
  757.00  5.7752E-002  
  757.50  5.7634E-002  
  758.00  5.7914E-002  
  758.50  5.7865E-002  
  759.00  5.7817E-002  
  759.50  5.7735E-002  
  760.00  5.8019E-002  
  760.50  5.8048E-002  
  761.00  5.8100E-002  
  761.50  5.8343E-002  
  762.00  5.8713E-002  
  762.50  5.8945E-002  
  763.00  5.8836E-002  
  763.50  5.8728E-002  
  764.00  5.8599E-002  
  764.50  5.8699E-002  
  765.00  5.8826E-002  
  765.50  5.8952E-002  
  766.00  5.9040E-002  
  766.50  5.9179E-002  
  767.00  5.9193E-002  
  767.50  5.9159E-002  
  768.00  5.9293E-002  
  768.50  5.9391E-002  
  769.00  5.9383E-002  
  769.50  5.9157E-002  
  770.00  5.9393E-002  
  770.50  5.9346E-002  
  771.00  5.9358E-002  
  771.50  5.9346E-002  
  772.00  5.9567E-002  
  772.50  5.9650E-002  
  773.00  5.9924E-002  
  773.50  6.0096E-002  
  774.00  6.0173E-002  
  774.50  6.0252E-002  
  775.00  6.0421E-002  
  775.50  6.0649E-002  
  776.00  6.0653E-002  
  776.50  6.0367E-002  
  777.00  6.0173E-002  
  777.50  6.0352E-002  
  778.00  6.0618E-002  
  778.50  6.0502E-002  
  779.00  5.9898E-002  
  779.50  5.9620E-002  
  780.00  5.9927E-002  
  780.50  6.0543E-002  
  781.00  6.0875E-002  
  781.50  6.1299E-002  
  782.00  6.1685E-002  
  782.50  6.1699E-002  
  783.00  6.1477E-002  
  783.50  6.1463E-002  
  784.00  6.1361E-002  
  784.50  6.1227E-002  
  785.00  6.1192E-002  
  785.50  6.1619E-002  
  786.00  6.1979E-002  
  786.50  6.2135E-002  
  787.00  6.1697E-002  
  787.50  6.1534E-002  
  788.00  6.1768E-002  
  788.50  6.2304E-002  
  789.00  6.2624E-002  
  789.50  6.2667E-002  
  790.00  6.2476E-002  
  790.50  6.2386E-002  
  791.00  6.2537E-002  
  791.50  6.2602E-002  
  792.00  6.2766E-002  
  792.50  6.3066E-002  
  793.00  6.3265E-002  
  793.50  6.3089E-002  
  794.00  6.2911E-002  
  794.50  6.2839E-002  
  795.00  6.2863E-002  
  795.50  6.2639E-002  
  796.00  6.2793E-002  
  796.50  6.3022E-002  
  797.00  6.3173E-002  
  797.50  6.3064E-002  
  798.00  6.3330E-002  
  798.50  6.3642E-002  
  799.00  6.4020E-002  
  799.50  6.4353E-002  
  800.00  6.4458E-002  
  800.50  6.4193E-002  
  801.00  6.3876E-002  
  801.50  6.3943E-002  
  802.00  6.4622E-002  
  802.50  6.5168E-002  
  803.00  6.5072E-002  
  803.50  6.4554E-002  
  804.00  6.4174E-002  
  804.50  6.4179E-002  
  805.00  6.4622E-002  
  805.50  6.4977E-002  
  806.00  6.5095E-002  
  806.50  6.5008E-002  
  807.00  6.4696E-002  
  807.50  6.4657E-002  
  808.00  6.4854E-002  
  808.50  6.5169E-002  
  809.00  6.5190E-002  
  809.50  6.5233E-002  
  810.00  6.5470E-002  
  810.50  6.6003E-002  
  811.00  6.5583E-002  
  811.50  6.5185E-002  
  812.00  6.4881E-002  
  812.50  6.5021E-002  
  813.00  6.5312E-002  
  813.50  6.5792E-002  
  814.00  6.6080E-002  
  814.50  6.6344E-002  
  815.00  6.6477E-002  
  815.50  6.6496E-002  
  816.00  6.6242E-002  
  816.50  6.6557E-002  
  817.00  6.6623E-002  
  817.50  6.6323E-002  
  818.00  6.6118E-002  
  818.50  6.6424E-002  
  819.00  6.6343E-002  
  819.50  6.6373E-002  
  820.00  6.6959E-002  
  820.50  6.6931E-002  
  821.00  6.6817E-002  
  821.50  6.7081E-002  
  822.00  6.7250E-002  
  822.50  6.7600E-002  
  823.00  6.7758E-002  
  823.50  6.7504E-002  
  824.00  6.7003E-002  
  824.50  6.6776E-002  
  825.00  6.7130E-002  
  825.50  6.7111E-002  
  826.00  6.7166E-002  
  826.50  6.7231E-002  
  827.00  6.7033E-002  
  827.50  6.6827E-002  
  828.00  6.7179E-002  
  828.50  6.7552E-002  
  829.00  6.7450E-002  
  829.50  6.7139E-002  
  830.00  6.6949E-002  
  830.50  6.6968E-002  
  831.00  6.7067E-002  
  831.50  6.7496E-002  
  832.00  6.7952E-002  
  832.50  6.8368E-002  
  833.00  6.8223E-002  
  833.50  6.7624E-002  
  834.00  6.7591E-002  
  834.50  6.8432E-002  
  835.00  6.8963E-002  
  835.50  6.9409E-002  
  836.00  6.9154E-002  
  836.50  6.8775E-002  
  837.00  6.8520E-002  
  837.50  6.8736E-002  
  838.00  6.8703E-002  
  838.50  6.8762E-002  
  839.00  6.8963E-002  
  839.50  6.8884E-002  
  840.00  6.8682E-002  
  840.50  6.8561E-002  
  841.00  6.8562E-002  
  841.50  6.8516E-002  
  842.00  6.8445E-002  
  842.50  6.8551E-002  
  843.00  6.8359E-002  
  843.50  6.8617E-002  
  844.00  6.9239E-002  
  844.50  6.9414E-002  
  845.00  6.9177E-002  
  845.50  6.9054E-002  
  846.00  6.8485E-002  
  846.50  6.8550E-002  
  847.00  6.9034E-002  
  847.50  6.8909E-002  
  848.00  6.9060E-002  
  848.50  6.9623E-002  
  849.00  6.9705E-002  
  849.50  6.9629E-002  
  850.00  6.9920E-002  
  850.50  6.9979E-002  
  851.00  6.9697E-002  
  851.50  6.9651E-002  
  852.00  6.9768E-002  
  852.50  6.9427E-002  
  853.00  6.9375E-002  
  853.50  6.9649E-002  
  854.00  6.9579E-002  
  854.50  6.9133E-002  
  855.00  6.9438E-002  
  855.50  7.0060E-002  
  856.00  7.0422E-002  
  856.50  6.9598E-002  
  857.00  6.9566E-002  
  857.50  6.9999E-002  
  858.00  7.0736E-002  
  858.50  7.0880E-002  
  859.00  7.0676E-002  
  859.50  7.0488E-002  
  860.00  7.0435E-002  
  860.50  7.0409E-002  
  861.00  7.0042E-002  
  861.50  7.0002E-002  
  862.00  6.9909E-002  
  862.50  6.9692E-002  
  863.00  7.0184E-002  
  863.50  7.1223E-002  
  864.00  7.0787E-002  
  864.50  7.0536E-002  
  865.00  7.0857E-002  
  865.50  7.0980E-002  
  866.00  7.1435E-002  
  866.50  7.2247E-002  
  867.00  7.2168E-002  
  867.50  7.1969E-002  
  868.00  7.1145E-002  
  868.50  7.1598E-002  
  869.00  7.1992E-002  
  869.50  7.2530E-002  
  870.00  7.2836E-002  
  870.50  7.2467E-002  
  871.00  7.2188E-002  
  871.50  7.2786E-002  
  872.00  7.2684E-002  
  872.50  7.1916E-002  
  873.00  7.1815E-002  
  873.50  7.1756E-002  
  874.00  7.1566E-002  
  874.50  7.1444E-002  
  875.00  7.2377E-002  
  875.50  7.3250E-002  
  876.00  7.3721E-002  
  876.50  7.2901E-002  
  877.00  7.2048E-002  
  877.50  7.2025E-002  
  878.00  7.2987E-002  
  878.50  7.3666E-002  
  879.00  7.4483E-002  
  879.50  7.3741E-002  
  880.00  7.2056E-002  
  880.50  7.0996E-002  
  881.00  7.1653E-002  
  881.50  7.3107E-002  
  882.00  7.3576E-002  
  882.50  7.2707E-002  
  883.00  7.1852E-002  
  883.50  7.2240E-002  
  884.00  7.3985E-002  
  884.50  7.4723E-002  
  885.00  7.3930E-002  
  885.50  7.3139E-002  
  886.00  7.3994E-002  
  886.50  7.4812E-002  
  887.00  7.5306E-002  
  887.50  7.5348E-002  
  888.00  7.3872E-002  
  888.50  7.2957E-002  
  889.00  7.3767E-002  
  889.50  7.4806E-002  
  890.00  7.4114E-002  
  890.50  7.3124E-002  
  891.00  7.2091E-002  
  891.50  7.1854E-002  
  892.00  7.2433E-002  
  892.50  7.2539E-002  
  893.00  7.2624E-002  
  893.50  7.3117E-002  
  894.00  7.3029E-002  
  894.50  7.3297E-002  
  895.00  7.3798E-002  
  895.50  7.3811E-002  
  896.00  7.3736E-002  
  896.50  7.4162E-002  
  897.00  7.3084E-002  
  897.50  7.3234E-002  
  898.00  7.3516E-002  
  898.50  7.3882E-002  
  899.00  7.4341E-002  
  899.50  1.4665E-003  
