
# From lspdd.org
# 
# Name: INC Sylvania A21 Domestique
# Indice spectral Valeur 
# MSI 0.33 
# SLI 0.54 
# IPI 0.92 
# Pourcentage de bleu 14.4 
# Caractéristique Valeur 
# CCT calculée (K) 2805 
# CCT du fabricant (K) 2813 
# Tension (V) 120 
# Puissance (W) 150.0 
# Efficacité lumineuse (Lum/W) 17.6 
#
# Image: '/app/system/img_2s/2557/medium_image2.JPG?1413486295'
# Image: '/app/system/img_1s/2557/medium_image1.JPG?1413486296'
# 

  273.00  0.0000E+000  
  273.50  0.0000E+000  
  274.00  0.0000E+000  
  274.50  0.0000E+000  
  275.00  0.0000E+000  
  275.50  0.0000E+000  
  276.00  0.0000E+000  
  276.50  0.0000E+000  
  277.00  0.0000E+000  
  277.50  0.0000E+000  
  278.00  0.0000E+000  
  278.50  0.0000E+000  
  279.00  0.0000E+000  
  279.50  0.0000E+000  
  280.00  0.0000E+000  
  280.50  0.0000E+000  
  281.00  0.0000E+000  
  281.50  0.0000E+000  
  282.00  0.0000E+000  
  282.50  0.0000E+000  
  283.00  0.0000E+000  
  283.50  0.0000E+000  
  284.00  0.0000E+000  
  284.50  0.0000E+000  
  285.00  0.0000E+000  
  285.50  0.0000E+000  
  286.00  0.0000E+000  
  286.50  0.0000E+000  
  287.00  0.0000E+000  
  287.50  0.0000E+000  
  288.00  0.0000E+000  
  288.50  0.0000E+000  
  289.00  0.0000E+000  
  289.50  0.0000E+000  
  290.00  0.0000E+000  
  290.50  0.0000E+000  
  291.00  0.0000E+000  
  291.50  0.0000E+000  
  292.00  0.0000E+000  
  292.50  0.0000E+000  
  293.00  0.0000E+000  
  293.50  0.0000E+000  
  294.00  0.0000E+000  
  294.50  0.0000E+000  
  295.00  0.0000E+000  
  295.50  0.0000E+000  
  296.00  0.0000E+000  
  296.50  0.0000E+000  
  297.00  0.0000E+000  
  297.50  0.0000E+000  
  298.00  0.0000E+000  
  298.50  0.0000E+000  
  299.00  0.0000E+000  
  299.50  0.0000E+000  
  300.00  2.5505E-005  
  300.50  5.8066E-005  
  301.00  4.0189E-005  
  301.50  8.1751E-005  
  302.00  1.0755E-004  
  302.50  1.1821E-004  
  303.00  1.4028E-004  
  303.50  6.7826E-005  
  304.00  2.1793E-005  
  304.50  1.9850E-005  
  305.00  4.0176E-005  
  305.50  1.1304E-004  
  306.00  2.1387E-004  
  306.50  2.7022E-004  
  307.00  2.9001E-004  
  307.50  3.0265E-004  
  308.00  2.7008E-004  
  308.50  2.9136E-004  
  309.00  3.3174E-004  
  309.50  3.2351E-004  
  310.00  2.9054E-004  
  310.50  2.4567E-004  
  311.00  2.2599E-004  
  311.50  2.3328E-004  
  312.00  2.4151E-004  
  312.50  2.2742E-004  
  313.00  2.3332E-004  
  313.50  1.9363E-004  
  314.00  1.9544E-004  
  314.50  2.1479E-004  
  315.00  2.4123E-004  
  315.50  2.6129E-004  
  316.00  2.4015E-004  
  316.50  2.3723E-004  
  317.00  2.3975E-004  
  317.50  3.4292E-004  
  318.00  4.1619E-004  
  318.50  4.3785E-004  
  319.00  4.2067E-004  
  319.50  3.9858E-004  
  320.00  4.1006E-004  
  320.50  4.1348E-004  
  321.00  4.6032E-004  
  321.50  4.7221E-004  
  322.00  4.3626E-004  
  322.50  4.8567E-004  
  323.00  5.1762E-004  
  323.50  5.1617E-004  
  324.00  5.1816E-004  
  324.50  5.2289E-004  
  325.00  5.2834E-004  
  325.50  6.0638E-004  
  326.00  6.5909E-004  
  326.50  6.5489E-004  
  327.00  6.2296E-004  
  327.50  5.7385E-004  
  328.00  5.6907E-004  
  328.50  5.9607E-004  
  329.00  6.3944E-004  
  329.50  6.6830E-004  
  330.00  6.3618E-004  
  330.50  6.0309E-004  
  331.00  6.0586E-004  
  331.50  6.3468E-004  
  332.00  6.7911E-004  
  332.50  7.4711E-004  
  333.00  7.6160E-004  
  333.50  7.8613E-004  
  334.00  8.1524E-004  
  334.50  7.9296E-004  
  335.00  8.0735E-004  
  335.50  7.9342E-004  
  336.00  7.6363E-004  
  336.50  7.4410E-004  
  337.00  7.5628E-004  
  337.50  8.0572E-004  
  338.00  8.7467E-004  
  338.50  9.1459E-004  
  339.00  9.3145E-004  
  339.50  9.0695E-004  
  340.00  9.4103E-004  
  340.50  9.7341E-004  
  341.00  1.0075E-003  
  341.50  1.0626E-003  
  342.00  1.0895E-003  
  342.50  1.0933E-003  
  343.00  1.0891E-003  
  343.50  1.0785E-003  
  344.00  1.1019E-003  
  344.50  1.1814E-003  
  345.00  1.2376E-003  
  345.50  1.2283E-003  
  346.00  1.2160E-003  
  346.50  1.2266E-003  
  347.00  1.2970E-003  
  347.50  1.4358E-003  
  348.00  1.5276E-003  
  348.50  1.5285E-003  
  349.00  1.4803E-003  
  349.50  1.4241E-003  
  350.00  1.3989E-003  
  350.50  1.4030E-003  
  351.00  1.4692E-003  
  351.50  1.5204E-003  
  352.00  1.5855E-003  
  352.50  1.6407E-003  
  353.00  1.6651E-003  
  353.50  1.6552E-003  
  354.00  1.6670E-003  
  354.50  1.6640E-003  
  355.00  1.6560E-003  
  355.50  1.7236E-003  
  356.00  1.7647E-003  
  356.50  1.8427E-003  
  357.00  1.8938E-003  
  357.50  1.8873E-003  
  358.00  1.8905E-003  
  358.50  1.9233E-003  
  359.00  2.0162E-003  
  359.50  2.0778E-003  
  360.00  2.1123E-003  
  360.50  2.1296E-003  
  361.00  2.1222E-003  
  361.50  2.1630E-003  
  362.00  2.2126E-003  
  362.50  2.2258E-003  
  363.00  2.2612E-003  
  363.50  2.3135E-003  
  364.00  2.3906E-003  
  364.50  2.4456E-003  
  365.00  2.4662E-003  
  365.50  2.5177E-003  
  366.00  2.4865E-003  
  366.50  2.4744E-003  
  367.00  2.4780E-003  
  367.50  2.4266E-003  
  368.00  2.4235E-003  
  368.50  2.4730E-003  
  369.00  2.5621E-003  
  369.50  2.7302E-003  
  370.00  2.8536E-003  
  370.50  2.8727E-003  
  371.00  2.8549E-003  
  371.50  2.8235E-003  
  372.00  2.8780E-003  
  372.50  2.9687E-003  
  373.00  3.0170E-003  
  373.50  3.0752E-003  
  374.00  3.1022E-003  
  374.50  3.1790E-003  
  375.00  3.2433E-003  
  375.50  3.2746E-003  
  376.00  3.2685E-003  
  376.50  3.2290E-003  
  377.00  3.2257E-003  
  377.50  3.2659E-003  
  378.00  3.3206E-003  
  378.50  3.3452E-003  
  379.00  3.3746E-003  
  379.50  3.4656E-003  
  380.00  3.6124E-003  
  380.50  3.7540E-003  
  381.00  3.7961E-003  
  381.50  3.7571E-003  
  382.00  3.7157E-003  
  382.50  3.7118E-003  
  383.00  3.7441E-003  
  383.50  3.8421E-003  
  384.00  3.9298E-003  
  384.50  4.0317E-003  
  385.00  4.1536E-003  
  385.50  4.2307E-003  
  386.00  4.2815E-003  
  386.50  4.3121E-003  
  387.00  4.2996E-003  
  387.50  4.2535E-003  
  388.00  4.2640E-003  
  388.50  4.3261E-003  
  389.00  4.3816E-003  
  389.50  4.4886E-003  
  390.00  4.5767E-003  
  390.50  4.6674E-003  
  391.00  4.7007E-003  
  391.50  4.7759E-003  
  392.00  4.8292E-003  
  392.50  4.8801E-003  
  393.00  4.9414E-003  
  393.50  4.9218E-003  
  394.00  4.9172E-003  
  394.50  4.9525E-003  
  395.00  5.0184E-003  
  395.50  5.0717E-003  
  396.00  5.1029E-003  
  396.50  5.1267E-003  
  397.00  5.1359E-003  
  397.50  5.1841E-003  
  398.00  5.2923E-003  
  398.50  5.3627E-003  
  399.00  5.4540E-003  
  399.50  5.5167E-003  
  400.00  5.5308E-003  
  400.50  5.5327E-003  
  401.00  5.5622E-003  
  401.50  5.6032E-003  
  402.00  5.6931E-003  
  402.50  5.8090E-003  
  403.00  5.8705E-003  
  403.50  5.9328E-003  
  404.00  5.9906E-003  
  404.50  6.0385E-003  
  405.00  6.1022E-003  
  405.50  6.1794E-003  
  406.00  6.2432E-003  
  406.50  6.2959E-003  
  407.00  6.3561E-003  
  407.50  6.3820E-003  
  408.00  6.4306E-003  
  408.50  6.4685E-003  
  409.00  6.5183E-003  
  409.50  6.6046E-003  
  410.00  6.6982E-003  
  410.50  6.7694E-003  
  411.00  6.8347E-003  
  411.50  6.8892E-003  
  412.00  6.8738E-003  
  412.50  6.9016E-003  
  413.00  6.9433E-003  
  413.50  7.0723E-003  
  414.00  7.1964E-003  
  414.50  7.2291E-003  
  415.00  7.3059E-003  
  415.50  7.3474E-003  
  416.00  7.4940E-003  
  416.50  7.5807E-003  
  417.00  7.6046E-003  
  417.50  7.6234E-003  
  418.00  7.6857E-003  
  418.50  7.7853E-003  
  419.00  7.8803E-003  
  419.50  7.9278E-003  
  420.00  7.9487E-003  
  420.50  7.9797E-003  
  421.00  8.0131E-003  
  421.50  8.0393E-003  
  422.00  8.1394E-003  
  422.50  8.2662E-003  
  423.00  8.4259E-003  
  423.50  8.5673E-003  
  424.00  8.6599E-003  
  424.50  8.6877E-003  
  425.00  8.7317E-003  
  425.50  8.7373E-003  
  426.00  8.7741E-003  
  426.50  8.8013E-003  
  427.00  8.8503E-003  
  427.50  8.9024E-003  
  428.00  9.0005E-003  
  428.50  9.0542E-003  
  429.00  9.1213E-003  
  429.50  9.1823E-003  
  430.00  9.2251E-003  
  430.50  9.3391E-003  
  431.00  9.4702E-003  
  431.50  9.5883E-003  
  432.00  9.7132E-003  
  432.50  9.8132E-003  
  433.00  9.9174E-003  
  433.50  1.0030E-002  
  434.00  1.0118E-002  
  434.50  1.0153E-002  
  435.00  1.0197E-002  
  435.50  1.0300E-002  
  436.00  1.0345E-002  
  436.50  1.0385E-002  
  437.00  1.0407E-002  
  437.50  1.0464E-002  
  438.00  1.0577E-002  
  438.50  1.0703E-002  
  439.00  1.0794E-002  
  439.50  1.0910E-002  
  440.00  1.1030E-002  
  440.50  1.1145E-002  
  441.00  1.1223E-002  
  441.50  1.1264E-002  
  442.00  1.1276E-002  
  442.50  1.1310E-002  
  443.00  1.1351E-002  
  443.50  1.1449E-002  
  444.00  1.1556E-002  
  444.50  1.1678E-002  
  445.00  1.1767E-002  
  445.50  1.1818E-002  
  446.00  1.1915E-002  
  446.50  1.1993E-002  
  447.00  1.2125E-002  
  447.50  1.2225E-002  
  448.00  1.2332E-002  
  448.50  1.2432E-002  
  449.00  1.2490E-002  
  449.50  1.2544E-002  
  450.00  1.2620E-002  
  450.50  1.2712E-002  
  451.00  1.2811E-002  
  451.50  1.2924E-002  
  452.00  1.3035E-002  
  452.50  1.3153E-002  
  453.00  1.3196E-002  
  453.50  1.3193E-002  
  454.00  1.3148E-002  
  454.50  1.3205E-002  
  455.00  1.3331E-002  
  455.50  1.3517E-002  
  456.00  1.3672E-002  
  456.50  1.3822E-002  
  457.00  1.3926E-002  
  457.50  1.4088E-002  
  458.00  1.4215E-002  
  458.50  1.4294E-002  
  459.00  1.4337E-002  
  459.50  1.4364E-002  
  460.00  1.4452E-002  
  460.50  1.4546E-002  
  461.00  1.4628E-002  
  461.50  1.4645E-002  
  462.00  1.4676E-002  
  462.50  1.4811E-002  
  463.00  1.5027E-002  
  463.50  1.5203E-002  
  464.00  1.5371E-002  
  464.50  1.5428E-002  
  465.00  1.5493E-002  
  465.50  1.5630E-002  
  466.00  1.5691E-002  
  466.50  1.5816E-002  
  467.00  1.5836E-002  
  467.50  1.5920E-002  
  468.00  1.6009E-002  
  468.50  1.6081E-002  
  469.00  1.6184E-002  
  469.50  1.6240E-002  
  470.00  1.6390E-002  
  470.50  1.6531E-002  
  471.00  1.6606E-002  
  471.50  1.6651E-002  
  472.00  1.6690E-002  
  472.50  1.6796E-002  
  473.00  1.6930E-002  
  473.50  1.7095E-002  
  474.00  1.7252E-002  
  474.50  1.7405E-002  
  475.00  1.7527E-002  
  475.50  1.7595E-002  
  476.00  1.7632E-002  
  476.50  1.7716E-002  
  477.00  1.7819E-002  
  477.50  1.7966E-002  
  478.00  1.8043E-002  
  478.50  1.8183E-002  
  479.00  1.8392E-002  
  479.50  1.8592E-002  
  480.00  1.8799E-002  
  480.50  1.8867E-002  
  481.00  1.8917E-002  
  481.50  1.8939E-002  
  482.00  1.8988E-002  
  482.50  1.9035E-002  
  483.00  1.9104E-002  
  483.50  1.9240E-002  
  484.00  1.9386E-002  
  484.50  1.9485E-002  
  485.00  1.9582E-002  
  485.50  1.9675E-002  
  486.00  1.9765E-002  
  486.50  1.9877E-002  
  487.00  1.9951E-002  
  487.50  2.0081E-002  
  488.00  2.0205E-002  
  488.50  2.0355E-002  
  489.00  2.0481E-002  
  489.50  2.0570E-002  
  490.00  2.0673E-002  
  490.50  2.0786E-002  
  491.00  2.0966E-002  
  491.50  2.1106E-002  
  492.00  2.1216E-002  
  492.50  2.1282E-002  
  493.00  2.1412E-002  
  493.50  2.1581E-002  
  494.00  2.1727E-002  
  494.50  2.1852E-002  
  495.00  2.1931E-002  
  495.50  2.2028E-002  
  496.00  2.2152E-002  
  496.50  2.2307E-002  
  497.00  2.2491E-002  
  497.50  2.2691E-002  
  498.00  2.2830E-002  
  498.50  2.2950E-002  
  499.00  2.3051E-002  
  499.50  2.3132E-002  
  500.00  2.3293E-002  
  500.50  2.3449E-002  
  501.00  2.3629E-002  
  501.50  2.3825E-002  
  502.00  2.4016E-002  
  502.50  2.4194E-002  
  503.00  2.4340E-002  
  503.50  2.4438E-002  
  504.00  2.4549E-002  
  504.50  2.4736E-002  
  505.00  2.4947E-002  
  505.50  2.5187E-002  
  506.00  2.5342E-002  
  506.50  2.5473E-002  
  507.00  2.5606E-002  
  507.50  2.5791E-002  
  508.00  2.6015E-002  
  508.50  2.6230E-002  
  509.00  2.6397E-002  
  509.50  2.6568E-002  
  510.00  2.6727E-002  
  510.50  2.6895E-002  
  511.00  2.7064E-002  
  511.50  2.7260E-002  
  512.00  2.7480E-002  
  512.50  2.7698E-002  
  513.00  2.7864E-002  
  513.50  2.8058E-002  
  514.00  2.8208E-002  
  514.50  2.8361E-002  
  515.00  2.8520E-002  
  515.50  2.8677E-002  
  516.00  2.8940E-002  
  516.50  2.9190E-002  
  517.00  2.9435E-002  
  517.50  2.9634E-002  
  518.00  2.9814E-002  
  518.50  3.0014E-002  
  519.00  3.0194E-002  
  519.50  3.0315E-002  
  520.00  3.0481E-002  
  520.50  3.0698E-002  
  521.00  3.0968E-002  
  521.50  3.1182E-002  
  522.00  3.1379E-002  
  522.50  3.1574E-002  
  523.00  3.1753E-002  
  523.50  3.1908E-002  
  524.00  3.2110E-002  
  524.50  3.2331E-002  
  525.00  3.2604E-002  
  525.50  3.2829E-002  
  526.00  3.3059E-002  
  526.50  3.3299E-002  
  527.00  3.3494E-002  
  527.50  3.3605E-002  
  528.00  3.3678E-002  
  528.50  3.3820E-002  
  529.00  3.4059E-002  
  529.50  3.4339E-002  
  530.00  3.4633E-002  
  530.50  3.4886E-002  
  531.00  3.5126E-002  
  531.50  3.5349E-002  
  532.00  3.5547E-002  
  532.50  3.5718E-002  
  533.00  3.5886E-002  
  533.50  3.6041E-002  
  534.00  3.6250E-002  
  534.50  3.6532E-002  
  535.00  3.6756E-002  
  535.50  3.6943E-002  
  536.00  3.7121E-002  
  536.50  3.7295E-002  
  537.00  3.7561E-002  
  537.50  3.7806E-002  
  538.00  3.8053E-002  
  538.50  3.8200E-002  
  539.00  3.8331E-002  
  539.50  3.8490E-002  
  540.00  3.8740E-002  
  540.50  3.8983E-002  
  541.00  3.9155E-002  
  541.50  3.9359E-002  
  542.00  3.9603E-002  
  542.50  3.9879E-002  
  543.00  4.0075E-002  
  543.50  4.0234E-002  
  544.00  4.0397E-002  
  544.50  4.0584E-002  
  545.00  4.0790E-002  
  545.50  4.0941E-002  
  546.00  4.1095E-002  
  546.50  4.1307E-002  
  547.00  4.1513E-002  
  547.50  4.1712E-002  
  548.00  4.1908E-002  
  548.50  4.2102E-002  
  549.00  4.2360E-002  
  549.50  4.2550E-002  
  550.00  4.2779E-002  
  550.50  4.3068E-002  
  551.00  4.3357E-002  
  551.50  4.3637E-002  
  552.00  4.3801E-002  
  552.50  4.3938E-002  
  553.00  4.4104E-002  
  553.50  4.4339E-002  
  554.00  4.4619E-002  
  554.50  4.4789E-002  
  555.00  4.4932E-002  
  555.50  4.5134E-002  
  556.00  4.5346E-002  
  556.50  4.5534E-002  
  557.00  4.5719E-002  
  557.50  4.5886E-002  
  558.00  4.6156E-002  
  558.50  4.6415E-002  
  559.00  4.6647E-002  
  559.50  4.6791E-002  
  560.00  4.6931E-002  
  560.50  4.7038E-002  
  561.00  4.7177E-002  
  561.50  4.7323E-002  
  562.00  4.7611E-002  
  562.50  4.7925E-002  
  563.00  4.8178E-002  
  563.50  4.8291E-002  
  564.00  4.8416E-002  
  564.50  4.8570E-002  
  565.00  4.8698E-002  
  565.50  4.8849E-002  
  566.00  4.8995E-002  
  566.50  4.9215E-002  
  567.00  4.9411E-002  
  567.50  4.9581E-002  
  568.00  4.9758E-002  
  568.50  4.9983E-002  
  569.00  5.0217E-002  
  569.50  5.0465E-002  
  570.00  5.0644E-002  
  570.50  5.0730E-002  
  571.00  5.0795E-002  
  571.50  5.0859E-002  
  572.00  5.0961E-002  
  572.50  5.1082E-002  
  573.00  5.1213E-002  
  573.50  5.1394E-002  
  574.00  5.1585E-002  
  574.50  5.1894E-002  
  575.00  5.2148E-002  
  575.50  5.2364E-002  
  576.00  5.2445E-002  
  576.50  5.2581E-002  
  577.00  5.2765E-002  
  577.50  5.2920E-002  
  578.00  5.3058E-002  
  578.50  5.3259E-002  
  579.00  5.3425E-002  
  579.50  5.3564E-002  
  580.00  5.3633E-002  
  580.50  5.3821E-002  
  581.00  5.4053E-002  
  581.50  5.4241E-002  
  582.00  5.4435E-002  
  582.50  5.4581E-002  
  583.00  5.4707E-002  
  583.50  5.4859E-002  
  584.00  5.5009E-002  
  584.50  5.5273E-002  
  585.00  5.5460E-002  
  585.50  5.5627E-002  
  586.00  5.5776E-002  
  586.50  5.5875E-002  
  587.00  5.5936E-002  
  587.50  5.6046E-002  
  588.00  5.6253E-002  
  588.50  5.6561E-002  
  589.00  5.6723E-002  
  589.50  5.6891E-002  
  590.00  5.7048E-002  
  590.50  5.7196E-002  
  591.00  5.7288E-002  
  591.50  5.7357E-002  
  592.00  5.7382E-002  
  592.50  5.7547E-002  
  593.00  5.7697E-002  
  593.50  5.7888E-002  
  594.00  5.8003E-002  
  594.50  5.8080E-002  
  595.00  5.8251E-002  
  595.50  5.8368E-002  
  596.00  5.8555E-002  
  596.50  5.8668E-002  
  597.00  5.8864E-002  
  597.50  5.9010E-002  
  598.00  5.9086E-002  
  598.50  5.9116E-002  
  599.00  5.9185E-002  
  599.50  5.9338E-002  
  600.00  5.9527E-002  
  600.50  5.9704E-002  
  601.00  5.9782E-002  
  601.50  5.9894E-002  
  602.00  5.9984E-002  
  602.50  6.0070E-002  
  603.00  6.0103E-002  
  603.50  6.0128E-002  
  604.00  6.0272E-002  
  604.50  6.0503E-002  
  605.00  6.0824E-002  
  605.50  6.1060E-002  
  606.00  6.1130E-002  
  606.50  6.1110E-002  
  607.00  6.1108E-002  
  607.50  6.1280E-002  
  608.00  6.1393E-002  
  608.50  6.1569E-002  
  609.00  6.1697E-002  
  609.50  6.1853E-002  
  610.00  6.1900E-002  
  610.50  6.1853E-002  
  611.00  6.1948E-002  
  611.50  6.2163E-002  
  612.00  6.2352E-002  
  612.50  6.2455E-002  
  613.00  6.2497E-002  
  613.50  6.2518E-002  
  614.00  6.2691E-002  
  614.50  6.2860E-002  
  615.00  6.3040E-002  
  615.50  6.3143E-002  
  616.00  6.3186E-002  
  616.50  6.3312E-002  
  617.00  6.3366E-002  
  617.50  6.3433E-002  
  618.00  6.3507E-002  
  618.50  6.3592E-002  
  619.00  6.3651E-002  
  619.50  6.3706E-002  
  620.00  6.3739E-002  
  620.50  6.3834E-002  
  621.00  6.3919E-002  
  621.50  6.4001E-002  
  622.00  6.4096E-002  
  622.50  6.4192E-002  
  623.00  6.4429E-002  
  623.50  6.4656E-002  
  624.00  6.4794E-002  
  624.50  6.4786E-002  
  625.00  6.4674E-002  
  625.50  6.4669E-002  
  626.00  6.4750E-002  
  626.50  6.4933E-002  
  627.00  6.5134E-002  
  627.50  6.5265E-002  
  628.00  6.5381E-002  
  628.50  6.5452E-002  
  629.00  6.5594E-002  
  629.50  6.5684E-002  
  630.00  6.5831E-002  
  630.50  6.6004E-002  
  631.00  6.6146E-002  
  631.50  6.6231E-002  
  632.00  6.6162E-002  
  632.50  6.6144E-002  
  633.00  6.6175E-002  
  633.50  6.6218E-002  
  634.00  6.6410E-002  
  634.50  6.6606E-002  
  635.00  6.6810E-002  
  635.50  6.6865E-002  
  636.00  6.6759E-002  
  636.50  6.6749E-002  
  637.00  6.6878E-002  
  637.50  6.7146E-002  
  638.00  6.7414E-002  
  638.50  6.7542E-002  
  639.00  6.7598E-002  
  639.50  6.7611E-002  
  640.00  6.7674E-002  
  640.50  6.7698E-002  
  641.00  6.7743E-002  
  641.50  6.7863E-002  
  642.00  6.8107E-002  
  642.50  6.8243E-002  
  643.00  6.8222E-002  
  643.50  6.8188E-002  
  644.00  6.8308E-002  
  644.50  6.8549E-002  
  645.00  6.8840E-002  
  645.50  6.8914E-002  
  646.00  6.8852E-002  
  646.50  6.8714E-002  
  647.00  6.8792E-002  
  647.50  6.8973E-002  
  648.00  6.9197E-002  
  648.50  6.9338E-002  
  649.00  6.9379E-002  
  649.50  6.9349E-002  
  650.00  6.9315E-002  
  650.50  6.9389E-002  
  651.00  6.9514E-002  
  651.50  6.9605E-002  
  652.00  6.9638E-002  
  652.50  6.9769E-002  
  653.00  6.9774E-002  
  653.50  6.9916E-002  
  654.00  7.0022E-002  
  654.50  7.0084E-002  
  655.00  7.0028E-002  
  655.50  7.0022E-002  
  656.00  7.0158E-002  
  656.50  7.0359E-002  
  657.00  7.0365E-002  
  657.50  7.0428E-002  
  658.00  7.0501E-002  
  658.50  7.0711E-002  
  659.00  7.0827E-002  
  659.50  7.0857E-002  
  660.00  7.0873E-002  
  660.50  7.0980E-002  
  661.00  7.1048E-002  
  661.50  7.1022E-002  
  662.00  7.1008E-002  
  662.50  7.1157E-002  
  663.00  7.1273E-002  
  663.50  7.1385E-002  
  664.00  7.1388E-002  
  664.50  7.1419E-002  
  665.00  7.1347E-002  
  665.50  7.1332E-002  
  666.00  7.1328E-002  
  666.50  7.1449E-002  
  667.00  7.1532E-002  
  667.50  7.1749E-002  
  668.00  7.1830E-002  
  668.50  7.1865E-002  
  669.00  7.1744E-002  
  669.50  7.1693E-002  
  670.00  7.1737E-002  
  670.50  7.1736E-002  
  671.00  7.1804E-002  
  671.50  7.1938E-002  
  672.00  7.2072E-002  
  672.50  7.2167E-002  
  673.00  7.2221E-002  
  673.50  7.2385E-002  
  674.00  7.2550E-002  
  674.50  7.2607E-002  
  675.00  7.2651E-002  
  675.50  7.2668E-002  
  676.00  7.2623E-002  
  676.50  7.2779E-002  
  677.00  7.2919E-002  
  677.50  7.3181E-002  
  678.00  7.3167E-002  
  678.50  7.3173E-002  
  679.00  7.3060E-002  
  679.50  7.2998E-002  
  680.00  7.2983E-002  
  680.50  7.3204E-002  
  681.00  7.3415E-002  
  681.50  7.3505E-002  
  682.00  7.3572E-002  
  682.50  7.3524E-002  
  683.00  7.3366E-002  
  683.50  7.3412E-002  
  684.00  7.3600E-002  
  684.50  7.3823E-002  
  685.00  7.3884E-002  
  685.50  7.4062E-002  
  686.00  7.4336E-002  
  686.50  7.4442E-002  
  687.00  7.4501E-002  
  687.50  7.4512E-002  
  688.00  7.4579E-002  
  688.50  7.4584E-002  
  689.00  7.4646E-002  
  689.50  7.4764E-002  
  690.00  7.4992E-002  
  690.50  7.5249E-002  
  691.00  7.5359E-002  
  691.50  7.5434E-002  
  692.00  7.5380E-002  
  692.50  7.5505E-002  
  693.00  7.5680E-002  
  693.50  7.6035E-002  
  694.00  7.6101E-002  
  694.50  7.6136E-002  
  695.00  7.6038E-002  
  695.50  7.6035E-002  
  696.00  7.6051E-002  
  696.50  7.6183E-002  
  697.00  7.6397E-002  
  697.50  7.6567E-002  
  698.00  7.6631E-002  
  698.50  7.6705E-002  
  699.00  7.6683E-002  
  699.50  7.6826E-002  
  700.00  7.6979E-002  
  700.50  7.7178E-002  
  701.00  7.7400E-002  
  701.50  7.7495E-002  
  702.00  7.7659E-002  
  702.50  7.7838E-002  
  703.00  7.8081E-002  
  703.50  7.8378E-002  
  704.00  7.8587E-002  
  704.50  7.8638E-002  
  705.00  7.8517E-002  
  705.50  7.8378E-002  
  706.00  7.8335E-002  
  706.50  7.8435E-002  
  707.00  7.8575E-002  
  707.50  7.8636E-002  
  708.00  7.8634E-002  
  708.50  7.8848E-002  
  709.00  7.9108E-002  
  709.50  7.9286E-002  
  710.00  7.9462E-002  
  710.50  7.9726E-002  
  711.00  7.9974E-002  
  711.50  7.9872E-002  
  712.00  7.9773E-002  
  712.50  7.9835E-002  
  713.00  8.0111E-002  
  713.50  8.0356E-002  
  714.00  8.0422E-002  
  714.50  8.0560E-002  
  715.00  8.0721E-002  
  715.50  8.0928E-002  
  716.00  8.1160E-002  
  716.50  8.1270E-002  
  717.00  8.1235E-002  
  717.50  8.1213E-002  
  718.00  8.1307E-002  
  718.50  8.1380E-002  
  719.00  8.1576E-002  
  719.50  8.1791E-002  
  720.00  8.1941E-002  
  720.50  8.2021E-002  
  721.00  8.2142E-002  
  721.50  8.2169E-002  
  722.00  8.1991E-002  
  722.50  8.1898E-002  
  723.00  8.2182E-002  
  723.50  8.2467E-002  
  724.00  8.2519E-002  
  724.50  8.2492E-002  
  725.00  8.2873E-002  
  725.50  8.3411E-002  
  726.00  8.3696E-002  
  726.50  8.3640E-002  
  727.00  8.3435E-002  
  727.50  8.3270E-002  
  728.00  8.3302E-002  
  728.50  8.3538E-002  
  729.00  8.3830E-002  
  729.50  8.4066E-002  
  730.00  8.4185E-002  
  730.50  8.4424E-002  
  731.00  8.4758E-002  
  731.50  8.5015E-002  
  732.00  8.5094E-002  
  732.50  8.5075E-002  
  733.00  8.5130E-002  
  733.50  8.5278E-002  
  734.00  8.5473E-002  
  734.50  8.5572E-002  
  735.00  8.5539E-002  
  735.50  8.5660E-002  
  736.00  8.5876E-002  
  736.50  8.6070E-002  
  737.00  8.6108E-002  
  737.50  8.6133E-002  
  738.00  8.6036E-002  
  738.50  8.6198E-002  
  739.00  8.6448E-002  
  739.50  8.6856E-002  
  740.00  8.7141E-002  
  740.50  8.7082E-002  
  741.00  8.7115E-002  
  741.50  8.7086E-002  
  742.00  8.7257E-002  
  742.50  8.7571E-002  
  743.00  8.7999E-002  
  743.50  8.8063E-002  
  744.00  8.7875E-002  
  744.50  8.7864E-002  
  745.00  8.8148E-002  
  745.50  8.8168E-002  
  746.00  8.8262E-002  
  746.50  8.7967E-002  
  747.00  8.7857E-002  
  747.50  8.7831E-002  
  748.00  8.8331E-002  
  748.50  8.8684E-002  
  749.00  8.9099E-002  
  749.50  8.9135E-002  
  750.00  8.9270E-002  
  750.50  8.9193E-002  
  751.00  8.9286E-002  
  751.50  8.9307E-002  
  752.00  8.9461E-002  
  752.50  8.9562E-002  
  753.00  8.9489E-002  
  753.50  8.9237E-002  
  754.00  8.9103E-002  
  754.50  8.9398E-002  
  755.00  8.9934E-002  
  755.50  9.0358E-002  
  756.00  9.0399E-002  
  756.50  9.0160E-002  
  757.00  8.9962E-002  
  757.50  8.9933E-002  
  758.00  9.0129E-002  
  758.50  9.0393E-002  
  759.00  9.0511E-002  
  759.50  9.0381E-002  
  760.00  9.0331E-002  
  760.50  9.0457E-002  
  761.00  9.0856E-002  
  761.50  9.1188E-002  
  762.00  9.1357E-002  
  762.50  9.1682E-002  
  763.00  9.1535E-002  
  763.50  9.1554E-002  
  764.00  9.1388E-002  
  764.50  9.1625E-002  
  765.00  9.1607E-002  
  765.50  9.1617E-002  
  766.00  9.1587E-002  
  766.50  9.1838E-002  
  767.00  9.1818E-002  
  767.50  9.2004E-002  
  768.00  9.2374E-002  
  768.50  9.2531E-002  
  769.00  9.2233E-002  
  769.50  9.1964E-002  
  770.00  9.1967E-002  
  770.50  9.2140E-002  
  771.00  9.2303E-002  
  771.50  9.2482E-002  
  772.00  9.2762E-002  
  772.50  9.2894E-002  
  773.00  9.2888E-002  
  773.50  9.2857E-002  
  774.00  9.2736E-002  
  774.50  9.2723E-002  
  775.00  9.2631E-002  
  775.50  9.2941E-002  
  776.00  9.3084E-002  
  776.50  9.3419E-002  
  777.00  9.3488E-002  
  777.50  9.3527E-002  
  778.00  9.3429E-002  
  778.50  9.3549E-002  
  779.00  9.3612E-002  
  779.50  9.3225E-002  
  780.00  9.3145E-002  
  780.50  9.3462E-002  
  781.00  9.4194E-002  
  781.50  9.4612E-002  
  782.00  9.4796E-002  
  782.50  9.4542E-002  
  783.00  9.4281E-002  
  783.50  9.4272E-002  
  784.00  9.4558E-002  
  784.50  9.4817E-002  
  785.00  9.5026E-002  
  785.50  9.5090E-002  
  786.00  9.5182E-002  
  786.50  9.4940E-002  
  787.00  9.4532E-002  
  787.50  9.4574E-002  
  788.00  9.4993E-002  
  788.50  9.5338E-002  
  789.00  9.5649E-002  
  789.50  9.5802E-002  
  790.00  9.5891E-002  
  790.50  9.5283E-002  
  791.00  9.4936E-002  
  791.50  9.4829E-002  
  792.00  9.5312E-002  
  792.50  9.5328E-002  
  793.00  9.5873E-002  
  793.50  9.6043E-002  
  794.00  9.5868E-002  
  794.50  9.5686E-002  
  795.00  9.5697E-002  
  795.50  9.5753E-002  
  796.00  9.6129E-002  
  796.50  9.6798E-002  
  797.00  9.7123E-002  
  797.50  9.6865E-002  
  798.00  9.6638E-002  
  798.50  9.6647E-002  
  799.00  9.6806E-002  
  799.50  9.7159E-002  
  800.00  9.7321E-002  
  800.50  9.7321E-002  
  801.00  9.7242E-002  
  801.50  9.7353E-002  
  802.00  9.7493E-002  
  802.50  9.7569E-002  
  803.00  9.7494E-002  
  803.50  9.7291E-002  
  804.00  9.7476E-002  
  804.50  9.7736E-002  
  805.00  9.8576E-002  
  805.50  9.8710E-002  
  806.00  9.8789E-002  
  806.50  9.8873E-002  
  807.00  9.8544E-002  
  807.50  9.8262E-002  
  808.00  9.8459E-002  
  808.50  9.9026E-002  
  809.00  9.9019E-002  
  809.50  9.8926E-002  
  810.00  9.9130E-002  
  810.50  9.9269E-002  
  811.00  9.8668E-002  
  811.50  9.8393E-002  
  812.00  9.9072E-002  
  812.50  9.9589E-002  
  813.00  9.9820E-002  
  813.50  9.9693E-002  
  814.00  9.9822E-002  
  814.50  9.9883E-002  
  815.00  9.9855E-002  
  815.50  9.9752E-002  
  816.00  9.9630E-002  
  816.50  9.9857E-002  
  817.00  9.9624E-002  
  817.50  9.9024E-002  
  818.00  9.9062E-002  
  818.50  9.9234E-002  
  819.00  9.9335E-002  
  819.50  9.8891E-002  
  820.00  9.9186E-002  
  820.50  9.9286E-002  
  821.00  1.0000E-001  
  821.50  1.0009E-001  
  822.00  1.0006E-001  
  822.50  1.0022E-001  
  823.00  1.0096E-001  
  823.50  1.0066E-001  
  824.00  1.0007E-001  
  824.50  9.9732E-002  
  825.00  1.0055E-001  
  825.50  1.0055E-001  
  826.00  1.0021E-001  
  826.50  9.9840E-002  
  827.00  9.9769E-002  
  827.50  1.0011E-001  
  828.00  1.0058E-001  
  828.50  1.0032E-001  
  829.00  1.0047E-001  
  829.50  1.0095E-001  
  830.00  1.0138E-001  
  830.50  1.0114E-001  
  831.00  1.0083E-001  
  831.50  1.0082E-001  
  832.00  1.0087E-001  
  832.50  1.0103E-001  
  833.00  1.0128E-001  
  833.50  1.0070E-001  
  834.00  1.0013E-001  
  834.50  1.0066E-001  
  835.00  1.0105E-001  
  835.50  1.0127E-001  
  836.00  1.0121E-001  
  836.50  1.0046E-001  
  837.00  1.0028E-001  
  837.50  1.0076E-001  
  838.00  1.0172E-001  
  838.50  1.0248E-001  
  839.00  1.0242E-001  
  839.50  1.0181E-001  
  840.00  1.0135E-001  
  840.50  1.0140E-001  
  841.00  1.0112E-001  
  841.50  1.0075E-001  
  842.00  1.0074E-001  
  842.50  1.0130E-001  
  843.00  1.0152E-001  
  843.50  1.0172E-001  
  844.00  1.0177E-001  
  844.50  1.0212E-001  
  845.00  1.0238E-001  
  845.50  1.0225E-001  
  846.00  1.0178E-001  
  846.50  1.0211E-001  
  847.00  1.0237E-001  
  847.50  1.0182E-001  
  848.00  1.0141E-001  
  848.50  1.0169E-001  
  849.00  1.0199E-001  
  849.50  1.0176E-001  
  850.00  1.0180E-001  
  850.50  1.0225E-001  
  851.00  1.0281E-001  
  851.50  1.0289E-001  
  852.00  1.0274E-001  
  852.50  1.0246E-001  
  853.00  1.0255E-001  
  853.50  1.0244E-001  
  854.00  1.0185E-001  
  854.50  1.0164E-001  
  855.00  1.0252E-001  
  855.50  1.0331E-001  
  856.00  1.0347E-001  
  856.50  1.0250E-001  
  857.00  1.0198E-001  
  857.50  1.0221E-001  
  858.00  1.0276E-001  
  858.50  1.0272E-001  
  859.00  1.0319E-001  
  859.50  1.0325E-001  
  860.00  1.0390E-001  
  860.50  1.0415E-001  
  861.00  1.0371E-001  
  861.50  1.0337E-001  
  862.00  1.0319E-001  
  862.50  1.0357E-001  
  863.00  1.0500E-001  
  863.50  1.0488E-001  
  864.00  1.0308E-001  
  864.50  1.0234E-001  
  865.00  1.0216E-001  
  865.50  1.0355E-001  
  866.00  1.0504E-001  
  866.50  1.0471E-001  
  867.00  1.0351E-001  
  867.50  1.0298E-001  
  868.00  1.0288E-001  
  868.50  1.0354E-001  
  869.00  1.0444E-001  
  869.50  1.0536E-001  
  870.00  1.0552E-001  
  870.50  1.0508E-001  
  871.00  1.0467E-001  
  871.50  1.0537E-001  
  872.00  1.0642E-001  
  872.50  1.0549E-001  
  873.00  1.0419E-001  
  873.50  1.0352E-001  
  874.00  1.0364E-001  
  874.50  1.0368E-001  
  875.00  1.0434E-001  
  875.50  1.0507E-001  
  876.00  1.0581E-001  
  876.50  1.0614E-001  
  877.00  1.0650E-001  
  877.50  1.0619E-001  
  878.00  1.0643E-001  
  878.50  1.0646E-001  
  879.00  1.0604E-001  
  879.50  1.0538E-001  
  880.00  1.0510E-001  
  880.50  1.0536E-001  
  881.00  1.0570E-001  
  881.50  1.0585E-001  
  882.00  1.0590E-001  
  882.50  1.0557E-001  
  883.00  1.0498E-001  
  883.50  1.0560E-001  
  884.00  1.0643E-001  
  884.50  1.0697E-001  
  885.00  1.0730E-001  
  885.50  1.0714E-001  
  886.00  1.0723E-001  
  886.50  1.0634E-001  
  887.00  1.0684E-001  
  887.50  1.0705E-001  
  888.00  1.0675E-001  
  888.50  1.0631E-001  
  889.00  1.0632E-001  
  889.50  1.0595E-001  
  890.00  1.0631E-001  
  890.50  1.0637E-001  
  891.00  1.0556E-001  
  891.50  1.0533E-001  
  892.00  1.0609E-001  
  892.50  1.0672E-001  
  893.00  1.0637E-001  
  893.50  1.0532E-001  
  894.00  1.0474E-001  
  894.50  1.0573E-001  
  895.00  1.0678E-001  
  895.50  1.0714E-001  
  896.00  1.0747E-001  
  896.50  1.0846E-001  
  897.00  1.0752E-001  
  897.50  1.0546E-001  
  898.00  1.0486E-001  
  898.50  1.0544E-001  
  899.00  1.0590E-001  
  899.50  2.0918E-003  
