
# From lspdd.org
# 
# Name: LFC Elume Twister T2Domestique
# Indice spectral Valeur 
# MSI 0.27 
# SLI 0.44 
# IPI 0.56 
# Pourcentage de bleu 13.8 
# Caractéristique Valeur 
# CCT calculée (K) 2752 
# CCT du fabricant (K) 2700 
# Tension (V) 120 
# Puissance (W) 23.0 
# Efficacité lumineuse (Lum/W) 69.6 
#
# Image: '/app/system/img_2s/2558/medium_image2.JPG?1413486299'
# Image: '/app/system/img_1s/2558/medium_image1.JPG?1413486303'
# 

  273.00  0.0000E+000  
  273.50  0.0000E+000  
  274.00  0.0000E+000  
  274.50  0.0000E+000  
  275.00  0.0000E+000  
  275.50  0.0000E+000  
  276.00  0.0000E+000  
  276.50  0.0000E+000  
  277.00  0.0000E+000  
  277.50  0.0000E+000  
  278.00  0.0000E+000  
  278.50  0.0000E+000  
  279.00  0.0000E+000  
  279.50  0.0000E+000  
  280.00  0.0000E+000  
  280.50  0.0000E+000  
  281.00  0.0000E+000  
  281.50  0.0000E+000  
  282.00  0.0000E+000  
  282.50  0.0000E+000  
  283.00  0.0000E+000  
  283.50  0.0000E+000  
  284.00  0.0000E+000  
  284.50  0.0000E+000  
  285.00  0.0000E+000  
  285.50  0.0000E+000  
  286.00  0.0000E+000  
  286.50  0.0000E+000  
  287.00  0.0000E+000  
  287.50  0.0000E+000  
  288.00  0.0000E+000  
  288.50  0.0000E+000  
  289.00  0.0000E+000  
  289.50  0.0000E+000  
  290.00  0.0000E+000  
  290.50  0.0000E+000  
  291.00  0.0000E+000  
  291.50  0.0000E+000  
  292.00  0.0000E+000  
  292.50  0.0000E+000  
  293.00  0.0000E+000  
  293.50  0.0000E+000  
  294.00  0.0000E+000  
  294.50  0.0000E+000  
  295.00  0.0000E+000  
  295.50  0.0000E+000  
  296.00  0.0000E+000  
  296.50  0.0000E+000  
  297.00  0.0000E+000  
  297.50  0.0000E+000  
  298.00  0.0000E+000  
  298.50  0.0000E+000  
  299.00  0.0000E+000  
  299.50  0.0000E+000  
  300.00  0.0000E+000  
  300.50  0.0000E+000  
  301.00  0.0000E+000  
  301.50  0.0000E+000  
  302.00  0.0000E+000  
  302.50  0.0000E+000  
  303.00  0.0000E+000  
  303.50  0.0000E+000  
  304.00  0.0000E+000  
  304.50  0.0000E+000  
  305.00  0.0000E+000  
  305.50  0.0000E+000  
  306.00  0.0000E+000  
  306.50  0.0000E+000  
  307.00  0.0000E+000  
  307.50  0.0000E+000  
  308.00  0.0000E+000  
  308.50  0.0000E+000  
  309.00  0.0000E+000  
  309.50  0.0000E+000  
  310.00  0.0000E+000  
  310.50  0.0000E+000  
  311.00  0.0000E+000  
  311.50  0.0000E+000  
  312.00  0.0000E+000  
  312.50  6.9675E-006  
  313.00  1.2687E-006  
  313.50  0.0000E+000  
  314.00  0.0000E+000  
  314.50  0.0000E+000  
  315.00  0.0000E+000  
  315.50  0.0000E+000  
  316.00  0.0000E+000  
  316.50  0.0000E+000  
  317.00  0.0000E+000  
  317.50  0.0000E+000  
  318.00  0.0000E+000  
  318.50  0.0000E+000  
  319.00  0.0000E+000  
  319.50  0.0000E+000  
  320.00  0.0000E+000  
  320.50  0.0000E+000  
  321.00  0.0000E+000  
  321.50  0.0000E+000  
  322.00  0.0000E+000  
  322.50  0.0000E+000  
  323.00  0.0000E+000  
  323.50  0.0000E+000  
  324.00  0.0000E+000  
  324.50  0.0000E+000  
  325.00  0.0000E+000  
  325.50  0.0000E+000  
  326.00  0.0000E+000  
  326.50  0.0000E+000  
  327.00  0.0000E+000  
  327.50  0.0000E+000  
  328.00  0.0000E+000  
  328.50  0.0000E+000  
  329.00  0.0000E+000  
  329.50  0.0000E+000  
  330.00  0.0000E+000  
  330.50  0.0000E+000  
  331.00  0.0000E+000  
  331.50  0.0000E+000  
  332.00  0.0000E+000  
  332.50  0.0000E+000  
  333.00  4.3828E-006  
  333.50  1.1432E-004  
  334.00  1.8763E-004  
  334.50  1.5256E-004  
  335.00  6.6643E-005  
  335.50  1.9795E-005  
  336.00  2.1532E-008  
  336.50  1.6864E-005  
  337.00  2.8460E-006  
  337.50  0.0000E+000  
  338.00  0.0000E+000  
  338.50  0.0000E+000  
  339.00  8.4031E-006  
  339.50  1.9100E-006  
  340.00  8.0101E-006  
  340.50  5.2434E-005  
  341.00  9.8030E-005  
  341.50  1.8048E-004  
  342.00  1.8712E-004  
  342.50  1.4227E-004  
  343.00  7.2754E-005  
  343.50  4.1487E-006  
  344.00  0.0000E+000  
  344.50  1.7316E-005  
  345.00  9.5378E-005  
  345.50  1.2709E-004  
  346.00  1.6548E-004  
  346.50  2.0604E-004  
  347.00  2.0763E-004  
  347.50  2.3744E-004  
  348.00  2.7325E-004  
  348.50  2.7010E-004  
  349.00  2.1644E-004  
  349.50  1.8259E-004  
  350.00  1.8553E-004  
  350.50  2.4125E-004  
  351.00  2.9867E-004  
  351.50  2.7714E-004  
  352.00  2.3319E-004  
  352.50  2.4555E-004  
  353.00  2.8231E-004  
  353.50  2.9047E-004  
  354.00  3.3011E-004  
  354.50  3.0192E-004  
  355.00  2.7214E-004  
  355.50  2.8203E-004  
  356.00  2.7863E-004  
  356.50  3.1601E-004  
  357.00  4.0075E-004  
  357.50  4.4889E-004  
  358.00  4.6838E-004  
  358.50  5.0995E-004  
  359.00  5.5120E-004  
  359.50  6.3414E-004  
  360.00  6.9311E-004  
  360.50  7.7566E-004  
  361.00  8.2192E-004  
  361.50  8.5308E-004  
  362.00  9.2278E-004  
  362.50  1.0971E-003  
  363.00  2.3576E-003  
  363.50  6.2147E-003  
  364.00  1.2775E-002  
  364.50  1.9815E-002  
  365.00  2.3854E-002  
  365.50  2.2933E-002  
  366.00  1.7301E-002  
  366.50  1.1042E-002  
  367.00  6.1123E-003  
  367.50  3.3171E-003  
  368.00  1.8458E-003  
  368.50  1.1987E-003  
  369.00  9.6927E-004  
  369.50  8.3996E-004  
  370.00  7.5314E-004  
  370.50  7.0588E-004  
  371.00  6.3216E-004  
  371.50  5.9801E-004  
  372.00  5.7684E-004  
  372.50  5.4287E-004  
  373.00  4.7575E-004  
  373.50  3.7055E-004  
  374.00  3.1986E-004  
  374.50  3.1813E-004  
  375.00  4.2331E-004  
  375.50  5.4476E-004  
  376.00  6.0250E-004  
  376.50  5.9313E-004  
  377.00  5.3164E-004  
  377.50  4.9214E-004  
  378.00  5.2589E-004  
  378.50  6.1652E-004  
  379.00  6.6822E-004  
  379.50  7.3472E-004  
  380.00  7.5990E-004  
  380.50  8.0229E-004  
  381.00  8.2058E-004  
  381.50  7.4792E-004  
  382.00  6.6265E-004  
  382.50  5.3298E-004  
  383.00  4.2995E-004  
  383.50  3.5622E-004  
  384.00  3.4754E-004  
  384.50  4.3092E-004  
  385.00  5.1716E-004  
  385.50  5.9169E-004  
  386.00  5.8218E-004  
  386.50  5.4716E-004  
  387.00  4.9909E-004  
  387.50  4.2651E-004  
  388.00  3.3844E-004  
  388.50  3.0428E-004  
  389.00  2.6306E-004  
  389.50  2.7365E-004  
  390.00  3.1103E-004  
  390.50  3.4277E-004  
  391.00  3.8397E-004  
  391.50  3.8247E-004  
  392.00  3.4514E-004  
  392.50  2.7946E-004  
  393.00  2.6454E-004  
  393.50  2.6444E-004  
  394.00  2.9491E-004  
  394.50  3.3191E-004  
  395.00  2.9778E-004  
  395.50  2.9996E-004  
  396.00  2.8710E-004  
  396.50  2.9759E-004  
  397.00  3.2219E-004  
  397.50  2.9674E-004  
  398.00  3.2884E-004  
  398.50  4.0030E-004  
  399.00  4.7933E-004  
  399.50  5.6428E-004  
  400.00  6.3799E-004  
  400.50  6.7706E-004  
  401.00  7.6403E-004  
  401.50  8.5052E-004  
  402.00  1.0767E-003  
  402.50  2.4957E-003  
  403.00  9.4993E-003  
  403.50  2.3076E-002  
  404.00  3.8280E-002  
  404.50  4.5690E-002  
  405.00  4.1353E-002  
  405.50  2.7342E-002  
  406.00  1.3918E-002  
  406.50  6.7394E-003  
  407.00  5.1449E-003  
  407.50  5.0214E-003  
  408.00  4.5480E-003  
  408.50  3.3860E-003  
  409.00  2.0715E-003  
  409.50  1.2769E-003  
  410.00  9.7193E-004  
  410.50  9.1063E-004  
  411.00  9.1810E-004  
  411.50  9.1877E-004  
  412.00  8.9296E-004  
  412.50  8.5428E-004  
  413.00  8.2060E-004  
  413.50  7.9834E-004  
  414.00  7.7115E-004  
  414.50  7.7696E-004  
  415.00  8.1259E-004  
  415.50  8.5761E-004  
  416.00  9.3330E-004  
  416.50  9.5125E-004  
  417.00  9.3458E-004  
  417.50  9.0614E-004  
  418.00  8.7941E-004  
  418.50  8.0853E-004  
  419.00  7.3721E-004  
  419.50  7.1626E-004  
  420.00  7.6495E-004  
  420.50  8.7815E-004  
  421.00  9.2598E-004  
  421.50  9.4678E-004  
  422.00  9.2655E-004  
  422.50  9.0934E-004  
  423.00  9.2477E-004  
  423.50  9.3866E-004  
  424.00  9.5289E-004  
  424.50  9.8185E-004  
  425.00  1.0443E-003  
  425.50  1.1133E-003  
  426.00  1.1482E-003  
  426.50  1.1530E-003  
  427.00  1.1466E-003  
  427.50  1.1798E-003  
  428.00  1.2452E-003  
  428.50  1.2576E-003  
  429.00  1.2820E-003  
  429.50  1.3039E-003  
  430.00  1.3529E-003  
  430.50  1.4469E-003  
  431.00  1.5674E-003  
  431.50  1.7365E-003  
  432.00  1.9501E-003  
  432.50  2.2458E-003  
  433.00  2.7902E-003  
  433.50  5.1939E-003  
  434.00  1.5867E-002  
  434.50  4.5511E-002  
  435.00  8.7051E-002  
  435.50  1.1837E-001  
  436.00  1.1620E-001  
  436.50  8.5649E-002  
  437.00  4.5962E-002  
  437.50  1.8742E-002  
  438.00  7.5112E-003  
  438.50  4.2919E-003  
  439.00  3.0596E-003  
  439.50  2.5273E-003  
  440.00  2.1495E-003  
  440.50  1.8937E-003  
  441.00  1.7578E-003  
  441.50  1.6402E-003  
  442.00  1.6372E-003  
  442.50  1.5718E-003  
  443.00  1.5200E-003  
  443.50  1.4854E-003  
  444.00  1.4454E-003  
  444.50  1.4547E-003  
  445.00  1.4358E-003  
  445.50  1.4211E-003  
  446.00  1.4264E-003  
  446.50  1.3800E-003  
  447.00  1.3019E-003  
  447.50  1.1670E-003  
  448.00  1.0878E-003  
  448.50  1.1048E-003  
  449.00  1.1802E-003  
  449.50  1.2528E-003  
  450.00  1.2556E-003  
  450.50  1.2124E-003  
  451.00  1.1649E-003  
  451.50  1.1398E-003  
  452.00  1.1236E-003  
  452.50  1.1050E-003  
  453.00  1.0693E-003  
  453.50  1.0196E-003  
  454.00  1.0492E-003  
  454.50  1.0351E-003  
  455.00  1.0609E-003  
  455.50  1.0423E-003  
  456.00  1.0144E-003  
  456.50  9.9407E-004  
  457.00  9.6804E-004  
  457.50  9.8363E-004  
  458.00  9.8627E-004  
  458.50  1.0177E-003  
  459.00  1.0070E-003  
  459.50  1.0168E-003  
  460.00  1.0221E-003  
  460.50  1.0211E-003  
  461.00  1.0459E-003  
  461.50  1.0566E-003  
  462.00  1.0644E-003  
  462.50  1.0322E-003  
  463.00  9.8685E-004  
  463.50  9.6187E-004  
  464.00  9.6901E-004  
  464.50  9.8710E-004  
  465.00  1.0185E-003  
  465.50  1.0144E-003  
  466.00  1.0584E-003  
  466.50  1.1323E-003  
  467.00  1.2286E-003  
  467.50  1.2703E-003  
  468.00  1.2101E-003  
  468.50  1.0941E-003  
  469.00  9.6411E-004  
  469.50  9.0539E-004  
  470.00  8.7856E-004  
  470.50  9.5744E-004  
  471.00  1.0253E-003  
  471.50  1.0654E-003  
  472.00  1.0889E-003  
  472.50  1.0841E-003  
  473.00  1.1289E-003  
  473.50  1.1977E-003  
  474.00  1.2100E-003  
  474.50  1.1759E-003  
  475.00  1.1327E-003  
  475.50  1.1264E-003  
  476.00  1.1628E-003  
  476.50  1.1910E-003  
  477.00  1.2393E-003  
  477.50  1.3074E-003  
  478.00  1.4036E-003  
  478.50  1.5405E-003  
  479.00  1.7208E-003  
  479.50  1.9612E-003  
  480.00  2.3220E-003  
  480.50  2.7486E-003  
  481.00  3.2882E-003  
  481.50  3.9983E-003  
  482.00  4.9412E-003  
  482.50  6.1991E-003  
  483.00  7.7238E-003  
  483.50  9.5762E-003  
  484.00  1.1576E-002  
  484.50  1.3764E-002  
  485.00  1.6039E-002  
  485.50  1.8222E-002  
  486.00  2.0018E-002  
  486.50  2.1069E-002  
  487.00  2.1258E-002  
  487.50  2.0743E-002  
  488.00  1.9744E-002  
  488.50  1.8481E-002  
  489.00  1.7165E-002  
  489.50  1.5923E-002  
  490.00  1.5001E-002  
  490.50  1.4357E-002  
  491.00  1.3889E-002  
  491.50  1.3354E-002  
  492.00  1.2654E-002  
  492.50  1.1845E-002  
  493.00  1.1117E-002  
  493.50  1.0443E-002  
  494.00  9.8272E-003  
  494.50  9.2341E-003  
  495.00  8.6837E-003  
  495.50  8.1968E-003  
  496.00  7.7204E-003  
  496.50  7.2681E-003  
  497.00  6.8069E-003  
  497.50  6.3329E-003  
  498.00  5.8601E-003  
  498.50  5.3779E-003  
  499.00  4.9425E-003  
  499.50  4.5637E-003  
  500.00  4.1951E-003  
  500.50  3.7741E-003  
  501.00  3.3648E-003  
  501.50  2.9950E-003  
  502.00  2.7402E-003  
  502.50  2.5372E-003  
  503.00  2.3202E-003  
  503.50  2.1042E-003  
  504.00  1.8940E-003  
  504.50  1.7246E-003  
  505.00  1.6039E-003  
  505.50  1.5127E-003  
  506.00  1.4534E-003  
  506.50  1.3792E-003  
  507.00  1.3210E-003  
  507.50  1.2662E-003  
  508.00  1.2687E-003  
  508.50  1.2936E-003  
  509.00  1.3090E-003  
  509.50  1.2875E-003  
  510.00  1.2225E-003  
  510.50  1.1649E-003  
  511.00  1.1172E-003  
  511.50  1.1146E-003  
  512.00  1.1492E-003  
  512.50  1.1916E-003  
  513.00  1.2095E-003  
  513.50  1.1699E-003  
  514.00  1.1060E-003  
  514.50  1.0657E-003  
  515.00  1.0369E-003  
  515.50  1.0473E-003  
  516.00  1.0615E-003  
  516.50  1.0662E-003  
  517.00  1.0585E-003  
  517.50  1.0262E-003  
  518.00  1.0029E-003  
  518.50  9.8474E-004  
  519.00  1.0013E-003  
  519.50  1.0052E-003  
  520.00  1.0070E-003  
  520.50  1.0104E-003  
  521.00  1.0160E-003  
  521.50  1.0153E-003  
  522.00  1.0106E-003  
  522.50  1.0160E-003  
  523.00  1.0538E-003  
  523.50  1.1061E-003  
  524.00  1.1413E-003  
  524.50  1.1576E-003  
  525.00  1.1804E-003  
  525.50  1.2457E-003  
  526.00  1.3157E-003  
  526.50  1.4052E-003  
  527.00  1.4801E-003  
  527.50  1.5426E-003  
  528.00  1.5975E-003  
  528.50  1.6175E-003  
  529.00  1.6666E-003  
  529.50  1.7038E-003  
  530.00  1.7894E-003  
  530.50  1.8981E-003  
  531.00  2.1054E-003  
  531.50  2.5470E-003  
  532.00  3.3116E-003  
  532.50  4.3678E-003  
  533.00  5.3281E-003  
  533.50  5.7974E-003  
  534.00  5.7366E-003  
  534.50  5.5127E-003  
  535.00  5.6090E-003  
  535.50  6.3558E-003  
  536.00  7.8499E-003  
  536.50  1.0137E-002  
  537.00  1.3062E-002  
  537.50  1.6223E-002  
  538.00  1.9533E-002  
  538.50  2.3611E-002  
  539.00  2.9957E-002  
  539.50  4.0355E-002  
  540.00  5.6592E-002  
  540.50  7.7653E-002  
  541.00  9.8246E-002  
  541.50  1.1236E-001  
  542.00  1.1530E-001  
  542.50  1.1043E-001  
  543.00  1.0338E-001  
  543.50  9.8508E-002  
  544.00  1.0012E-001  
  544.50  1.0969E-001  
  545.00  1.2441E-001  
  545.50  1.3817E-001  
  546.00  1.4252E-001  
  546.50  1.3355E-001  
  547.00  1.1484E-001  
  547.50  9.3153E-002  
  548.00  7.5885E-002  
  548.50  6.4372E-002  
  549.00  5.5965E-002  
  549.50  4.8767E-002  
  550.00  4.2445E-002  
  550.50  3.6835E-002  
  551.00  3.1894E-002  
  551.50  2.7674E-002  
  552.00  2.4071E-002  
  552.50  2.1057E-002  
  553.00  1.8490E-002  
  553.50  1.6204E-002  
  554.00  1.4028E-002  
  554.50  1.1952E-002  
  555.00  1.0088E-002  
  555.50  8.6546E-003  
  556.00  7.5522E-003  
  556.50  6.7282E-003  
  557.00  6.0341E-003  
  557.50  5.4833E-003  
  558.00  5.0180E-003  
  558.50  4.6606E-003  
  559.00  4.3646E-003  
  559.50  4.1214E-003  
  560.00  3.9384E-003  
  560.50  3.7821E-003  
  561.00  3.6842E-003  
  561.50  3.6049E-003  
  562.00  3.5382E-003  
  562.50  3.4313E-003  
  563.00  3.2961E-003  
  563.50  3.1520E-003  
  564.00  3.0424E-003  
  564.50  2.8890E-003  
  565.00  2.7691E-003  
  565.50  2.6294E-003  
  566.00  2.5782E-003  
  566.50  2.5708E-003  
  567.00  2.5944E-003  
  567.50  2.6013E-003  
  568.00  2.6017E-003  
  568.50  2.5458E-003  
  569.00  2.4900E-003  
  569.50  2.3789E-003  
  570.00  2.2462E-003  
  570.50  2.1119E-003  
  571.00  1.9774E-003  
  571.50  1.8964E-003  
  572.00  1.8535E-003  
  572.50  1.8664E-003  
  573.00  1.9200E-003  
  573.50  2.0509E-003  
  574.00  2.2092E-003  
  574.50  2.5494E-003  
  575.00  3.8951E-003  
  575.50  8.1106E-003  
  576.00  1.5680E-002  
  576.50  2.3307E-002  
  577.00  2.6828E-002  
  577.50  2.5630E-002  
  578.00  2.4707E-002  
  578.50  2.7295E-002  
  579.00  3.0555E-002  
  579.50  3.0836E-002  
  580.00  2.7963E-002  
  580.50  2.4365E-002  
  581.00  2.2176E-002  
  581.50  2.1703E-002  
  582.00  2.3144E-002  
  582.50  2.5310E-002  
  583.00  2.7067E-002  
  583.50  2.7691E-002  
  584.00  2.7219E-002  
  584.50  2.6242E-002  
  585.00  2.5386E-002  
  585.50  2.6378E-002  
  586.00  3.0348E-002  
  586.50  3.7205E-002  
  587.00  4.2789E-002  
  587.50  4.2773E-002  
  588.00  3.6579E-002  
  588.50  2.7983E-002  
  589.00  2.1459E-002  
  589.50  1.8087E-002  
  590.00  1.7597E-002  
  590.50  1.8655E-002  
  591.00  2.1108E-002  
  591.50  2.5230E-002  
  592.00  3.0829E-002  
  592.50  3.6349E-002  
  593.00  3.9031E-002  
  593.50  3.6672E-002  
  594.00  3.0753E-002  
  594.50  2.4036E-002  
  595.00  1.9114E-002  
  595.50  1.6342E-002  
  596.00  1.5300E-002  
  596.50  1.5137E-002  
  597.00  1.5665E-002  
  597.50  1.7169E-002  
  598.00  1.9893E-002  
  598.50  2.3324E-002  
  599.00  2.6253E-002  
  599.50  2.6986E-002  
  600.00  2.5385E-002  
  600.50  2.1948E-002  
  601.00  1.8143E-002  
  601.50  1.4884E-002  
  602.00  1.2679E-002  
  602.50  1.1354E-002  
  603.00  1.0847E-002  
  603.50  1.0966E-002  
  604.00  1.1447E-002  
  604.50  1.2075E-002  
  605.00  1.2797E-002  
  605.50  1.3761E-002  
  606.00  1.5182E-002  
  606.50  1.7257E-002  
  607.00  2.0326E-002  
  607.50  2.4704E-002  
  608.00  3.1410E-002  
  608.50  4.2344E-002  
  609.00  6.1643E-002  
  609.50  9.8349E-002  
  610.00  1.4316E-001  
  610.50  1.8086E-001  
  611.00  2.0018E-001  
  611.50  2.0435E-001  
  612.00  2.0008E-001  
  612.50  1.8711E-001  
  613.00  1.6665E-001  
  613.50  1.4559E-001  
  614.00  1.2907E-001  
  614.50  1.1452E-001  
  615.00  9.8304E-002  
  615.50  8.0163E-002  
  616.00  6.2918E-002  
  616.50  4.8710E-002  
  617.00  3.8840E-002  
  617.50  3.1955E-002  
  618.00  2.7486E-002  
  618.50  2.4649E-002  
  619.00  2.3040E-002  
  619.50  2.2503E-002  
  620.00  2.2567E-002  
  620.50  2.2986E-002  
  621.00  2.3389E-002  
  621.50  2.3734E-002  
  622.00  2.4260E-002  
  622.50  2.5134E-002  
  623.00  2.6317E-002  
  623.50  2.7447E-002  
  624.00  2.8338E-002  
  624.50  2.8850E-002  
  625.00  2.9174E-002  
  625.50  2.9474E-002  
  626.00  2.9658E-002  
  626.50  2.9523E-002  
  627.00  2.9018E-002  
  627.50  2.8350E-002  
  628.00  2.7871E-002  
  628.50  2.8024E-002  
  629.00  2.9825E-002  
  629.50  3.4136E-002  
  630.00  4.1406E-002  
  630.50  4.8133E-002  
  631.00  5.0046E-002  
  631.50  4.4063E-002  
  632.00  3.3224E-002  
  632.50  2.2309E-002  
  633.00  1.4748E-002  
  633.50  1.0562E-002  
  634.00  8.6270E-003  
  634.50  7.6148E-003  
  635.00  7.0427E-003  
  635.50  6.6333E-003  
  636.00  6.2523E-003  
  636.50  5.8588E-003  
  637.00  5.4871E-003  
  637.50  5.1642E-003  
  638.00  4.8970E-003  
  638.50  4.6384E-003  
  639.00  4.3964E-003  
  639.50  4.2381E-003  
  640.00  4.1384E-003  
  640.50  4.0795E-003  
  641.00  4.0627E-003  
  641.50  4.0737E-003  
  642.00  4.1845E-003  
  642.50  4.2574E-003  
  643.00  4.3640E-003  
  643.50  4.3872E-003  
  644.00  4.4011E-003  
  644.50  4.3279E-003  
  645.00  4.2538E-003  
  645.50  4.1252E-003  
  646.00  4.0270E-003  
  646.50  3.9632E-003  
  647.00  3.9634E-003  
  647.50  4.0043E-003  
  648.00  4.1924E-003  
  648.50  4.8393E-003  
  649.00  6.4050E-003  
  649.50  9.1083E-003  
  650.00  1.1998E-002  
  650.50  1.3649E-002  
  651.00  1.2949E-002  
  651.50  1.0877E-002  
  652.00  8.7980E-003  
  652.50  7.7472E-003  
  653.00  7.2785E-003  
  653.50  6.7889E-003  
  654.00  5.9895E-003  
  654.50  5.0926E-003  
  655.00  4.4051E-003  
  655.50  4.0396E-003  
  656.00  3.9657E-003  
  656.50  4.1027E-003  
  657.00  4.3521E-003  
  657.50  4.5556E-003  
  658.00  4.5216E-003  
  658.50  4.1391E-003  
  659.00  3.5622E-003  
  659.50  3.0851E-003  
  660.00  2.8324E-003  
  660.50  3.0467E-003  
  661.00  3.9266E-003  
  661.50  5.6651E-003  
  662.00  7.4774E-003  
  662.50  8.4436E-003  
  663.00  7.9381E-003  
  663.50  6.5371E-003  
  664.00  5.0005E-003  
  664.50  3.8496E-003  
  665.00  3.1899E-003  
  665.50  2.8892E-003  
  666.00  2.7956E-003  
  666.50  2.8078E-003  
  667.00  2.8173E-003  
  667.50  2.8161E-003  
  668.00  2.7327E-003  
  668.50  2.6021E-003  
  669.00  2.5069E-003  
  669.50  2.4675E-003  
  670.00  2.4256E-003  
  670.50  2.3774E-003  
  671.00  2.3114E-003  
  671.50  2.2675E-003  
  672.00  2.2134E-003  
  672.50  2.1143E-003  
  673.00  2.0423E-003  
  673.50  1.9460E-003  
  674.00  1.8576E-003  
  674.50  1.7620E-003  
  675.00  1.6974E-003  
  675.50  1.6880E-003  
  676.00  1.6725E-003  
  676.50  1.6562E-003  
  677.00  1.6262E-003  
  677.50  1.6382E-003  
  678.00  1.6941E-003  
  678.50  1.7453E-003  
  679.00  1.8603E-003  
  679.50  1.9898E-003  
  680.00  2.1608E-003  
  680.50  2.2356E-003  
  681.00  2.2715E-003  
  681.50  2.2496E-003  
  682.00  2.2014E-003  
  682.50  2.0944E-003  
  683.00  1.9671E-003  
  683.50  1.8503E-003  
  684.00  1.8418E-003  
  684.50  1.9694E-003  
  685.00  2.2427E-003  
  685.50  2.7671E-003  
  686.00  3.7013E-003  
  686.50  5.0418E-003  
  687.00  6.6342E-003  
  687.50  7.7547E-003  
  688.00  7.8844E-003  
  688.50  6.8596E-003  
  689.00  5.2091E-003  
  689.50  3.7115E-003  
  690.00  2.6526E-003  
  690.50  2.0638E-003  
  691.00  1.7745E-003  
  691.50  1.6481E-003  
  692.00  1.8949E-003  
  692.50  2.8496E-003  
  693.00  4.2772E-003  
  693.50  5.4798E-003  
  694.00  5.4464E-003  
  694.50  4.2768E-003  
  695.00  2.8075E-003  
  695.50  1.7415E-003  
  696.00  1.3045E-003  
  696.50  1.1024E-003  
  697.00  9.7695E-004  
  697.50  8.2239E-004  
  698.00  7.2818E-004  
  698.50  7.1715E-004  
  699.00  7.7092E-004  
  699.50  8.4654E-004  
  700.00  8.7430E-004  
  700.50  8.9943E-004  
  701.00  8.9595E-004  
  701.50  1.0056E-003  
  702.00  1.1895E-003  
  702.50  1.5021E-003  
  703.00  1.8946E-003  
  703.50  2.5954E-003  
  704.00  3.4050E-003  
  704.50  4.5011E-003  
  705.00  6.2145E-003  
  705.50  9.3094E-003  
  706.00  1.3523E-002  
  706.50  1.7586E-002  
  707.00  1.9906E-002  
  707.50  2.0331E-002  
  708.00  2.0736E-002  
  708.50  2.2033E-002  
  709.00  2.2550E-002  
  709.50  1.9920E-002  
  710.00  1.4906E-002  
  710.50  1.0817E-002  
  711.00  1.0578E-002  
  711.50  1.3943E-002  
  712.00  1.7527E-002  
  712.50  1.8309E-002  
  713.00  1.5203E-002  
  713.50  1.0090E-002  
  714.00  5.5754E-003  
  714.50  2.7874E-003  
  715.00  1.4393E-003  
  715.50  8.4162E-004  
  716.00  5.4633E-004  
  716.50  4.3958E-004  
  717.00  4.6212E-004  
  717.50  4.2912E-004  
  718.00  3.8704E-004  
  718.50  3.6589E-004  
  719.00  4.0835E-004  
  719.50  4.2647E-004  
  720.00  2.5930E-004  
  720.50  1.5844E-004  
  721.00  1.2395E-004  
  721.50  1.3831E-004  
  722.00  8.7887E-005  
  722.50  5.4462E-005  
  723.00  6.6948E-005  
  723.50  5.9107E-007  
  724.00  0.0000E+000  
  724.50  0.0000E+000  
  725.00  5.0836E-005  
  725.50  9.9337E-005  
  726.00  1.3063E-004  
  726.50  1.0922E-004  
  727.00  7.7511E-005  
  727.50  1.6276E-004  
  728.00  2.8861E-004  
  728.50  2.4647E-004  
  729.00  1.7865E-004  
  729.50  2.3541E-004  
  730.00  4.1546E-004  
  730.50  4.5702E-004  
  731.00  3.1810E-004  
  731.50  1.5698E-004  
  732.00  3.5097E-006  
  732.50  0.0000E+000  
  733.00  0.0000E+000  
  733.50  0.0000E+000  
  734.00  0.0000E+000  
  734.50  0.0000E+000  
  735.00  0.0000E+000  
  735.50  0.0000E+000  
  736.00  0.0000E+000  
  736.50  0.0000E+000  
  737.00  0.0000E+000  
  737.50  7.8735E-006  
  738.00  2.0157E-004  
  738.50  2.7769E-004  
  739.00  1.9480E-004  
  739.50  3.7718E-005  
  740.00  7.2592E-007  
  740.50  1.1476E-004  
  741.00  2.1793E-004  
  741.50  2.0016E-004  
  742.00  2.7095E-004  
  742.50  4.6230E-004  
  743.00  4.8964E-004  
  743.50  2.8588E-004  
  744.00  7.5296E-005  
  744.50  0.0000E+000  
  745.00  0.0000E+000  
  745.50  0.0000E+000  
  746.00  0.0000E+000  
  746.50  0.0000E+000  
  747.00  0.0000E+000  
  747.50  0.0000E+000  
  748.00  0.0000E+000  
  748.50  0.0000E+000  
  749.00  0.0000E+000  
  749.50  1.3046E-004  
  750.00  4.9861E-004  
  750.50  4.1239E-004  
  751.00  2.6316E-004  
  751.50  5.0836E-005  
  752.00  1.1856E-004  
  752.50  0.0000E+000  
  753.00  0.0000E+000  
  753.50  0.0000E+000  
  754.00  0.0000E+000  
  754.50  0.0000E+000  
  755.00  0.0000E+000  
  755.50  0.0000E+000  
  756.00  0.0000E+000  
  756.50  0.0000E+000  
  757.00  0.0000E+000  
  757.50  0.0000E+000  
  758.00  0.0000E+000  
  758.50  0.0000E+000  
  759.00  0.0000E+000  
  759.50  0.0000E+000  
  760.00  0.0000E+000  
  760.50  0.0000E+000  
  761.00  0.0000E+000  
  761.50  0.0000E+000  
  762.00  1.6813E-005  
  762.50  5.7589E-004  
  763.00  1.7861E-003  
  763.50  2.7020E-003  
  764.00  2.4282E-003  
  764.50  1.2728E-003  
  765.00  2.9393E-004  
  765.50  0.0000E+000  
  766.00  0.0000E+000  
  766.50  0.0000E+000  
  767.00  0.0000E+000  
  767.50  0.0000E+000  
  768.00  0.0000E+000  
  768.50  0.0000E+000  
  769.00  0.0000E+000  
  769.50  0.0000E+000  
  770.00  0.0000E+000  
  770.50  0.0000E+000  
  771.00  0.0000E+000  
  771.50  0.0000E+000  
  772.00  1.1338E-004  
  772.50  3.4347E-004  
  773.00  3.1105E-004  
  773.50  8.6930E-005  
  774.00  1.7604E-005  
  774.50  0.0000E+000  
  775.00  0.0000E+000  
  775.50  0.0000E+000  
  776.00  0.0000E+000  
  776.50  0.0000E+000  
  777.00  0.0000E+000  
  777.50  0.0000E+000  
  778.00  0.0000E+000  
  778.50  0.0000E+000  
  779.00  0.0000E+000  
  779.50  0.0000E+000  
  780.00  0.0000E+000  
  780.50  0.0000E+000  
  781.00  0.0000E+000  
  781.50  0.0000E+000  
  782.00  0.0000E+000  
  782.50  0.0000E+000  
  783.00  0.0000E+000  
  783.50  0.0000E+000  
  784.00  0.0000E+000  
  784.50  0.0000E+000  
  785.00  0.0000E+000  
  785.50  0.0000E+000  
  786.00  0.0000E+000  
  786.50  0.0000E+000  
  787.00  0.0000E+000  
  787.50  0.0000E+000  
  788.00  0.0000E+000  
  788.50  0.0000E+000  
  789.00  0.0000E+000  
  789.50  0.0000E+000  
  790.00  0.0000E+000  
  790.50  0.0000E+000  
  791.00  0.0000E+000  
  791.50  0.0000E+000  
  792.00  0.0000E+000  
  792.50  0.0000E+000  
  793.00  0.0000E+000  
  793.50  0.0000E+000  
  794.00  0.0000E+000  
  794.50  9.7541E-005  
  795.00  2.3052E-004  
  795.50  0.0000E+000  
  796.00  0.0000E+000  
  796.50  0.0000E+000  
  797.00  0.0000E+000  
  797.50  0.0000E+000  
  798.00  0.0000E+000  
  798.50  0.0000E+000  
  799.00  0.0000E+000  
  799.50  0.0000E+000  
  800.00  0.0000E+000  
  800.50  2.9722E-004  
  801.00  6.6009E-004  
  801.50  6.8849E-004  
  802.00  2.6029E-004  
  802.50  0.0000E+000  
  803.00  0.0000E+000  
  803.50  0.0000E+000  
  804.00  0.0000E+000  
  804.50  0.0000E+000  
  805.00  0.0000E+000  
  805.50  0.0000E+000  
  806.00  0.0000E+000  
  806.50  0.0000E+000  
  807.00  0.0000E+000  
  807.50  0.0000E+000  
  808.00  0.0000E+000  
  808.50  1.1102E-004  
  809.00  9.8285E-004  
  809.50  1.4440E-003  
  810.00  1.7724E-003  
  810.50  2.7783E-003  
  811.00  4.3060E-003  
  811.50  4.8084E-003  
  812.00  3.6879E-003  
  812.50  1.8124E-003  
  813.00  1.7776E-004  
  813.50  0.0000E+000  
  814.00  0.0000E+000  
  814.50  0.0000E+000  
  815.00  0.0000E+000  
  815.50  0.0000E+000  
  816.00  0.0000E+000  
  816.50  0.0000E+000  
  817.00  0.0000E+000  
  817.50  0.0000E+000  
  818.00  0.0000E+000  
  818.50  0.0000E+000  
  819.00  0.0000E+000  
  819.50  0.0000E+000  
  820.00  0.0000E+000  
  820.50  0.0000E+000  
  821.00  0.0000E+000  
  821.50  0.0000E+000  
  822.00  0.0000E+000  
  822.50  0.0000E+000  
  823.00  0.0000E+000  
  823.50  0.0000E+000  
  824.00  0.0000E+000  
  824.50  0.0000E+000  
  825.00  0.0000E+000  
  825.50  0.0000E+000  
  826.00  0.0000E+000  
  826.50  0.0000E+000  
  827.00  0.0000E+000  
  827.50  0.0000E+000  
  828.00  0.0000E+000  
  828.50  0.0000E+000  
  829.00  0.0000E+000  
  829.50  0.0000E+000  
  830.00  0.0000E+000  
  830.50  0.0000E+000  
  831.00  0.0000E+000  
  831.50  0.0000E+000  
  832.00  0.0000E+000  
  832.50  0.0000E+000  
  833.00  0.0000E+000  
  833.50  0.0000E+000  
  834.00  0.0000E+000  
  834.50  0.0000E+000  
  835.00  0.0000E+000  
  835.50  0.0000E+000  
  836.00  0.0000E+000  
  836.50  0.0000E+000  
  837.00  0.0000E+000  
  837.50  0.0000E+000  
  838.00  0.0000E+000  
  838.50  0.0000E+000  
  839.00  0.0000E+000  
  839.50  0.0000E+000  
  840.00  0.0000E+000  
  840.50  1.9188E-005  
  841.00  5.8779E-004  
  841.50  8.9778E-004  
  842.00  9.4546E-004  
  842.50  6.6794E-004  
  843.00  2.6620E-004  
  843.50  0.0000E+000  
  844.00  0.0000E+000  
  844.50  0.0000E+000  
  845.00  0.0000E+000  
  845.50  0.0000E+000  
  846.00  0.0000E+000  
  846.50  0.0000E+000  
  847.00  0.0000E+000  
  847.50  0.0000E+000  
  848.00  0.0000E+000  
  848.50  0.0000E+000  
  849.00  0.0000E+000  
  849.50  0.0000E+000  
  850.00  0.0000E+000  
  850.50  0.0000E+000  
  851.00  0.0000E+000  
  851.50  0.0000E+000  
  852.00  0.0000E+000  
  852.50  0.0000E+000  
  853.00  0.0000E+000  
  853.50  0.0000E+000  
  854.00  0.0000E+000  
  854.50  0.0000E+000  
  855.00  0.0000E+000  
  855.50  0.0000E+000  
  856.00  0.0000E+000  
  856.50  0.0000E+000  
  857.00  0.0000E+000  
  857.50  0.0000E+000  
  858.00  0.0000E+000  
  858.50  0.0000E+000  
  859.00  0.0000E+000  
  859.50  0.0000E+000  
  860.00  0.0000E+000  
  860.50  0.0000E+000  
  861.00  0.0000E+000  
  861.50  0.0000E+000  
  862.00  0.0000E+000  
  862.50  0.0000E+000  
  863.00  0.0000E+000  
  863.50  0.0000E+000  
  864.00  0.0000E+000  
  864.50  0.0000E+000  
  865.00  0.0000E+000  
  865.50  0.0000E+000  
  866.00  0.0000E+000  
  866.50  0.0000E+000  
  867.00  0.0000E+000  
  867.50  0.0000E+000  
  868.00  0.0000E+000  
  868.50  0.0000E+000  
  869.00  0.0000E+000  
  869.50  0.0000E+000  
  870.00  2.8030E-005  
  870.50  7.9182E-004  
  871.00  9.7798E-004  
  871.50  1.3999E-004  
  872.00  0.0000E+000  
  872.50  0.0000E+000  
  873.00  0.0000E+000  
  873.50  0.0000E+000  
  874.00  0.0000E+000  
  874.50  0.0000E+000  
  875.00  0.0000E+000  
  875.50  0.0000E+000  
  876.00  0.0000E+000  
  876.50  0.0000E+000  
  877.00  0.0000E+000  
  877.50  0.0000E+000  
  878.00  0.0000E+000  
  878.50  0.0000E+000  
  879.00  0.0000E+000  
  879.50  0.0000E+000  
  880.00  0.0000E+000  
  880.50  0.0000E+000  
  881.00  0.0000E+000  
  881.50  0.0000E+000  
  882.00  0.0000E+000  
  882.50  0.0000E+000  
  883.00  0.0000E+000  
  883.50  0.0000E+000  
  884.00  0.0000E+000  
  884.50  0.0000E+000  
  885.00  0.0000E+000  
  885.50  0.0000E+000  
  886.00  0.0000E+000  
  886.50  0.0000E+000  
  887.00  0.0000E+000  
  887.50  0.0000E+000  
  888.00  0.0000E+000  
  888.50  0.0000E+000  
  889.00  0.0000E+000  
  889.50  0.0000E+000  
  890.00  0.0000E+000  
  890.50  0.0000E+000  
  891.00  0.0000E+000  
  891.50  0.0000E+000  
  892.00  0.0000E+000  
  892.50  0.0000E+000  
  893.00  0.0000E+000  
  893.50  0.0000E+000  
  894.00  0.0000E+000  
  894.50  0.0000E+000  
  895.00  0.0000E+000  
  895.50  0.0000E+000  
  896.00  0.0000E+000  
  896.50  0.0000E+000  
  897.00  0.0000E+000  
  897.50  0.0000E+000  
  898.00  0.0000E+000  
  898.50  0.0000E+000  
  899.00  0.0000E+000  
  899.50  0.0000E+000  
