
# From lspdd.org
# 
# Name: DEL Philips Encaster 4 inch Calculite Domestique
# Indice spectral Valeur 
# MSI 0.26 
# SLI 0.47 
# IPI 0.64 
# Pourcentage de bleu 17.5 
# Caractéristique Valeur 
# CCT calculée (K) 2790 
# CCT du fabricant (K) 3000 
# Tension (V) ND 
# Puissance (W) 20.0 
# Efficacité lumineuse (Lum/W) ND 
#
# Image: '/app/system/img_2s/2559/medium_image2.JPG?1413486307'
# Image: '/app/system/img_1s/2559/medium_image1.jpg?1413486320'
# 

  273.00  0.0000E+000  
  273.50  0.0000E+000  
  274.00  0.0000E+000  
  274.50  0.0000E+000  
  275.00  0.0000E+000  
  275.50  0.0000E+000  
  276.00  0.0000E+000  
  276.50  0.0000E+000  
  277.00  0.0000E+000  
  277.50  0.0000E+000  
  278.00  0.0000E+000  
  278.50  0.0000E+000  
  279.00  0.0000E+000  
  279.50  0.0000E+000  
  280.00  0.0000E+000  
  280.50  0.0000E+000  
  281.00  0.0000E+000  
  281.50  0.0000E+000  
  282.00  0.0000E+000  
  282.50  0.0000E+000  
  283.00  0.0000E+000  
  283.50  0.0000E+000  
  284.00  0.0000E+000  
  284.50  0.0000E+000  
  285.00  0.0000E+000  
  285.50  0.0000E+000  
  286.00  0.0000E+000  
  286.50  0.0000E+000  
  287.00  0.0000E+000  
  287.50  0.0000E+000  
  288.00  0.0000E+000  
  288.50  0.0000E+000  
  289.00  0.0000E+000  
  289.50  0.0000E+000  
  290.00  0.0000E+000  
  290.50  0.0000E+000  
  291.00  0.0000E+000  
  291.50  0.0000E+000  
  292.00  0.0000E+000  
  292.50  0.0000E+000  
  293.00  0.0000E+000  
  293.50  0.0000E+000  
  294.00  0.0000E+000  
  294.50  0.0000E+000  
  295.00  0.0000E+000  
  295.50  0.0000E+000  
  296.00  0.0000E+000  
  296.50  0.0000E+000  
  297.00  0.0000E+000  
  297.50  0.0000E+000  
  298.00  0.0000E+000  
  298.50  0.0000E+000  
  299.00  0.0000E+000  
  299.50  0.0000E+000  
  300.00  3.9659E-005  
  300.50  7.8960E-005  
  301.00  5.1530E-006  
  301.50  0.0000E+000  
  302.00  0.0000E+000  
  302.50  0.0000E+000  
  303.00  0.0000E+000  
  303.50  0.0000E+000  
  304.00  0.0000E+000  
  304.50  0.0000E+000  
  305.00  8.7056E-007  
  305.50  7.7945E-006  
  306.00  0.0000E+000  
  306.50  4.7661E-006  
  307.00  5.7318E-006  
  307.50  0.0000E+000  
  308.00  0.0000E+000  
  308.50  0.0000E+000  
  309.00  2.4693E-005  
  309.50  2.6060E-005  
  310.00  0.0000E+000  
  310.50  0.0000E+000  
  311.00  0.0000E+000  
  311.50  0.0000E+000  
  312.00  3.4460E-005  
  312.50  8.8384E-005  
  313.00  1.4125E-004  
  313.50  1.0156E-004  
  314.00  4.3609E-006  
  314.50  0.0000E+000  
  315.00  0.0000E+000  
  315.50  0.0000E+000  
  316.00  5.5436E-006  
  316.50  1.2821E-005  
  317.00  3.7462E-006  
  317.50  0.0000E+000  
  318.00  0.0000E+000  
  318.50  0.0000E+000  
  319.00  0.0000E+000  
  319.50  0.0000E+000  
  320.00  0.0000E+000  
  320.50  0.0000E+000  
  321.00  0.0000E+000  
  321.50  8.4094E-006  
  322.00  5.4469E-005  
  322.50  9.5055E-005  
  323.00  8.3391E-005  
  323.50  3.7169E-005  
  324.00  0.0000E+000  
  324.50  0.0000E+000  
  325.00  0.0000E+000  
  325.50  0.0000E+000  
  326.00  0.0000E+000  
  326.50  0.0000E+000  
  327.00  0.0000E+000  
  327.50  0.0000E+000  
  328.00  0.0000E+000  
  328.50  0.0000E+000  
  329.00  0.0000E+000  
  329.50  0.0000E+000  
  330.00  0.0000E+000  
  330.50  0.0000E+000  
  331.00  0.0000E+000  
  331.50  0.0000E+000  
  332.00  2.7278E-006  
  332.50  6.9352E-006  
  333.00  0.0000E+000  
  333.50  0.0000E+000  
  334.00  0.0000E+000  
  334.50  0.0000E+000  
  335.00  0.0000E+000  
  335.50  0.0000E+000  
  336.00  0.0000E+000  
  336.50  0.0000E+000  
  337.00  0.0000E+000  
  337.50  0.0000E+000  
  338.00  0.0000E+000  
  338.50  0.0000E+000  
  339.00  0.0000E+000  
  339.50  1.3185E-005  
  340.00  3.5705E-005  
  340.50  2.8992E-005  
  341.00  2.8484E-006  
  341.50  0.0000E+000  
  342.00  0.0000E+000  
  342.50  0.0000E+000  
  343.00  0.0000E+000  
  343.50  0.0000E+000  
  344.00  1.3375E-005  
  344.50  3.0582E-005  
  345.00  2.6912E-005  
  345.50  8.3831E-006  
  346.00  0.0000E+000  
  346.50  0.0000E+000  
  347.00  0.0000E+000  
  347.50  2.8620E-006  
  348.00  1.1796E-007  
  348.50  1.0641E-007  
  349.00  1.2053E-007  
  349.50  0.0000E+000  
  350.00  1.8672E-005  
  350.50  2.2746E-005  
  351.00  4.4628E-006  
  351.50  2.3581E-005  
  352.00  1.9625E-005  
  352.50  0.0000E+000  
  353.00  0.0000E+000  
  353.50  1.4476E-006  
  354.00  2.0359E-005  
  354.50  2.6812E-005  
  355.00  2.5310E-006  
  355.50  0.0000E+000  
  356.00  0.0000E+000  
  356.50  0.0000E+000  
  357.00  1.3527E-006  
  357.50  3.1487E-005  
  358.00  6.9831E-005  
  358.50  2.8164E-005  
  359.00  0.0000E+000  
  359.50  0.0000E+000  
  360.00  0.0000E+000  
  360.50  2.0713E-005  
  361.00  5.4509E-005  
  361.50  2.3218E-005  
  362.00  0.0000E+000  
  362.50  2.6223E-005  
  363.00  9.9298E-005  
  363.50  1.0697E-004  
  364.00  1.0116E-004  
  364.50  6.6204E-005  
  365.00  5.5487E-005  
  365.50  6.2233E-005  
  366.00  3.2126E-005  
  366.50  2.2168E-006  
  367.00  0.0000E+000  
  367.50  0.0000E+000  
  368.00  0.0000E+000  
  368.50  0.0000E+000  
  369.00  0.0000E+000  
  369.50  1.3756E-006  
  370.00  6.4726E-005  
  370.50  3.1358E-005  
  371.00  0.0000E+000  
  371.50  0.0000E+000  
  372.00  0.0000E+000  
  372.50  3.5343E-005  
  373.00  9.8245E-005  
  373.50  8.8126E-005  
  374.00  6.0269E-005  
  374.50  5.9506E-005  
  375.00  1.1483E-005  
  375.50  0.0000E+000  
  376.00  0.0000E+000  
  376.50  0.0000E+000  
  377.00  1.8865E-005  
  377.50  1.8784E-005  
  378.00  3.2244E-005  
  378.50  2.6031E-005  
  379.00  2.1334E-005  
  379.50  4.3613E-005  
  380.00  8.4661E-005  
  380.50  1.0532E-004  
  381.00  1.1365E-004  
  381.50  9.2360E-005  
  382.00  7.6454E-005  
  382.50  4.6604E-005  
  383.00  3.5540E-005  
  383.50  2.1134E-005  
  384.00  7.8930E-005  
  384.50  1.4340E-004  
  385.00  1.8689E-004  
  385.50  2.0479E-004  
  386.00  1.5604E-004  
  386.50  1.3584E-004  
  387.00  1.1713E-004  
  387.50  1.0889E-004  
  388.00  1.2599E-004  
  388.50  1.2421E-004  
  389.00  1.7068E-004  
  389.50  1.9520E-004  
  390.00  1.9836E-004  
  390.50  1.8412E-004  
  391.00  1.6429E-004  
  391.50  2.0201E-004  
  392.00  2.1211E-004  
  392.50  1.9135E-004  
  393.00  1.6700E-004  
  393.50  1.4439E-004  
  394.00  1.4138E-004  
  394.50  1.6789E-004  
  395.00  1.8606E-004  
  395.50  2.2822E-004  
  396.00  2.2479E-004  
  396.50  1.9655E-004  
  397.00  1.3608E-004  
  397.50  1.3889E-004  
  398.00  1.4629E-004  
  398.50  1.3175E-004  
  399.00  1.8035E-004  
  399.50  1.4836E-004  
  400.00  1.6348E-004  
  400.50  1.6729E-004  
  401.00  1.5766E-004  
  401.50  1.8057E-004  
  402.00  2.1212E-004  
  402.50  2.2576E-004  
  403.00  2.5069E-004  
  403.50  2.4903E-004  
  404.00  2.7737E-004  
  404.50  3.2017E-004  
  405.00  3.1906E-004  
  405.50  3.3534E-004  
  406.00  3.2246E-004  
  406.50  3.8244E-004  
  407.00  4.7690E-004  
  407.50  5.8470E-004  
  408.00  6.5153E-004  
  408.50  6.8438E-004  
  409.00  7.5612E-004  
  409.50  8.0670E-004  
  410.00  8.3754E-004  
  410.50  8.6358E-004  
  411.00  8.9690E-004  
  411.50  1.0004E-003  
  412.00  1.1327E-003  
  412.50  1.2435E-003  
  413.00  1.3576E-003  
  413.50  1.4456E-003  
  414.00  1.5690E-003  
  414.50  1.7135E-003  
  415.00  1.8663E-003  
  415.50  2.0636E-003  
  416.00  2.2494E-003  
  416.50  2.4035E-003  
  417.00  2.5400E-003  
  417.50  2.6679E-003  
  418.00  2.8629E-003  
  418.50  3.1314E-003  
  419.00  3.3912E-003  
  419.50  3.6887E-003  
  420.00  3.9847E-003  
  420.50  4.3048E-003  
  421.00  4.6824E-003  
  421.50  4.9713E-003  
  422.00  5.2860E-003  
  422.50  5.6097E-003  
  423.00  5.9374E-003  
  423.50  6.3628E-003  
  424.00  6.7593E-003  
  424.50  7.1089E-003  
  425.00  7.5002E-003  
  425.50  7.9161E-003  
  426.00  8.4047E-003  
  426.50  8.9256E-003  
  427.00  9.4287E-003  
  427.50  9.9739E-003  
  428.00  1.0468E-002  
  428.50  1.0963E-002  
  429.00  1.1433E-002  
  429.50  1.1931E-002  
  430.00  1.2497E-002  
  430.50  1.3064E-002  
  431.00  1.3554E-002  
  431.50  1.3967E-002  
  432.00  1.4374E-002  
  432.50  1.4819E-002  
  433.00  1.5273E-002  
  433.50  1.5656E-002  
  434.00  1.5979E-002  
  434.50  1.6269E-002  
  435.00  1.6677E-002  
  435.50  1.7163E-002  
  436.00  1.7668E-002  
  436.50  1.8136E-002  
  437.00  1.8661E-002  
  437.50  1.9186E-002  
  438.00  1.9705E-002  
  438.50  2.0173E-002  
  439.00  2.0527E-002  
  439.50  2.0982E-002  
  440.00  2.1435E-002  
  440.50  2.1883E-002  
  441.00  2.2331E-002  
  441.50  2.2728E-002  
  442.00  2.3116E-002  
  442.50  2.3379E-002  
  443.00  2.3710E-002  
  443.50  2.3977E-002  
  444.00  2.4252E-002  
  444.50  2.4397E-002  
  445.00  2.4480E-002  
  445.50  2.4431E-002  
  446.00  2.4322E-002  
  446.50  2.4103E-002  
  447.00  2.3793E-002  
  447.50  2.3449E-002  
  448.00  2.3022E-002  
  448.50  2.2535E-002  
  449.00  2.2106E-002  
  449.50  2.1694E-002  
  450.00  2.1251E-002  
  450.50  2.0672E-002  
  451.00  2.0015E-002  
  451.50  1.9325E-002  
  452.00  1.8673E-002  
  452.50  1.8069E-002  
  453.00  1.7413E-002  
  453.50  1.6778E-002  
  454.00  1.6184E-002  
  454.50  1.5678E-002  
  455.00  1.5304E-002  
  455.50  1.4916E-002  
  456.00  1.4527E-002  
  456.50  1.4208E-002  
  457.00  1.3934E-002  
  457.50  1.3666E-002  
  458.00  1.3310E-002  
  458.50  1.2936E-002  
  459.00  1.2629E-002  
  459.50  1.2372E-002  
  460.00  1.2123E-002  
  460.50  1.1937E-002  
  461.00  1.1754E-002  
  461.50  1.1564E-002  
  462.00  1.1403E-002  
  462.50  1.1201E-002  
  463.00  1.1056E-002  
  463.50  1.0979E-002  
  464.00  1.0890E-002  
  464.50  1.0774E-002  
  465.00  1.0655E-002  
  465.50  1.0495E-002  
  466.00  1.0356E-002  
  466.50  1.0168E-002  
  467.00  9.9966E-003  
  467.50  9.8316E-003  
  468.00  9.7195E-003  
  468.50  9.6371E-003  
  469.00  9.5414E-003  
  469.50  9.4627E-003  
  470.00  9.4131E-003  
  470.50  9.3483E-003  
  471.00  9.3067E-003  
  471.50  9.2174E-003  
  472.00  9.1843E-003  
  472.50  9.1557E-003  
  473.00  9.1596E-003  
  473.50  9.2049E-003  
  474.00  9.2689E-003  
  474.50  9.3364E-003  
  475.00  9.3863E-003  
  475.50  9.4332E-003  
  476.00  9.5298E-003  
  476.50  9.6173E-003  
  477.00  9.7076E-003  
  477.50  9.7932E-003  
  478.00  9.9764E-003  
  478.50  1.0214E-002  
  479.00  1.0445E-002  
  479.50  1.0694E-002  
  480.00  1.0848E-002  
  480.50  1.0956E-002  
  481.00  1.1082E-002  
  481.50  1.1238E-002  
  482.00  1.1443E-002  
  482.50  1.1683E-002  
  483.00  1.1891E-002  
  483.50  1.2104E-002  
  484.00  1.2341E-002  
  484.50  1.2580E-002  
  485.00  1.2834E-002  
  485.50  1.3113E-002  
  486.00  1.3397E-002  
  486.50  1.3721E-002  
  487.00  1.4039E-002  
  487.50  1.4339E-002  
  488.00  1.4610E-002  
  488.50  1.4844E-002  
  489.00  1.5095E-002  
  489.50  1.5373E-002  
  490.00  1.5696E-002  
  490.50  1.6030E-002  
  491.00  1.6369E-002  
  491.50  1.6693E-002  
  492.00  1.7015E-002  
  492.50  1.7322E-002  
  493.00  1.7655E-002  
  493.50  1.7982E-002  
  494.00  1.8286E-002  
  494.50  1.8577E-002  
  495.00  1.8869E-002  
  495.50  1.9184E-002  
  496.00  1.9498E-002  
  496.50  1.9861E-002  
  497.00  2.0226E-002  
  497.50  2.0594E-002  
  498.00  2.0970E-002  
  498.50  2.1286E-002  
  499.00  2.1589E-002  
  499.50  2.1887E-002  
  500.00  2.2182E-002  
  500.50  2.2469E-002  
  501.00  2.2734E-002  
  501.50  2.2971E-002  
  502.00  2.3244E-002  
  502.50  2.3503E-002  
  503.00  2.3785E-002  
  503.50  2.4058E-002  
  504.00  2.4350E-002  
  504.50  2.4678E-002  
  505.00  2.4992E-002  
  505.50  2.5282E-002  
  506.00  2.5524E-002  
  506.50  2.5739E-002  
  507.00  2.5966E-002  
  507.50  2.6205E-002  
  508.00  2.6489E-002  
  508.50  2.6776E-002  
  509.00  2.7017E-002  
  509.50  2.7256E-002  
  510.00  2.7467E-002  
  510.50  2.7702E-002  
  511.00  2.7991E-002  
  511.50  2.8276E-002  
  512.00  2.8576E-002  
  512.50  2.8839E-002  
  513.00  2.9071E-002  
  513.50  2.9296E-002  
  514.00  2.9530E-002  
  514.50  2.9784E-002  
  515.00  3.0026E-002  
  515.50  3.0221E-002  
  516.00  3.0455E-002  
  516.50  3.0723E-002  
  517.00  3.1050E-002  
  517.50  3.1309E-002  
  518.00  3.1518E-002  
  518.50  3.1754E-002  
  519.00  3.2015E-002  
  519.50  3.2257E-002  
  520.00  3.2494E-002  
  520.50  3.2713E-002  
  521.00  3.2988E-002  
  521.50  3.3249E-002  
  522.00  3.3513E-002  
  522.50  3.3761E-002  
  523.00  3.3944E-002  
  523.50  3.4193E-002  
  524.00  3.4428E-002  
  524.50  3.4766E-002  
  525.00  3.5112E-002  
  525.50  3.5442E-002  
  526.00  3.5708E-002  
  526.50  3.5968E-002  
  527.00  3.6246E-002  
  527.50  3.6539E-002  
  528.00  3.6804E-002  
  528.50  3.7031E-002  
  529.00  3.7228E-002  
  529.50  3.7560E-002  
  530.00  3.7937E-002  
  530.50  3.8310E-002  
  531.00  3.8651E-002  
  531.50  3.8874E-002  
  532.00  3.9146E-002  
  532.50  3.9491E-002  
  533.00  3.9852E-002  
  533.50  4.0204E-002  
  534.00  4.0530E-002  
  534.50  4.0861E-002  
  535.00  4.1200E-002  
  535.50  4.1516E-002  
  536.00  4.1793E-002  
  536.50  4.2046E-002  
  537.00  4.2362E-002  
  537.50  4.2692E-002  
  538.00  4.3090E-002  
  538.50  4.3421E-002  
  539.00  4.3824E-002  
  539.50  4.4159E-002  
  540.00  4.4531E-002  
  540.50  4.4883E-002  
  541.00  4.5206E-002  
  541.50  4.5526E-002  
  542.00  4.5904E-002  
  542.50  4.6299E-002  
  543.00  4.6765E-002  
  543.50  4.7124E-002  
  544.00  4.7418E-002  
  544.50  4.7703E-002  
  545.00  4.8069E-002  
  545.50  4.8467E-002  
  546.00  4.8805E-002  
  546.50  4.9184E-002  
  547.00  4.9607E-002  
  547.50  5.0061E-002  
  548.00  5.0437E-002  
  548.50  5.0777E-002  
  549.00  5.1207E-002  
  549.50  5.1667E-002  
  550.00  5.2136E-002  
  550.50  5.2517E-002  
  551.00  5.2822E-002  
  551.50  5.3093E-002  
  552.00  5.3332E-002  
  552.50  5.3694E-002  
  553.00  5.4101E-002  
  553.50  5.4584E-002  
  554.00  5.4943E-002  
  554.50  5.5329E-002  
  555.00  5.5632E-002  
  555.50  5.6099E-002  
  556.00  5.6550E-002  
  556.50  5.6989E-002  
  557.00  5.7472E-002  
  557.50  5.7887E-002  
  558.00  5.8258E-002  
  558.50  5.8630E-002  
  559.00  5.9034E-002  
  559.50  5.9491E-002  
  560.00  5.9948E-002  
  560.50  6.0198E-002  
  561.00  6.0522E-002  
  561.50  6.0852E-002  
  562.00  6.1275E-002  
  562.50  6.1637E-002  
  563.00  6.1835E-002  
  563.50  6.2125E-002  
  564.00  6.2432E-002  
  564.50  6.2811E-002  
  565.00  6.3131E-002  
  565.50  6.3609E-002  
  566.00  6.4060E-002  
  566.50  6.4511E-002  
  567.00  6.4770E-002  
  567.50  6.5112E-002  
  568.00  6.5549E-002  
  568.50  6.6009E-002  
  569.00  6.6392E-002  
  569.50  6.6760E-002  
  570.00  6.7081E-002  
  570.50  6.7395E-002  
  571.00  6.7703E-002  
  571.50  6.7984E-002  
  572.00  6.8335E-002  
  572.50  6.8617E-002  
  573.00  6.8868E-002  
  573.50  6.9171E-002  
  574.00  6.9595E-002  
  574.50  7.0037E-002  
  575.00  7.0457E-002  
  575.50  7.0783E-002  
  576.00  7.1188E-002  
  576.50  7.1596E-002  
  577.00  7.2030E-002  
  577.50  7.2395E-002  
  578.00  7.2748E-002  
  578.50  7.3134E-002  
  579.00  7.3457E-002  
  579.50  7.3755E-002  
  580.00  7.4038E-002  
  580.50  7.4279E-002  
  581.00  7.4576E-002  
  581.50  7.4860E-002  
  582.00  7.5091E-002  
  582.50  7.5450E-002  
  583.00  7.5845E-002  
  583.50  7.6262E-002  
  584.00  7.6509E-002  
  584.50  7.6712E-002  
  585.00  7.6925E-002  
  585.50  7.7321E-002  
  586.00  7.7650E-002  
  586.50  7.7901E-002  
  587.00  7.8134E-002  
  587.50  7.8361E-002  
  588.00  7.8666E-002  
  588.50  7.8808E-002  
  589.00  7.9029E-002  
  589.50  7.9253E-002  
  590.00  7.9547E-002  
  590.50  7.9919E-002  
  591.00  8.0126E-002  
  591.50  8.0372E-002  
  592.00  8.0424E-002  
  592.50  8.0592E-002  
  593.00  8.0749E-002  
  593.50  8.0925E-002  
  594.00  8.1098E-002  
  594.50  8.1140E-002  
  595.00  8.1312E-002  
  595.50  8.1367E-002  
  596.00  8.1511E-002  
  596.50  8.1692E-002  
  597.00  8.1851E-002  
  597.50  8.2088E-002  
  598.00  8.2170E-002  
  598.50  8.2204E-002  
  599.00  8.2294E-002  
  599.50  8.2379E-002  
  600.00  8.2454E-002  
  600.50  8.2409E-002  
  601.00  8.2375E-002  
  601.50  8.2365E-002  
  602.00  8.2384E-002  
  602.50  8.2418E-002  
  603.00  8.2467E-002  
  603.50  8.2519E-002  
  604.00  8.2507E-002  
  604.50  8.2453E-002  
  605.00  8.2449E-002  
  605.50  8.2390E-002  
  606.00  8.2240E-002  
  606.50  8.2069E-002  
  607.00  8.1847E-002  
  607.50  8.1676E-002  
  608.00  8.1611E-002  
  608.50  8.1705E-002  
  609.00  8.1740E-002  
  609.50  8.1608E-002  
  610.00  8.1444E-002  
  610.50  8.1197E-002  
  611.00  8.0862E-002  
  611.50  8.0545E-002  
  612.00  8.0423E-002  
  612.50  8.0436E-002  
  613.00  8.0325E-002  
  613.50  8.0198E-002  
  614.00  8.0059E-002  
  614.50  7.9761E-002  
  615.00  7.9503E-002  
  615.50  7.9233E-002  
  616.00  7.9057E-002  
  616.50  7.8850E-002  
  617.00  7.8567E-002  
  617.50  7.8290E-002  
  618.00  7.7912E-002  
  618.50  7.7645E-002  
  619.00  7.7280E-002  
  619.50  7.7046E-002  
  620.00  7.6702E-002  
  620.50  7.6430E-002  
  621.00  7.6079E-002  
  621.50  7.5657E-002  
  622.00  7.5348E-002  
  622.50  7.4964E-002  
  623.00  7.4653E-002  
  623.50  7.4233E-002  
  624.00  7.3872E-002  
  624.50  7.3477E-002  
  625.00  7.3221E-002  
  625.50  7.2956E-002  
  626.00  7.2587E-002  
  626.50  7.2029E-002  
  627.00  7.1545E-002  
  627.50  7.1336E-002  
  628.00  7.1245E-002  
  628.50  7.1000E-002  
  629.00  7.0528E-002  
  629.50  6.9948E-002  
  630.00  6.9424E-002  
  630.50  6.8970E-002  
  631.00  6.8601E-002  
  631.50  6.8206E-002  
  632.00  6.7722E-002  
  632.50  6.7208E-002  
  633.00  6.6688E-002  
  633.50  6.6179E-002  
  634.00  6.5764E-002  
  634.50  6.5428E-002  
  635.00  6.5082E-002  
  635.50  6.4600E-002  
  636.00  6.4053E-002  
  636.50  6.3565E-002  
  637.00  6.3175E-002  
  637.50  6.2799E-002  
  638.00  6.2337E-002  
  638.50  6.1828E-002  
  639.00  6.1374E-002  
  639.50  6.0963E-002  
  640.00  6.0542E-002  
  640.50  5.9995E-002  
  641.00  5.9429E-002  
  641.50  5.8973E-002  
  642.00  5.8524E-002  
  642.50  5.8039E-002  
  643.00  5.7359E-002  
  643.50  5.6818E-002  
  644.00  5.6488E-002  
  644.50  5.6301E-002  
  645.00  5.5876E-002  
  645.50  5.5305E-002  
  646.00  5.4708E-002  
  646.50  5.4200E-002  
  647.00  5.3774E-002  
  647.50  5.3305E-002  
  648.00  5.2803E-002  
  648.50  5.2340E-002  
  649.00  5.1873E-002  
  649.50  5.1403E-002  
  650.00  5.0855E-002  
  650.50  5.0337E-002  
  651.00  4.9895E-002  
  651.50  4.9457E-002  
  652.00  4.8946E-002  
  652.50  4.8516E-002  
  653.00  4.8070E-002  
  653.50  4.7622E-002  
  654.00  4.7077E-002  
  654.50  4.6535E-002  
  655.00  4.6060E-002  
  655.50  4.5761E-002  
  656.00  4.5492E-002  
  656.50  4.5104E-002  
  657.00  4.4484E-002  
  657.50  4.3817E-002  
  658.00  4.3247E-002  
  658.50  4.2861E-002  
  659.00  4.2533E-002  
  659.50  4.2263E-002  
  660.00  4.1901E-002  
  660.50  4.1470E-002  
  661.00  4.0900E-002  
  661.50  4.0341E-002  
  662.00  3.9869E-002  
  662.50  3.9573E-002  
  663.00  3.9250E-002  
  663.50  3.8884E-002  
  664.00  3.8430E-002  
  664.50  3.8035E-002  
  665.00  3.7579E-002  
  665.50  3.7136E-002  
  666.00  3.6661E-002  
  666.50  3.6252E-002  
  667.00  3.5927E-002  
  667.50  3.5501E-002  
  668.00  3.5092E-002  
  668.50  3.4642E-002  
  669.00  3.4342E-002  
  669.50  3.3983E-002  
  670.00  3.3630E-002  
  670.50  3.3206E-002  
  671.00  3.2843E-002  
  671.50  3.2520E-002  
  672.00  3.2201E-002  
  672.50  3.1831E-002  
  673.00  3.1430E-002  
  673.50  3.1126E-002  
  674.00  3.0875E-002  
  674.50  3.0586E-002  
  675.00  3.0290E-002  
  675.50  2.9881E-002  
  676.00  2.9360E-002  
  676.50  2.8880E-002  
  677.00  2.8540E-002  
  677.50  2.8350E-002  
  678.00  2.8146E-002  
  678.50  2.7862E-002  
  679.00  2.7582E-002  
  679.50  2.7157E-002  
  680.00  2.6803E-002  
  680.50  2.6378E-002  
  681.00  2.6026E-002  
  681.50  2.5629E-002  
  682.00  2.5405E-002  
  682.50  2.5208E-002  
  683.00  2.4990E-002  
  683.50  2.4733E-002  
  684.00  2.4498E-002  
  684.50  2.4212E-002  
  685.00  2.3837E-002  
  685.50  2.3535E-002  
  686.00  2.3321E-002  
  686.50  2.3109E-002  
  687.00  2.2768E-002  
  687.50  2.2501E-002  
  688.00  2.2245E-002  
  688.50  2.2113E-002  
  689.00  2.1839E-002  
  689.50  2.1587E-002  
  690.00  2.1398E-002  
  690.50  2.1259E-002  
  691.00  2.1014E-002  
  691.50  2.0640E-002  
  692.00  2.0331E-002  
  692.50  2.0108E-002  
  693.00  1.9900E-002  
  693.50  1.9616E-002  
  694.00  1.9375E-002  
  694.50  1.9179E-002  
  695.00  1.8989E-002  
  695.50  1.8787E-002  
  696.00  1.8516E-002  
  696.50  1.8301E-002  
  697.00  1.8025E-002  
  697.50  1.7768E-002  
  698.00  1.7514E-002  
  698.50  1.7352E-002  
  699.00  1.7183E-002  
  699.50  1.6941E-002  
  700.00  1.6669E-002  
  700.50  1.6442E-002  
  701.00  1.6306E-002  
  701.50  1.6213E-002  
  702.00  1.6031E-002  
  702.50  1.5840E-002  
  703.00  1.5631E-002  
  703.50  1.5462E-002  
  704.00  1.5255E-002  
  704.50  1.5095E-002  
  705.00  1.4911E-002  
  705.50  1.4773E-002  
  706.00  1.4655E-002  
  706.50  1.4566E-002  
  707.00  1.4363E-002  
  707.50  1.4190E-002  
  708.00  1.3975E-002  
  708.50  1.3838E-002  
  709.00  1.3598E-002  
  709.50  1.3453E-002  
  710.00  1.3321E-002  
  710.50  1.3249E-002  
  711.00  1.2994E-002  
  711.50  1.2696E-002  
  712.00  1.2471E-002  
  712.50  1.2423E-002  
  713.00  1.2301E-002  
  713.50  1.2164E-002  
  714.00  1.1973E-002  
  714.50  1.1800E-002  
  715.00  1.1700E-002  
  715.50  1.1654E-002  
  716.00  1.1595E-002  
  716.50  1.1446E-002  
  717.00  1.1297E-002  
  717.50  1.1118E-002  
  718.00  1.1046E-002  
  718.50  1.0959E-002  
  719.00  1.0807E-002  
  719.50  1.0596E-002  
  720.00  1.0425E-002  
  720.50  1.0287E-002  
  721.00  1.0057E-002  
  721.50  9.8923E-003  
  722.00  9.7318E-003  
  722.50  9.6643E-003  
  723.00  9.5765E-003  
  723.50  9.4559E-003  
  724.00  9.2770E-003  
  724.50  9.1517E-003  
  725.00  9.1177E-003  
  725.50  9.0858E-003  
  726.00  8.9601E-003  
  726.50  8.8072E-003  
  727.00  8.6873E-003  
  727.50  8.6278E-003  
  728.00  8.4734E-003  
  728.50  8.2474E-003  
  729.00  8.1902E-003  
  729.50  8.1758E-003  
  730.00  8.1142E-003  
  730.50  7.8736E-003  
  731.00  7.7134E-003  
  731.50  7.5939E-003  
  732.00  7.5096E-003  
  732.50  7.3448E-003  
  733.00  7.1610E-003  
  733.50  7.1311E-003  
  734.00  7.1818E-003  
  734.50  7.2356E-003  
  735.00  7.1251E-003  
  735.50  6.8862E-003  
  736.00  6.6976E-003  
  736.50  6.4810E-003  
  737.00  6.4277E-003  
  737.50  6.4025E-003  
  738.00  6.4724E-003  
  738.50  6.4086E-003  
  739.00  6.3501E-003  
  739.50  6.1849E-003  
  740.00  6.0713E-003  
  740.50  5.9915E-003  
  741.00  5.9741E-003  
  741.50  5.9134E-003  
  742.00  5.7908E-003  
  742.50  5.7618E-003  
  743.00  5.6954E-003  
  743.50  5.6224E-003  
  744.00  5.5023E-003  
  744.50  5.3594E-003  
  745.00  5.2491E-003  
  745.50  5.1790E-003  
  746.00  5.0810E-003  
  746.50  4.8732E-003  
  747.00  4.7233E-003  
  747.50  4.6427E-003  
  748.00  4.6314E-003  
  748.50  4.7028E-003  
  749.00  4.7110E-003  
  749.50  4.7226E-003  
  750.00  4.7256E-003  
  750.50  4.4340E-003  
  751.00  4.2010E-003  
  751.50  4.1159E-003  
  752.00  4.3583E-003  
  752.50  4.3371E-003  
  753.00  4.2563E-003  
  753.50  4.2999E-003  
  754.00  4.2084E-003  
  754.50  4.1786E-003  
  755.00  4.1678E-003  
  755.50  4.1737E-003  
  756.00  3.9588E-003  
  756.50  3.5843E-003  
  757.00  3.3310E-003  
  757.50  3.2920E-003  
  758.00  3.3783E-003  
  758.50  3.4215E-003  
  759.00  3.4713E-003  
  759.50  3.4958E-003  
  760.00  3.3817E-003  
  760.50  3.2658E-003  
  761.00  3.3165E-003  
  761.50  3.4319E-003  
  762.00  3.3628E-003  
  762.50  3.0815E-003  
  763.00  2.9731E-003  
  763.50  3.0550E-003  
  764.00  3.2506E-003  
  764.50  3.2400E-003  
  765.00  3.0837E-003  
  765.50  3.0478E-003  
  766.00  3.0006E-003  
  766.50  2.7749E-003  
  767.00  2.5732E-003  
  767.50  2.5588E-003  
  768.00  2.6690E-003  
  768.50  2.7453E-003  
  769.00  2.7060E-003  
  769.50  2.4986E-003  
  770.00  2.3764E-003  
  770.50  2.4410E-003  
  771.00  2.4035E-003  
  771.50  2.1963E-003  
  772.00  2.1141E-003  
  772.50  2.2402E-003  
  773.00  2.3639E-003  
  773.50  2.3680E-003  
  774.00  2.3687E-003  
  774.50  2.2846E-003  
  775.00  2.2291E-003  
  775.50  2.1017E-003  
  776.00  1.9928E-003  
  776.50  1.9051E-003  
  777.00  1.9273E-003  
  777.50  1.8479E-003  
  778.00  1.7525E-003  
  778.50  1.7654E-003  
  779.00  1.7784E-003  
  779.50  1.6689E-003  
  780.00  1.6305E-003  
  780.50  1.7021E-003  
  781.00  1.7815E-003  
  781.50  1.7361E-003  
  782.00  1.7069E-003  
  782.50  1.6945E-003  
  783.00  1.5559E-003  
  783.50  1.4360E-003  
  784.00  1.3435E-003  
  784.50  1.3500E-003  
  785.00  1.5212E-003  
  785.50  1.6839E-003  
  786.00  1.7238E-003  
  786.50  1.5583E-003  
  787.00  1.4458E-003  
  787.50  1.2523E-003  
  788.00  1.3468E-003  
  788.50  1.4141E-003  
  789.00  1.4467E-003  
  789.50  1.3862E-003  
  790.00  1.2473E-003  
  790.50  1.1527E-003  
  791.00  1.0572E-003  
  791.50  1.0867E-003  
  792.00  1.1293E-003  
  792.50  1.2315E-003  
  793.00  1.2357E-003  
  793.50  1.1650E-003  
  794.00  1.0706E-003  
  794.50  1.0608E-003  
  795.00  7.9231E-004  
  795.50  7.8554E-004  
  796.00  1.0239E-003  
  796.50  1.1970E-003  
  797.00  1.1243E-003  
  797.50  9.7613E-004  
  798.00  8.5495E-004  
  798.50  8.2284E-004  
  799.00  8.9095E-004  
  799.50  6.8573E-004  
  800.00  6.0360E-004  
  800.50  6.0321E-004  
  801.00  6.1152E-004  
  801.50  5.4406E-004  
  802.00  6.1960E-004  
  802.50  7.7692E-004  
  803.00  9.1121E-004  
  803.50  7.2257E-004  
  804.00  5.7945E-004  
  804.50  7.6440E-004  
  805.00  8.6832E-004  
  805.50  5.8799E-004  
  806.00  4.6357E-004  
  806.50  4.6523E-004  
  807.00  5.0601E-004  
  807.50  5.4352E-004  
  808.00  4.7714E-004  
  808.50  3.3573E-004  
  809.00  5.6643E-004  
  809.50  7.2768E-004  
  810.00  5.0124E-004  
  810.50  2.4927E-004  
  811.00  2.1107E-004  
  811.50  2.2200E-004  
  812.00  2.2356E-004  
  812.50  2.1725E-004  
  813.00  1.8546E-004  
  813.50  3.7545E-004  
  814.00  6.8783E-004  
  814.50  5.9245E-004  
  815.00  3.7225E-004  
  815.50  2.8010E-004  
  816.00  4.1420E-005  
  816.50  0.0000E+000  
  817.00  0.0000E+000  
  817.50  0.0000E+000  
  818.00  0.0000E+000  
  818.50  2.9750E-005  
  819.00  4.1822E-008  
  819.50  1.4795E-004  
  820.00  4.6041E-004  
  820.50  4.5242E-004  
  821.00  3.6919E-004  
  821.50  1.0147E-004  
  822.00  0.0000E+000  
  822.50  0.0000E+000  
  823.00  0.0000E+000  
  823.50  0.0000E+000  
  824.00  0.0000E+000  
  824.50  1.1255E-004  
  825.00  3.9079E-004  
  825.50  5.6442E-004  
  826.00  5.1860E-004  
  826.50  6.0948E-005  
  827.00  0.0000E+000  
  827.50  0.0000E+000  
  828.00  6.1031E-004  
  828.50  7.3958E-004  
  829.00  4.8613E-004  
  829.50  3.7835E-004  
  830.00  3.9743E-004  
  830.50  3.1550E-004  
  831.00  4.1161E-005  
  831.50  0.0000E+000  
  832.00  1.9955E-005  
  832.50  4.5231E-004  
  833.00  4.7590E-004  
  833.50  5.4994E-005  
  834.00  0.0000E+000  
  834.50  4.1689E-005  
  835.00  4.1453E-004  
  835.50  7.1189E-005  
  836.00  2.3248E-004  
  836.50  4.9468E-004  
  837.00  7.9607E-004  
  837.50  8.7603E-004  
  838.00  4.5326E-004  
  838.50  1.0507E-004  
  839.00  0.0000E+000  
  839.50  7.9343E-005  
  840.00  8.6682E-005  
  840.50  3.1715E-005  
  841.00  0.0000E+000  
  841.50  3.8879E-006  
  842.00  0.0000E+000  
  842.50  0.0000E+000  
  843.00  0.0000E+000  
  843.50  1.0745E-006  
  844.00  4.1912E-004  
  844.50  3.4597E-004  
  845.00  1.4349E-004  
  845.50  7.7583E-005  
  846.00  2.9602E-004  
  846.50  3.4223E-004  
  847.00  3.6336E-004  
  847.50  5.8946E-004  
  848.00  2.9401E-004  
  848.50  0.0000E+000  
  849.00  0.0000E+000  
  849.50  0.0000E+000  
  850.00  0.0000E+000  
  850.50  0.0000E+000  
  851.00  0.0000E+000  
  851.50  1.9803E-004  
  852.00  2.5303E-004  
  852.50  1.6424E-005  
  853.00  0.0000E+000  
  853.50  2.4182E-004  
  854.00  2.3254E-004  
  854.50  5.8486E-005  
  855.00  0.0000E+000  
  855.50  0.0000E+000  
  856.00  0.0000E+000  
  856.50  0.0000E+000  
  857.00  0.0000E+000  
  857.50  0.0000E+000  
  858.00  0.0000E+000  
  858.50  0.0000E+000  
  859.00  0.0000E+000  
  859.50  0.0000E+000  
  860.00  0.0000E+000  
  860.50  0.0000E+000  
  861.00  0.0000E+000  
  861.50  1.5213E-006  
  862.00  0.0000E+000  
  862.50  0.0000E+000  
  863.00  0.0000E+000  
  863.50  0.0000E+000  
  864.00  0.0000E+000  
  864.50  0.0000E+000  
  865.00  0.0000E+000  
  865.50  0.0000E+000  
  866.00  0.0000E+000  
  866.50  0.0000E+000  
  867.00  0.0000E+000  
  867.50  0.0000E+000  
  868.00  0.0000E+000  
  868.50  2.3560E-004  
  869.00  1.1339E-004  
  869.50  4.6499E-005  
  870.00  5.9860E-004  
  870.50  5.9713E-004  
  871.00  4.2532E-005  
  871.50  0.0000E+000  
  872.00  0.0000E+000  
  872.50  0.0000E+000  
  873.00  2.1384E-004  
  873.50  1.8721E-004  
  874.00  0.0000E+000  
  874.50  0.0000E+000  
  875.00  0.0000E+000  
  875.50  0.0000E+000  
  876.00  0.0000E+000  
  876.50  0.0000E+000  
  877.00  0.0000E+000  
  877.50  0.0000E+000  
  878.00  0.0000E+000  
  878.50  0.0000E+000  
  879.00  0.0000E+000  
  879.50  0.0000E+000  
  880.00  0.0000E+000  
  880.50  0.0000E+000  
  881.00  1.7171E-004  
  881.50  0.0000E+000  
  882.00  0.0000E+000  
  882.50  0.0000E+000  
  883.00  0.0000E+000  
  883.50  0.0000E+000  
  884.00  6.7461E-005  
  884.50  4.6503E-004  
  885.00  7.6296E-004  
  885.50  8.1493E-005  
  886.00  0.0000E+000  
  886.50  3.7052E-004  
  887.00  1.3806E-004  
  887.50  0.0000E+000  
  888.00  0.0000E+000  
  888.50  0.0000E+000  
  889.00  0.0000E+000  
  889.50  0.0000E+000  
  890.00  0.0000E+000  
  890.50  0.0000E+000  
  891.00  0.0000E+000  
  891.50  0.0000E+000  
  892.00  0.0000E+000  
  892.50  0.0000E+000  
  893.00  0.0000E+000  
  893.50  0.0000E+000  
  894.00  0.0000E+000  
  894.50  0.0000E+000  
  895.00  0.0000E+000  
  895.50  0.0000E+000  
  896.00  0.0000E+000  
  896.50  0.0000E+000  
  897.00  0.0000E+000  
  897.50  1.4669E-005  
  898.00  1.2957E-004  
  898.50  0.0000E+000  
  899.00  0.0000E+000  
  899.50  0.0000E+000  
