
# From lspdd.org
# 
# Name: LFC Elume PAR20 Domestique
# Indice spectral Valeur 
# MSI 0.54 
# SLI 0.67 
# IPI 0.66 
# Pourcentage de bleu 30.9 
# Caractéristique Valeur 
# CCT calculée (K) 3938 
# CCT du fabricant (K) 4100 
# Tension (V) 120 
# Puissance (W) 9.0 
# Efficacité lumineuse (Lum/W) 33.3 
#
# Image: '/app/system/img_2s/2560/medium_image2.JPG?1413486321'
# Image: '/app/system/img_1s/2560/medium_image1.JPG?1413486325'
# 

  273.00  0.0000E+000  
  273.50  0.0000E+000  
  274.00  0.0000E+000  
  274.50  0.0000E+000  
  275.00  0.0000E+000  
  275.50  0.0000E+000  
  276.00  0.0000E+000  
  276.50  0.0000E+000  
  277.00  0.0000E+000  
  277.50  0.0000E+000  
  278.00  0.0000E+000  
  278.50  0.0000E+000  
  279.00  0.0000E+000  
  279.50  0.0000E+000  
  280.00  0.0000E+000  
  280.50  0.0000E+000  
  281.00  0.0000E+000  
  281.50  0.0000E+000  
  282.00  0.0000E+000  
  282.50  0.0000E+000  
  283.00  0.0000E+000  
  283.50  0.0000E+000  
  284.00  0.0000E+000  
  284.50  0.0000E+000  
  285.00  0.0000E+000  
  285.50  0.0000E+000  
  286.00  0.0000E+000  
  286.50  0.0000E+000  
  287.00  0.0000E+000  
  287.50  0.0000E+000  
  288.00  0.0000E+000  
  288.50  0.0000E+000  
  289.00  0.0000E+000  
  289.50  0.0000E+000  
  290.00  0.0000E+000  
  290.50  0.0000E+000  
  291.00  0.0000E+000  
  291.50  0.0000E+000  
  292.00  0.0000E+000  
  292.50  0.0000E+000  
  293.00  0.0000E+000  
  293.50  0.0000E+000  
  294.00  0.0000E+000  
  294.50  0.0000E+000  
  295.00  0.0000E+000  
  295.50  0.0000E+000  
  296.00  0.0000E+000  
  296.50  0.0000E+000  
  297.00  0.0000E+000  
  297.50  0.0000E+000  
  298.00  0.0000E+000  
  298.50  0.0000E+000  
  299.00  0.0000E+000  
  299.50  0.0000E+000  
  300.00  0.0000E+000  
  300.50  0.0000E+000  
  301.00  0.0000E+000  
  301.50  0.0000E+000  
  302.00  0.0000E+000  
  302.50  0.0000E+000  
  303.00  0.0000E+000  
  303.50  0.0000E+000  
  304.00  0.0000E+000  
  304.50  0.0000E+000  
  305.00  0.0000E+000  
  305.50  0.0000E+000  
  306.00  0.0000E+000  
  306.50  0.0000E+000  
  307.00  0.0000E+000  
  307.50  0.0000E+000  
  308.00  0.0000E+000  
  308.50  0.0000E+000  
  309.00  0.0000E+000  
  309.50  0.0000E+000  
  310.00  0.0000E+000  
  310.50  0.0000E+000  
  311.00  0.0000E+000  
  311.50  0.0000E+000  
  312.00  0.0000E+000  
  312.50  0.0000E+000  
  313.00  0.0000E+000  
  313.50  0.0000E+000  
  314.00  0.0000E+000  
  314.50  0.0000E+000  
  315.00  0.0000E+000  
  315.50  0.0000E+000  
  316.00  0.0000E+000  
  316.50  0.0000E+000  
  317.00  0.0000E+000  
  317.50  0.0000E+000  
  318.00  0.0000E+000  
  318.50  0.0000E+000  
  319.00  0.0000E+000  
  319.50  0.0000E+000  
  320.00  0.0000E+000  
  320.50  0.0000E+000  
  321.00  0.0000E+000  
  321.50  0.0000E+000  
  322.00  0.0000E+000  
  322.50  0.0000E+000  
  323.00  0.0000E+000  
  323.50  0.0000E+000  
  324.00  0.0000E+000  
  324.50  0.0000E+000  
  325.00  0.0000E+000  
  325.50  0.0000E+000  
  326.00  0.0000E+000  
  326.50  0.0000E+000  
  327.00  0.0000E+000  
  327.50  0.0000E+000  
  328.00  0.0000E+000  
  328.50  0.0000E+000  
  329.00  0.0000E+000  
  329.50  0.0000E+000  
  330.00  0.0000E+000  
  330.50  0.0000E+000  
  331.00  0.0000E+000  
  331.50  0.0000E+000  
  332.00  0.0000E+000  
  332.50  0.0000E+000  
  333.00  0.0000E+000  
  333.50  0.0000E+000  
  334.00  0.0000E+000  
  334.50  0.0000E+000  
  335.00  0.0000E+000  
  335.50  0.0000E+000  
  336.00  0.0000E+000  
  336.50  0.0000E+000  
  337.00  0.0000E+000  
  337.50  0.0000E+000  
  338.00  0.0000E+000  
  338.50  0.0000E+000  
  339.00  0.0000E+000  
  339.50  0.0000E+000  
  340.00  0.0000E+000  
  340.50  0.0000E+000  
  341.00  0.0000E+000  
  341.50  0.0000E+000  
  342.00  0.0000E+000  
  342.50  0.0000E+000  
  343.00  0.0000E+000  
  343.50  0.0000E+000  
  344.00  0.0000E+000  
  344.50  0.0000E+000  
  345.00  0.0000E+000  
  345.50  0.0000E+000  
  346.00  0.0000E+000  
  346.50  0.0000E+000  
  347.00  0.0000E+000  
  347.50  0.0000E+000  
  348.00  0.0000E+000  
  348.50  0.0000E+000  
  349.00  0.0000E+000  
  349.50  0.0000E+000  
  350.00  0.0000E+000  
  350.50  0.0000E+000  
  351.00  0.0000E+000  
  351.50  0.0000E+000  
  352.00  0.0000E+000  
  352.50  0.0000E+000  
  353.00  0.0000E+000  
  353.50  0.0000E+000  
  354.00  0.0000E+000  
  354.50  0.0000E+000  
  355.00  0.0000E+000  
  355.50  0.0000E+000  
  356.00  0.0000E+000  
  356.50  0.0000E+000  
  357.00  0.0000E+000  
  357.50  3.4677E-006  
  358.00  5.4421E-005  
  358.50  6.4788E-005  
  359.00  8.4275E-005  
  359.50  1.1014E-004  
  360.00  1.0626E-004  
  360.50  1.2527E-004  
  361.00  1.3385E-004  
  361.50  1.1993E-004  
  362.00  1.4159E-004  
  362.50  2.5712E-004  
  363.00  8.2836E-004  
  363.50  2.4804E-003  
  364.00  5.2440E-003  
  364.50  8.2018E-003  
  365.00  9.9580E-003  
  365.50  9.6389E-003  
  366.00  7.3165E-003  
  366.50  4.6899E-003  
  367.00  2.5772E-003  
  367.50  1.3433E-003  
  368.00  6.8204E-004  
  368.50  3.8432E-004  
  369.00  2.6661E-004  
  369.50  1.8515E-004  
  370.00  1.1455E-004  
  370.50  9.1594E-005  
  371.00  8.9373E-005  
  371.50  1.0055E-004  
  372.00  1.1365E-004  
  372.50  1.2970E-004  
  373.00  9.4863E-005  
  373.50  6.0139E-005  
  374.00  3.8487E-005  
  374.50  2.5126E-005  
  375.00  7.1668E-005  
  375.50  1.3810E-004  
  376.00  1.8554E-004  
  376.50  2.0053E-004  
  377.00  2.1663E-004  
  377.50  1.9953E-004  
  378.00  1.9990E-004  
  378.50  2.2716E-004  
  379.00  2.5229E-004  
  379.50  3.0557E-004  
  380.00  3.5933E-004  
  380.50  3.7532E-004  
  381.00  4.2329E-004  
  381.50  3.7266E-004  
  382.00  2.9632E-004  
  382.50  2.5260E-004  
  383.00  2.0461E-004  
  383.50  1.7080E-004  
  384.00  1.6216E-004  
  384.50  1.6893E-004  
  385.00  1.6555E-004  
  385.50  2.0874E-004  
  386.00  1.9316E-004  
  386.50  1.9223E-004  
  387.00  1.9646E-004  
  387.50  2.2438E-004  
  388.00  2.3143E-004  
  388.50  2.8247E-004  
  389.00  2.8855E-004  
  389.50  2.8666E-004  
  390.00  3.0419E-004  
  390.50  3.0924E-004  
  391.00  3.7660E-004  
  391.50  4.0391E-004  
  392.00  3.8544E-004  
  392.50  3.6003E-004  
  393.00  3.5561E-004  
  393.50  3.9196E-004  
  394.00  4.4741E-004  
  394.50  4.6665E-004  
  395.00  4.5817E-004  
  395.50  4.6029E-004  
  396.00  4.8200E-004  
  396.50  5.3536E-004  
  397.00  6.1813E-004  
  397.50  7.1088E-004  
  398.00  7.7281E-004  
  398.50  8.6494E-004  
  399.00  8.9853E-004  
  399.50  9.7217E-004  
  400.00  1.0965E-003  
  400.50  1.2156E-003  
  401.00  1.3495E-003  
  401.50  1.5224E-003  
  402.00  1.8881E-003  
  402.50  3.7610E-003  
  403.00  1.2636E-002  
  403.50  2.9488E-002  
  404.00  4.8179E-002  
  404.50  5.7137E-002  
  405.00  5.1669E-002  
  405.50  3.4521E-002  
  406.00  1.8253E-002  
  406.50  9.8270E-003  
  407.00  8.2134E-003  
  407.50  8.3041E-003  
  408.00  7.8361E-003  
  408.50  6.3060E-003  
  409.00  4.6104E-003  
  409.50  3.6219E-003  
  410.00  3.2661E-003  
  410.50  3.2884E-003  
  411.00  3.3896E-003  
  411.50  3.5300E-003  
  412.00  3.6876E-003  
  412.50  3.8412E-003  
  413.00  3.9482E-003  
  413.50  4.0554E-003  
  414.00  4.1945E-003  
  414.50  4.3551E-003  
  415.00  4.5659E-003  
  415.50  4.7790E-003  
  416.00  5.0099E-003  
  416.50  5.1983E-003  
  417.00  5.3658E-003  
  417.50  5.5357E-003  
  418.00  5.7202E-003  
  418.50  5.9239E-003  
  419.00  6.1419E-003  
  419.50  6.3685E-003  
  420.00  6.6578E-003  
  420.50  6.9570E-003  
  421.00  7.2623E-003  
  421.50  7.5316E-003  
  422.00  7.8154E-003  
  422.50  8.0782E-003  
  423.00  8.2985E-003  
  423.50  8.5677E-003  
  424.00  8.7880E-003  
  424.50  9.0280E-003  
  425.00  9.3386E-003  
  425.50  9.6612E-003  
  426.00  9.9679E-003  
  426.50  1.0270E-002  
  427.00  1.0503E-002  
  427.50  1.0841E-002  
  428.00  1.1237E-002  
  428.50  1.1553E-002  
  429.00  1.1845E-002  
  429.50  1.2057E-002  
  430.00  1.2317E-002  
  430.50  1.2635E-002  
  431.00  1.2946E-002  
  431.50  1.3238E-002  
  432.00  1.3628E-002  
  432.50  1.4187E-002  
  433.00  1.5142E-002  
  433.50  1.8320E-002  
  434.00  3.0883E-002  
  434.50  6.4730E-002  
  435.00  1.1195E-001  
  435.50  1.4743E-001  
  436.00  1.4489E-001  
  436.50  1.1033E-001  
  437.00  6.5496E-002  
  437.50  3.4774E-002  
  438.00  2.2252E-002  
  438.50  1.8675E-002  
  439.00  1.7412E-002  
  439.50  1.6985E-002  
  440.00  1.6760E-002  
  440.50  1.6633E-002  
  441.00  1.6548E-002  
  441.50  1.6462E-002  
  442.00  1.6458E-002  
  442.50  1.6398E-002  
  443.00  1.6415E-002  
  443.50  1.6453E-002  
  444.00  1.6512E-002  
  444.50  1.6609E-002  
  445.00  1.6637E-002  
  445.50  1.6612E-002  
  446.00  1.6582E-002  
  446.50  1.6527E-002  
  447.00  1.6492E-002  
  447.50  1.6489E-002  
  448.00  1.6483E-002  
  448.50  1.6460E-002  
  449.00  1.6440E-002  
  449.50  1.6434E-002  
  450.00  1.6428E-002  
  450.50  1.6360E-002  
  451.00  1.6280E-002  
  451.50  1.6155E-002  
  452.00  1.6090E-002  
  452.50  1.6055E-002  
  453.00  1.5988E-002  
  453.50  1.5855E-002  
  454.00  1.5763E-002  
  454.50  1.5596E-002  
  455.00  1.5524E-002  
  455.50  1.5421E-002  
  456.00  1.5302E-002  
  456.50  1.5286E-002  
  457.00  1.5189E-002  
  457.50  1.5146E-002  
  458.00  1.5022E-002  
  458.50  1.4869E-002  
  459.00  1.4704E-002  
  459.50  1.4540E-002  
  460.00  1.4368E-002  
  460.50  1.4199E-002  
  461.00  1.4094E-002  
  461.50  1.3929E-002  
  462.00  1.3783E-002  
  462.50  1.3566E-002  
  463.00  1.3379E-002  
  463.50  1.3171E-002  
  464.00  1.2893E-002  
  464.50  1.2668E-002  
  465.00  1.2483E-002  
  465.50  1.2349E-002  
  466.00  1.2155E-002  
  466.50  1.1944E-002  
  467.00  1.1802E-002  
  467.50  1.1759E-002  
  468.00  1.1715E-002  
  468.50  1.1628E-002  
  469.00  1.1489E-002  
  469.50  1.1358E-002  
  470.00  1.1154E-002  
  470.50  1.0971E-002  
  471.00  1.0795E-002  
  471.50  1.0620E-002  
  472.00  1.0455E-002  
  472.50  1.0327E-002  
  473.00  1.0262E-002  
  473.50  1.0318E-002  
  474.00  1.0287E-002  
  474.50  1.0158E-002  
  475.00  9.9351E-003  
  475.50  9.6701E-003  
  476.00  9.4663E-003  
  476.50  9.3128E-003  
  477.00  9.1974E-003  
  477.50  9.0969E-003  
  478.00  9.0172E-003  
  478.50  9.0446E-003  
  479.00  9.1943E-003  
  479.50  9.4328E-003  
  480.00  9.7294E-003  
  480.50  1.0079E-002  
  481.00  1.0561E-002  
  481.50  1.1278E-002  
  482.00  1.2393E-002  
  482.50  1.3907E-002  
  483.00  1.5771E-002  
  483.50  1.7895E-002  
  484.00  2.0208E-002  
  484.50  2.2825E-002  
  485.00  2.5547E-002  
  485.50  2.8032E-002  
  486.00  3.0051E-002  
  486.50  3.1250E-002  
  487.00  3.1629E-002  
  487.50  3.1343E-002  
  488.00  3.0550E-002  
  488.50  2.9595E-002  
  489.00  2.8596E-002  
  489.50  2.7513E-002  
  490.00  2.6501E-002  
  490.50  2.5639E-002  
  491.00  2.4958E-002  
  491.50  2.4199E-002  
  492.00  2.3251E-002  
  492.50  2.2169E-002  
  493.00  2.1111E-002  
  493.50  2.0110E-002  
  494.00  1.9132E-002  
  494.50  1.8219E-002  
  495.00  1.7446E-002  
  495.50  1.6834E-002  
  496.00  1.6336E-002  
  496.50  1.5965E-002  
  497.00  1.5530E-002  
  497.50  1.4946E-002  
  498.00  1.4182E-002  
  498.50  1.3266E-002  
  499.00  1.2392E-002  
  499.50  1.1611E-002  
  500.00  1.0923E-002  
  500.50  1.0299E-002  
  501.00  9.7657E-003  
  501.50  9.3747E-003  
  502.00  9.1510E-003  
  502.50  9.0203E-003  
  503.00  8.8837E-003  
  503.50  8.7779E-003  
  504.00  8.7157E-003  
  504.50  8.7527E-003  
  505.00  8.8493E-003  
  505.50  8.9883E-003  
  506.00  9.1433E-003  
  506.50  9.2865E-003  
  507.00  9.4922E-003  
  507.50  9.7358E-003  
  508.00  1.0038E-002  
  508.50  1.0307E-002  
  509.00  1.0542E-002  
  509.50  1.0772E-002  
  510.00  1.1003E-002  
  510.50  1.1219E-002  
  511.00  1.1409E-002  
  511.50  1.1584E-002  
  512.00  1.1750E-002  
  512.50  1.1876E-002  
  513.00  1.1894E-002  
  513.50  1.1891E-002  
  514.00  1.1860E-002  
  514.50  1.1824E-002  
  515.00  1.1727E-002  
  515.50  1.1627E-002  
  516.00  1.1513E-002  
  516.50  1.1390E-002  
  517.00  1.1257E-002  
  517.50  1.1057E-002  
  518.00  1.0892E-002  
  518.50  1.0696E-002  
  519.00  1.0513E-002  
  519.50  1.0328E-002  
  520.00  1.0155E-002  
  520.50  1.0040E-002  
  521.00  9.9162E-003  
  521.50  9.7367E-003  
  522.00  9.4863E-003  
  522.50  9.2174E-003  
  523.00  9.0498E-003  
  523.50  8.9522E-003  
  524.00  8.8995E-003  
  524.50  8.7872E-003  
  525.00  8.6302E-003  
  525.50  8.5132E-003  
  526.00  8.4060E-003  
  526.50  8.3534E-003  
  527.00  8.2810E-003  
  527.50  8.1543E-003  
  528.00  8.0355E-003  
  528.50  7.9270E-003  
  529.00  7.8335E-003  
  529.50  7.7150E-003  
  530.00  7.5948E-003  
  530.50  7.5307E-003  
  531.00  7.5942E-003  
  531.50  7.8568E-003  
  532.00  8.3910E-003  
  532.50  9.1547E-003  
  533.00  9.8559E-003  
  533.50  1.0169E-002  
  534.00  1.0084E-002  
  534.50  9.9023E-003  
  535.00  9.9695E-003  
  535.50  1.0570E-002  
  536.00  1.1771E-002  
  536.50  1.3707E-002  
  537.00  1.6458E-002  
  537.50  1.9898E-002  
  538.00  2.3895E-002  
  538.50  2.8654E-002  
  539.00  3.5055E-002  
  539.50  4.4312E-002  
  540.00  5.8484E-002  
  540.50  7.7841E-002  
  541.00  9.9407E-002  
  541.50  1.1835E-001  
  542.00  1.3015E-001  
  542.50  1.3558E-001  
  543.00  1.3700E-001  
  543.50  1.3688E-001  
  544.00  1.3745E-001  
  544.50  1.3983E-001  
  545.00  1.4288E-001  
  545.50  1.4580E-001  
  546.00  1.4509E-001  
  546.50  1.3546E-001  
  547.00  1.1576E-001  
  547.50  9.2499E-002  
  548.00  7.4702E-002  
  548.50  6.5447E-002  
  549.00  6.0256E-002  
  549.50  5.5180E-002  
  550.00  4.9635E-002  
  550.50  4.4425E-002  
  551.00  4.0193E-002  
  551.50  3.6894E-002  
  552.00  3.3883E-002  
  552.50  3.0592E-002  
  553.00  2.6909E-002  
  553.50  2.2923E-002  
  554.00  1.8971E-002  
  554.50  1.5456E-002  
  555.00  1.2560E-002  
  555.50  1.0526E-002  
  556.00  9.0808E-003  
  556.50  8.0897E-003  
  557.00  7.3357E-003  
  557.50  6.7465E-003  
  558.00  6.2695E-003  
  558.50  5.8709E-003  
  559.00  5.4960E-003  
  559.50  5.1345E-003  
  560.00  4.8379E-003  
  560.50  4.6249E-003  
  561.00  4.4996E-003  
  561.50  4.3854E-003  
  562.00  4.2587E-003  
  562.50  4.0587E-003  
  563.00  3.8533E-003  
  563.50  3.6732E-003  
  564.00  3.5629E-003  
  564.50  3.4358E-003  
  565.00  3.2966E-003  
  565.50  3.1275E-003  
  566.00  3.0292E-003  
  566.50  2.9747E-003  
  567.00  2.9547E-003  
  567.50  2.9207E-003  
  568.00  2.9200E-003  
  568.50  2.9169E-003  
  569.00  2.9075E-003  
  569.50  2.8235E-003  
  570.00  2.6969E-003  
  570.50  2.5898E-003  
  571.00  2.5663E-003  
  571.50  2.6447E-003  
  572.00  2.7900E-003  
  572.50  2.9505E-003  
  573.00  3.1212E-003  
  573.50  3.3019E-003  
  574.00  3.5414E-003  
  574.50  3.9513E-003  
  575.00  5.6203E-003  
  575.50  1.0672E-002  
  576.00  1.9728E-002  
  576.50  2.8601E-002  
  577.00  3.2482E-002  
  577.50  3.1020E-002  
  578.00  3.0527E-002  
  578.50  3.4658E-002  
  579.00  3.9178E-002  
  579.50  3.9237E-002  
  580.00  3.4974E-002  
  580.50  2.9938E-002  
  581.00  2.7025E-002  
  581.50  2.6421E-002  
  582.00  2.8261E-002  
  582.50  3.1372E-002  
  583.00  3.4505E-002  
  583.50  3.6399E-002  
  584.00  3.6411E-002  
  584.50  3.4811E-002  
  585.00  3.2829E-002  
  585.50  3.2621E-002  
  586.00  3.5747E-002  
  586.50  4.2286E-002  
  587.00  4.8104E-002  
  587.50  4.8972E-002  
  588.00  4.3831E-002  
  588.50  3.6004E-002  
  589.00  2.9527E-002  
  589.50  2.5656E-002  
  590.00  2.4103E-002  
  590.50  2.3710E-002  
  591.00  2.4383E-002  
  591.50  2.6595E-002  
  592.00  3.0304E-002  
  592.50  3.4128E-002  
  593.00  3.5661E-002  
  593.50  3.2967E-002  
  594.00  2.7294E-002  
  594.50  2.1081E-002  
  595.00  1.6658E-002  
  595.50  1.4193E-002  
  596.00  1.3268E-002  
  596.50  1.3033E-002  
  597.00  1.3391E-002  
  597.50  1.4633E-002  
  598.00  1.6820E-002  
  598.50  1.9750E-002  
  599.00  2.2288E-002  
  599.50  2.3083E-002  
  600.00  2.1770E-002  
  600.50  1.8791E-002  
  601.00  1.5452E-002  
  601.50  1.2583E-002  
  602.00  1.0671E-002  
  602.50  9.5504E-003  
  603.00  9.1435E-003  
  603.50  9.2242E-003  
  604.00  9.6113E-003  
  604.50  1.0162E-002  
  605.00  1.0800E-002  
  605.50  1.1629E-002  
  606.00  1.2745E-002  
  606.50  1.4390E-002  
  607.00  1.6850E-002  
  607.50  2.0402E-002  
  608.00  2.5897E-002  
  608.50  3.5048E-002  
  609.00  5.1529E-002  
  609.50  8.5402E-002  
  610.00  1.3145E-001  
  610.50  1.7346E-001  
  611.00  1.9806E-001  
  611.50  2.0341E-001  
  612.00  1.9438E-001  
  612.50  1.7498E-001  
  613.00  1.4875E-001  
  613.50  1.2583E-001  
  614.00  1.1012E-001  
  614.50  9.7503E-002  
  615.00  8.3989E-002  
  615.50  6.9233E-002  
  616.00  5.5470E-002  
  616.50  4.4415E-002  
  617.00  3.7028E-002  
  617.50  3.2151E-002  
  618.00  2.9309E-002  
  618.50  2.8008E-002  
  619.00  2.7934E-002  
  619.50  2.8867E-002  
  620.00  2.9993E-002  
  620.50  3.0694E-002  
  621.00  3.0608E-002  
  621.50  2.9903E-002  
  622.00  2.8971E-002  
  622.50  2.8221E-002  
  623.00  2.7780E-002  
  623.50  2.7613E-002  
  624.00  2.7440E-002  
  624.50  2.7135E-002  
  625.00  2.6601E-002  
  625.50  2.5931E-002  
  626.00  2.5254E-002  
  626.50  2.4576E-002  
  627.00  2.3976E-002  
  627.50  2.3461E-002  
  628.00  2.3244E-002  
  628.50  2.3551E-002  
  629.00  2.5217E-002  
  629.50  2.9039E-002  
  630.00  3.5408E-002  
  630.50  4.1396E-002  
  631.00  4.3156E-002  
  631.50  3.8033E-002  
  632.00  2.8693E-002  
  632.50  1.9204E-002  
  633.00  1.2644E-002  
  633.50  8.9996E-003  
  634.00  7.3545E-003  
  634.50  6.4975E-003  
  635.00  5.9907E-003  
  635.50  5.5992E-003  
  636.00  5.2772E-003  
  636.50  4.9757E-003  
  637.00  4.7136E-003  
  637.50  4.4068E-003  
  638.00  4.1245E-003  
  638.50  3.8731E-003  
  639.00  3.7174E-003  
  639.50  3.6640E-003  
  640.00  3.6562E-003  
  640.50  3.6705E-003  
  641.00  3.6746E-003  
  641.50  3.6992E-003  
  642.00  3.7836E-003  
  642.50  3.8660E-003  
  643.00  3.9869E-003  
  643.50  4.0757E-003  
  644.00  4.1545E-003  
  644.50  4.1500E-003  
  645.00  4.1309E-003  
  645.50  4.0688E-003  
  646.00  4.0164E-003  
  646.50  3.9459E-003  
  647.00  3.9102E-003  
  647.50  3.8923E-003  
  648.00  4.0648E-003  
  648.50  4.6562E-003  
  649.00  5.9985E-003  
  649.50  8.2535E-003  
  650.00  1.0678E-002  
  650.50  1.2056E-002  
  651.00  1.1435E-002  
  651.50  9.5449E-003  
  652.00  7.6528E-003  
  652.50  6.6618E-003  
  653.00  6.2908E-003  
  653.50  5.9055E-003  
  654.00  5.1912E-003  
  654.50  4.2959E-003  
  655.00  3.6214E-003  
  655.50  3.2853E-003  
  656.00  3.2233E-003  
  656.50  3.3105E-003  
  657.00  3.5588E-003  
  657.50  3.7975E-003  
  658.00  3.8161E-003  
  658.50  3.4834E-003  
  659.00  3.0170E-003  
  659.50  2.5868E-003  
  660.00  2.3932E-003  
  660.50  2.5211E-003  
  661.00  3.3484E-003  
  661.50  4.8928E-003  
  662.00  6.5424E-003  
  662.50  7.4087E-003  
  663.00  7.0394E-003  
  663.50  5.9083E-003  
  664.00  4.6512E-003  
  664.50  3.6830E-003  
  665.00  3.1089E-003  
  665.50  2.8550E-003  
  666.00  2.8620E-003  
  666.50  3.0214E-003  
  667.00  3.1606E-003  
  667.50  3.1766E-003  
  668.00  3.1085E-003  
  668.50  2.9893E-003  
  669.00  2.8955E-003  
  669.50  2.7455E-003  
  670.00  2.6445E-003  
  670.50  2.5465E-003  
  671.00  2.4527E-003  
  671.50  2.3823E-003  
  672.00  2.3574E-003  
  672.50  2.2953E-003  
  673.00  2.2042E-003  
  673.50  2.0990E-003  
  674.00  2.0540E-003  
  674.50  2.0084E-003  
  675.00  1.9573E-003  
  675.50  1.9473E-003  
  676.00  1.9356E-003  
  676.50  1.9416E-003  
  677.00  1.9498E-003  
  677.50  2.0267E-003  
  678.00  2.1327E-003  
  678.50  2.2802E-003  
  679.00  2.4036E-003  
  679.50  2.4681E-003  
  680.00  2.4978E-003  
  680.50  2.4872E-003  
  681.00  2.4757E-003  
  681.50  2.4302E-003  
  682.00  2.3505E-003  
  682.50  2.2406E-003  
  683.00  2.1101E-003  
  683.50  1.9706E-003  
  684.00  1.8449E-003  
  684.50  1.7827E-003  
  685.00  1.8411E-003  
  685.50  2.1558E-003  
  686.00  2.8989E-003  
  686.50  4.1273E-003  
  687.00  5.6095E-003  
  687.50  6.7074E-003  
  688.00  6.8578E-003  
  688.50  5.9523E-003  
  689.00  4.4469E-003  
  689.50  3.0847E-003  
  690.00  2.2214E-003  
  690.50  1.8197E-003  
  691.00  1.6624E-003  
  691.50  1.5741E-003  
  692.00  1.7387E-003  
  692.50  2.5042E-003  
  693.00  3.6774E-003  
  693.50  4.6525E-003  
  694.00  4.6095E-003  
  694.50  3.5822E-003  
  695.00  2.3762E-003  
  695.50  1.4302E-003  
  696.00  9.8764E-004  
  696.50  7.2374E-004  
  697.00  6.1998E-004  
  697.50  5.6748E-004  
  698.00  5.2613E-004  
  698.50  4.8220E-004  
  699.00  4.8799E-004  
  699.50  5.7804E-004  
  700.00  7.2590E-004  
  700.50  8.1639E-004  
  701.00  8.5307E-004  
  701.50  8.5404E-004  
  702.00  9.6362E-004  
  702.50  1.1905E-003  
  703.00  1.5686E-003  
  703.50  2.0685E-003  
  704.00  2.6809E-003  
  704.50  3.5584E-003  
  705.00  5.0336E-003  
  705.50  7.4778E-003  
  706.00  1.0830E-002  
  706.50  1.4191E-002  
  707.00  1.6335E-002  
  707.50  1.6776E-002  
  708.00  1.6938E-002  
  708.50  1.7912E-002  
  709.00  1.8454E-002  
  709.50  1.6463E-002  
  710.00  1.2302E-002  
  710.50  8.8226E-003  
  711.00  8.5943E-003  
  711.50  1.1359E-002  
  712.00  1.4353E-002  
  712.50  1.5016E-002  
  713.00  1.2436E-002  
  713.50  8.2075E-003  
  714.00  4.4999E-003  
  714.50  2.2224E-003  
  715.00  1.0800E-003  
  715.50  6.0692E-004  
  716.00  3.5074E-004  
  716.50  1.9700E-004  
  717.00  1.3258E-004  
  717.50  1.9154E-004  
  718.00  2.5729E-004  
  718.50  2.9010E-004  
  719.00  3.0780E-004  
  719.50  2.7017E-004  
  720.00  2.4648E-004  
  720.50  1.7197E-004  
  721.00  1.5141E-004  
  721.50  8.2464E-005  
  722.00  5.9955E-005  
  722.50  1.1268E-005  
  723.00  0.0000E+000  
  723.50  0.0000E+000  
  724.00  0.0000E+000  
  724.50  0.0000E+000  
  725.00  0.0000E+000  
  725.50  0.0000E+000  
  726.00  0.0000E+000  
  726.50  0.0000E+000  
  727.00  0.0000E+000  
  727.50  1.2707E-005  
  728.00  1.5587E-004  
  728.50  1.6665E-004  
  729.00  1.6259E-004  
  729.50  1.6369E-004  
  730.00  3.1658E-004  
  730.50  2.9346E-004  
  731.00  1.1929E-004  
  731.50  0.0000E+000  
  732.00  0.0000E+000  
  732.50  0.0000E+000  
  733.00  0.0000E+000  
  733.50  0.0000E+000  
  734.00  0.0000E+000  
  734.50  0.0000E+000  
  735.00  0.0000E+000  
  735.50  0.0000E+000  
  736.00  0.0000E+000  
  736.50  0.0000E+000  
  737.00  2.3416E-006  
  737.50  4.7914E-005  
  738.00  1.3237E-004  
  738.50  2.2206E-004  
  739.00  1.9886E-004  
  739.50  3.1513E-005  
  740.00  0.0000E+000  
  740.50  1.3856E-005  
  741.00  5.6113E-005  
  741.50  1.2142E-004  
  742.00  2.2319E-004  
  742.50  3.7088E-004  
  743.00  3.6033E-004  
  743.50  2.3735E-004  
  744.00  3.3925E-005  
  744.50  0.0000E+000  
  745.00  0.0000E+000  
  745.50  0.0000E+000  
  746.00  0.0000E+000  
  746.50  0.0000E+000  
  747.00  0.0000E+000  
  747.50  0.0000E+000  
  748.00  0.0000E+000  
  748.50  0.0000E+000  
  749.00  0.0000E+000  
  749.50  7.0766E-005  
  750.00  4.0056E-004  
  750.50  2.2903E-004  
  751.00  0.0000E+000  
  751.50  0.0000E+000  
  752.00  0.0000E+000  
  752.50  0.0000E+000  
  753.00  0.0000E+000  
  753.50  0.0000E+000  
  754.00  0.0000E+000  
  754.50  0.0000E+000  
  755.00  0.0000E+000  
  755.50  0.0000E+000  
  756.00  0.0000E+000  
  756.50  0.0000E+000  
  757.00  0.0000E+000  
  757.50  0.0000E+000  
  758.00  0.0000E+000  
  758.50  0.0000E+000  
  759.00  0.0000E+000  
  759.50  0.0000E+000  
  760.00  0.0000E+000  
  760.50  0.0000E+000  
  761.00  0.0000E+000  
  761.50  0.0000E+000  
  762.00  0.0000E+000  
  762.50  1.3846E-004  
  763.00  5.3707E-004  
  763.50  8.6290E-004  
  764.00  7.3969E-004  
  764.50  2.0593E-004  
  765.00  0.0000E+000  
  765.50  0.0000E+000  
  766.00  0.0000E+000  
  766.50  0.0000E+000  
  767.00  0.0000E+000  
  767.50  0.0000E+000  
  768.00  0.0000E+000  
  768.50  0.0000E+000  
  769.00  0.0000E+000  
  769.50  0.0000E+000  
  770.00  0.0000E+000  
  770.50  0.0000E+000  
  771.00  0.0000E+000  
  771.50  0.0000E+000  
  772.00  0.0000E+000  
  772.50  0.0000E+000  
  773.00  0.0000E+000  
  773.50  0.0000E+000  
  774.00  0.0000E+000  
  774.50  0.0000E+000  
  775.00  0.0000E+000  
  775.50  0.0000E+000  
  776.00  0.0000E+000  
  776.50  0.0000E+000  
  777.00  0.0000E+000  
  777.50  0.0000E+000  
  778.00  0.0000E+000  
  778.50  0.0000E+000  
  779.00  0.0000E+000  
  779.50  0.0000E+000  
  780.00  0.0000E+000  
  780.50  0.0000E+000  
  781.00  0.0000E+000  
  781.50  0.0000E+000  
  782.00  0.0000E+000  
  782.50  0.0000E+000  
  783.00  0.0000E+000  
  783.50  0.0000E+000  
  784.00  0.0000E+000  
  784.50  0.0000E+000  
  785.00  0.0000E+000  
  785.50  0.0000E+000  
  786.00  0.0000E+000  
  786.50  0.0000E+000  
  787.00  0.0000E+000  
  787.50  0.0000E+000  
  788.00  0.0000E+000  
  788.50  0.0000E+000  
  789.00  0.0000E+000  
  789.50  0.0000E+000  
  790.00  0.0000E+000  
  790.50  0.0000E+000  
  791.00  0.0000E+000  
  791.50  0.0000E+000  
  792.00  0.0000E+000  
  792.50  0.0000E+000  
  793.00  0.0000E+000  
  793.50  0.0000E+000  
  794.00  0.0000E+000  
  794.50  0.0000E+000  
  795.00  0.0000E+000  
  795.50  0.0000E+000  
  796.00  0.0000E+000  
  796.50  0.0000E+000  
  797.00  0.0000E+000  
  797.50  0.0000E+000  
  798.00  0.0000E+000  
  798.50  0.0000E+000  
  799.00  0.0000E+000  
  799.50  0.0000E+000  
  800.00  0.0000E+000  
  800.50  0.0000E+000  
  801.00  1.0403E-004  
  801.50  3.9765E-005  
  802.00  0.0000E+000  
  802.50  0.0000E+000  
  803.00  0.0000E+000  
  803.50  0.0000E+000  
  804.00  0.0000E+000  
  804.50  0.0000E+000  
  805.00  0.0000E+000  
  805.50  0.0000E+000  
  806.00  0.0000E+000  
  806.50  0.0000E+000  
  807.00  0.0000E+000  
  807.50  0.0000E+000  
  808.00  0.0000E+000  
  808.50  3.8038E-004  
  809.00  1.1058E-003  
  809.50  9.8770E-004  
  810.00  6.1204E-004  
  810.50  6.9241E-004  
  811.00  9.6804E-004  
  811.50  9.9371E-004  
  812.00  5.2101E-004  
  812.50  7.2375E-006  
  813.00  0.0000E+000  
  813.50  0.0000E+000  
  814.00  0.0000E+000  
  814.50  0.0000E+000  
  815.00  0.0000E+000  
  815.50  0.0000E+000  
  816.00  0.0000E+000  
  816.50  0.0000E+000  
  817.00  0.0000E+000  
  817.50  0.0000E+000  
  818.00  0.0000E+000  
  818.50  0.0000E+000  
  819.00  0.0000E+000  
  819.50  0.0000E+000  
  820.00  0.0000E+000  
  820.50  0.0000E+000  
  821.00  0.0000E+000  
  821.50  0.0000E+000  
  822.00  0.0000E+000  
  822.50  0.0000E+000  
  823.00  0.0000E+000  
  823.50  0.0000E+000  
  824.00  0.0000E+000  
  824.50  0.0000E+000  
  825.00  0.0000E+000  
  825.50  0.0000E+000  
  826.00  0.0000E+000  
  826.50  0.0000E+000  
  827.00  0.0000E+000  
  827.50  0.0000E+000  
  828.00  0.0000E+000  
  828.50  0.0000E+000  
  829.00  0.0000E+000  
  829.50  0.0000E+000  
  830.00  0.0000E+000  
  830.50  0.0000E+000  
  831.00  0.0000E+000  
  831.50  0.0000E+000  
  832.00  0.0000E+000  
  832.50  0.0000E+000  
  833.00  0.0000E+000  
  833.50  0.0000E+000  
  834.00  0.0000E+000  
  834.50  0.0000E+000  
  835.00  0.0000E+000  
  835.50  0.0000E+000  
  836.00  0.0000E+000  
  836.50  0.0000E+000  
  837.00  0.0000E+000  
  837.50  0.0000E+000  
  838.00  0.0000E+000  
  838.50  0.0000E+000  
  839.00  0.0000E+000  
  839.50  0.0000E+000  
  840.00  0.0000E+000  
  840.50  0.0000E+000  
  841.00  0.0000E+000  
  841.50  0.0000E+000  
  842.00  0.0000E+000  
  842.50  0.0000E+000  
  843.00  0.0000E+000  
  843.50  0.0000E+000  
  844.00  0.0000E+000  
  844.50  0.0000E+000  
  845.00  0.0000E+000  
  845.50  0.0000E+000  
  846.00  0.0000E+000  
  846.50  0.0000E+000  
  847.00  0.0000E+000  
  847.50  0.0000E+000  
  848.00  0.0000E+000  
  848.50  0.0000E+000  
  849.00  0.0000E+000  
  849.50  0.0000E+000  
  850.00  0.0000E+000  
  850.50  0.0000E+000  
  851.00  0.0000E+000  
  851.50  0.0000E+000  
  852.00  0.0000E+000  
  852.50  0.0000E+000  
  853.00  0.0000E+000  
  853.50  0.0000E+000  
  854.00  0.0000E+000  
  854.50  0.0000E+000  
  855.00  0.0000E+000  
  855.50  0.0000E+000  
  856.00  0.0000E+000  
  856.50  0.0000E+000  
  857.00  0.0000E+000  
  857.50  0.0000E+000  
  858.00  0.0000E+000  
  858.50  0.0000E+000  
  859.00  0.0000E+000  
  859.50  0.0000E+000  
  860.00  0.0000E+000  
  860.50  0.0000E+000  
  861.00  0.0000E+000  
  861.50  0.0000E+000  
  862.00  0.0000E+000  
  862.50  0.0000E+000  
  863.00  0.0000E+000  
  863.50  0.0000E+000  
  864.00  0.0000E+000  
  864.50  0.0000E+000  
  865.00  0.0000E+000  
  865.50  0.0000E+000  
  866.00  0.0000E+000  
  866.50  0.0000E+000  
  867.00  0.0000E+000  
  867.50  0.0000E+000  
  868.00  0.0000E+000  
  868.50  0.0000E+000  
  869.00  0.0000E+000  
  869.50  0.0000E+000  
  870.00  5.8523E-004  
  870.50  2.1730E-003  
  871.00  2.4832E-003  
  871.50  1.8032E-003  
  872.00  4.8346E-004  
  872.50  0.0000E+000  
  873.00  0.0000E+000  
  873.50  0.0000E+000  
  874.00  0.0000E+000  
  874.50  0.0000E+000  
  875.00  0.0000E+000  
  875.50  0.0000E+000  
  876.00  0.0000E+000  
  876.50  0.0000E+000  
  877.00  0.0000E+000  
  877.50  0.0000E+000  
  878.00  0.0000E+000  
  878.50  0.0000E+000  
  879.00  0.0000E+000  
  879.50  0.0000E+000  
  880.00  0.0000E+000  
  880.50  0.0000E+000  
  881.00  0.0000E+000  
  881.50  0.0000E+000  
  882.00  0.0000E+000  
  882.50  0.0000E+000  
  883.00  0.0000E+000  
  883.50  0.0000E+000  
  884.00  0.0000E+000  
  884.50  0.0000E+000  
  885.00  0.0000E+000  
  885.50  0.0000E+000  
  886.00  0.0000E+000  
  886.50  0.0000E+000  
  887.00  0.0000E+000  
  887.50  0.0000E+000  
  888.00  0.0000E+000  
  888.50  0.0000E+000  
  889.00  0.0000E+000  
  889.50  0.0000E+000  
  890.00  0.0000E+000  
  890.50  0.0000E+000  
  891.00  0.0000E+000  
  891.50  0.0000E+000  
  892.00  0.0000E+000  
  892.50  0.0000E+000  
  893.00  0.0000E+000  
  893.50  0.0000E+000  
  894.00  0.0000E+000  
  894.50  0.0000E+000  
  895.00  0.0000E+000  
  895.50  0.0000E+000  
  896.00  0.0000E+000  
  896.50  0.0000E+000  
  897.00  0.0000E+000  
  897.50  0.0000E+000  
  898.00  0.0000E+000  
  898.50  0.0000E+000  
  899.00  0.0000E+000  
  899.50  0.0000E+000  
