
# From lspdd.org
# 
# Name: Halo Standard Par30 LN Domestique
# Indice spectral Valeur 
# MSI 0.31 
# SLI 0.52 
# IPI 0.93 
# Pourcentage de bleu 13.4 
# Caractéristique Valeur 
# CCT calculée (K) 2709 
# CCT du fabricant (K) 3000 
# Tension (V) 130 
# Puissance (W) 75.0 
# Efficacité lumineuse (Lum/W) ND 
#
# Image: '/app/system/img_2s/2561/medium_image2.JPG?1413486329'
# Image: '/app/system/img_1s/2561/medium_image1.jpg?1413486333'
# 

  273.00  0.0000E+000  
  273.50  0.0000E+000  
  274.00  0.0000E+000  
  274.50  0.0000E+000  
  275.00  0.0000E+000  
  275.50  0.0000E+000  
  276.00  0.0000E+000  
  276.50  0.0000E+000  
  277.00  0.0000E+000  
  277.50  0.0000E+000  
  278.00  0.0000E+000  
  278.50  0.0000E+000  
  279.00  0.0000E+000  
  279.50  0.0000E+000  
  280.00  0.0000E+000  
  280.50  0.0000E+000  
  281.00  0.0000E+000  
  281.50  0.0000E+000  
  282.00  0.0000E+000  
  282.50  0.0000E+000  
  283.00  0.0000E+000  
  283.50  0.0000E+000  
  284.00  0.0000E+000  
  284.50  0.0000E+000  
  285.00  0.0000E+000  
  285.50  0.0000E+000  
  286.00  0.0000E+000  
  286.50  0.0000E+000  
  287.00  0.0000E+000  
  287.50  0.0000E+000  
  288.00  0.0000E+000  
  288.50  0.0000E+000  
  289.00  0.0000E+000  
  289.50  0.0000E+000  
  290.00  0.0000E+000  
  290.50  0.0000E+000  
  291.00  0.0000E+000  
  291.50  0.0000E+000  
  292.00  0.0000E+000  
  292.50  0.0000E+000  
  293.00  0.0000E+000  
  293.50  0.0000E+000  
  294.00  0.0000E+000  
  294.50  0.0000E+000  
  295.00  0.0000E+000  
  295.50  0.0000E+000  
  296.00  0.0000E+000  
  296.50  0.0000E+000  
  297.00  0.0000E+000  
  297.50  0.0000E+000  
  298.00  0.0000E+000  
  298.50  0.0000E+000  
  299.00  0.0000E+000  
  299.50  0.0000E+000  
  300.00  5.8354E-005  
  300.50  1.6677E-004  
  301.00  1.8771E-004  
  301.50  1.7679E-004  
  302.00  1.3340E-004  
  302.50  7.6299E-005  
  303.00  3.7151E-005  
  303.50  2.0313E-005  
  304.00  4.9281E-005  
  304.50  7.2042E-005  
  305.00  9.0857E-005  
  305.50  9.3821E-005  
  306.00  5.3927E-005  
  306.50  4.8053E-005  
  307.00  3.7294E-005  
  307.50  5.2823E-005  
  308.00  6.9248E-005  
  308.50  6.9353E-005  
  309.00  7.0582E-005  
  309.50  4.9263E-005  
  310.00  5.8460E-005  
  310.50  1.1005E-004  
  311.00  1.7576E-004  
  311.50  1.9247E-004  
  312.00  1.8335E-004  
  312.50  1.0965E-004  
  313.00  5.3470E-005  
  313.50  4.0941E-005  
  314.00  1.0459E-005  
  314.50  2.2294E-005  
  315.00  6.4949E-005  
  315.50  8.7703E-005  
  316.00  1.2784E-004  
  316.50  1.6533E-004  
  317.00  1.7347E-004  
  317.50  1.9495E-004  
  318.00  1.3731E-004  
  318.50  7.2834E-005  
  319.00  6.0577E-005  
  319.50  3.3199E-005  
  320.00  5.6688E-005  
  320.50  7.6756E-005  
  321.00  8.1789E-005  
  321.50  1.2682E-004  
  322.00  1.8284E-004  
  322.50  1.7652E-004  
  323.00  1.7815E-004  
  323.50  1.2773E-004  
  324.00  9.4892E-005  
  324.50  1.2242E-004  
  325.00  1.1617E-004  
  325.50  1.4473E-004  
  326.00  1.3705E-004  
  326.50  1.4626E-004  
  327.00  1.6393E-004  
  327.50  1.8290E-004  
  328.00  1.6451E-004  
  328.50  1.3834E-004  
  329.00  1.4840E-004  
  329.50  1.9400E-004  
  330.00  2.3745E-004  
  330.50  2.8104E-004  
  331.00  3.3352E-004  
  331.50  3.9589E-004  
  332.00  4.2328E-004  
  332.50  4.1061E-004  
  333.00  3.8059E-004  
  333.50  3.3726E-004  
  334.00  3.5460E-004  
  334.50  3.4110E-004  
  335.00  3.6075E-004  
  335.50  4.0679E-004  
  336.00  4.5945E-004  
  336.50  5.5006E-004  
  337.00  5.7917E-004  
  337.50  5.7992E-004  
  338.00  5.4814E-004  
  338.50  5.3343E-004  
  339.00  5.1497E-004  
  339.50  5.2754E-004  
  340.00  5.8651E-004  
  340.50  6.5505E-004  
  341.00  6.9314E-004  
  341.50  7.2115E-004  
  342.00  7.2744E-004  
  342.50  7.1871E-004  
  343.00  7.2557E-004  
  343.50  7.2946E-004  
  344.00  7.2591E-004  
  344.50  7.3769E-004  
  345.00  7.8299E-004  
  345.50  8.2358E-004  
  346.00  8.7045E-004  
  346.50  9.3432E-004  
  347.00  9.3288E-004  
  347.50  9.2153E-004  
  348.00  9.1745E-004  
  348.50  9.2671E-004  
  349.00  9.4126E-004  
  349.50  9.4456E-004  
  350.00  9.5704E-004  
  350.50  9.7454E-004  
  351.00  1.0316E-003  
  351.50  1.0658E-003  
  352.00  1.0309E-003  
  352.50  1.0382E-003  
  353.00  1.0741E-003  
  353.50  1.1160E-003  
  354.00  1.1974E-003  
  354.50  1.2174E-003  
  355.00  1.2262E-003  
  355.50  1.2682E-003  
  356.00  1.2895E-003  
  356.50  1.2881E-003  
  357.00  1.3050E-003  
  357.50  1.3294E-003  
  358.00  1.4026E-003  
  358.50  1.4713E-003  
  359.00  1.5311E-003  
  359.50  1.5628E-003  
  360.00  1.5888E-003  
  360.50  1.6308E-003  
  361.00  1.6510E-003  
  361.50  1.6413E-003  
  362.00  1.6373E-003  
  362.50  1.6329E-003  
  363.00  1.6708E-003  
  363.50  1.7271E-003  
  364.00  1.7550E-003  
  364.50  1.7654E-003  
  365.00  1.7193E-003  
  365.50  1.6612E-003  
  366.00  1.6052E-003  
  366.50  1.5976E-003  
  367.00  1.6505E-003  
  367.50  1.7461E-003  
  368.00  1.8282E-003  
  368.50  1.9310E-003  
  369.00  1.9960E-003  
  369.50  2.0564E-003  
  370.00  2.1258E-003  
  370.50  2.1744E-003  
  371.00  2.1804E-003  
  371.50  2.1469E-003  
  372.00  2.1373E-003  
  372.50  2.1160E-003  
  373.00  2.1544E-003  
  373.50  2.2024E-003  
  374.00  2.2209E-003  
  374.50  2.2403E-003  
  375.00  2.2925E-003  
  375.50  2.3294E-003  
  376.00  2.3700E-003  
  376.50  2.3955E-003  
  377.00  2.3905E-003  
  377.50  2.3966E-003  
  378.00  2.4482E-003  
  378.50  2.4958E-003  
  379.00  2.4950E-003  
  379.50  2.5487E-003  
  380.00  2.6208E-003  
  380.50  2.7014E-003  
  381.00  2.7979E-003  
  381.50  2.7649E-003  
  382.00  2.7531E-003  
  382.50  2.7575E-003  
  383.00  2.7830E-003  
  383.50  2.8520E-003  
  384.00  2.8876E-003  
  384.50  3.0013E-003  
  385.00  3.0968E-003  
  385.50  3.2010E-003  
  386.00  3.2273E-003  
  386.50  3.2685E-003  
  387.00  3.2940E-003  
  387.50  3.3784E-003  
  388.00  3.4472E-003  
  388.50  3.4965E-003  
  389.00  3.4880E-003  
  389.50  3.4372E-003  
  390.00  3.4336E-003  
  390.50  3.4327E-003  
  391.00  3.5127E-003  
  391.50  3.5672E-003  
  392.00  3.6138E-003  
  392.50  3.6428E-003  
  393.00  3.7069E-003  
  393.50  3.7652E-003  
  394.00  3.7723E-003  
  394.50  3.7508E-003  
  395.00  3.7266E-003  
  395.50  3.7783E-003  
  396.00  3.8473E-003  
  396.50  3.9504E-003  
  397.00  3.9938E-003  
  397.50  3.9973E-003  
  398.00  4.0514E-003  
  398.50  4.1186E-003  
  399.00  4.1119E-003  
  399.50  4.1492E-003  
  400.00  4.2030E-003  
  400.50  4.2499E-003  
  401.00  4.3612E-003  
  401.50  4.3781E-003  
  402.00  4.3955E-003  
  402.50  4.3984E-003  
  403.00  4.4189E-003  
  403.50  4.4767E-003  
  404.00  4.5415E-003  
  404.50  4.6100E-003  
  405.00  4.6828E-003  
  405.50  4.6839E-003  
  406.00  4.6785E-003  
  406.50  4.7472E-003  
  407.00  4.8166E-003  
  407.50  4.8996E-003  
  408.00  4.9645E-003  
  408.50  4.9559E-003  
  409.00  4.9893E-003  
  409.50  5.0605E-003  
  410.00  5.1441E-003  
  410.50  5.2389E-003  
  411.00  5.2941E-003  
  411.50  5.3518E-003  
  412.00  5.4150E-003  
  412.50  5.4483E-003  
  413.00  5.4688E-003  
  413.50  5.4981E-003  
  414.00  5.5159E-003  
  414.50  5.5519E-003  
  415.00  5.5986E-003  
  415.50  5.6592E-003  
  416.00  5.7697E-003  
  416.50  5.8859E-003  
  417.00  5.9740E-003  
  417.50  6.0176E-003  
  418.00  6.0496E-003  
  418.50  6.0534E-003  
  419.00  6.1034E-003  
  419.50  6.1476E-003  
  420.00  6.2121E-003  
  420.50  6.2822E-003  
  421.00  6.3522E-003  
  421.50  6.4077E-003  
  422.00  6.5015E-003  
  422.50  6.6069E-003  
  423.00  6.7057E-003  
  423.50  6.7893E-003  
  424.00  6.8002E-003  
  424.50  6.7770E-003  
  425.00  6.7749E-003  
  425.50  6.8023E-003  
  426.00  6.8807E-003  
  426.50  6.9766E-003  
  427.00  7.0618E-003  
  427.50  7.1523E-003  
  428.00  7.2106E-003  
  428.50  7.2768E-003  
  429.00  7.3919E-003  
  429.50  7.4661E-003  
  430.00  7.5333E-003  
  430.50  7.5670E-003  
  431.00  7.5459E-003  
  431.50  7.5399E-003  
  432.00  7.5603E-003  
  432.50  7.5887E-003  
  433.00  7.6336E-003  
  433.50  7.7078E-003  
  434.00  7.8148E-003  
  434.50  7.9305E-003  
  435.00  8.0226E-003  
  435.50  8.0972E-003  
  436.00  8.1693E-003  
  436.50  8.2393E-003  
  437.00  8.3529E-003  
  437.50  8.3639E-003  
  438.00  8.4143E-003  
  438.50  8.4622E-003  
  439.00  8.5454E-003  
  439.50  8.6436E-003  
  440.00  8.7383E-003  
  440.50  8.8533E-003  
  441.00  8.9395E-003  
  441.50  8.9723E-003  
  442.00  8.9959E-003  
  442.50  9.0084E-003  
  443.00  9.1444E-003  
  443.50  9.2970E-003  
  444.00  9.4328E-003  
  444.50  9.5358E-003  
  445.00  9.5863E-003  
  445.50  9.5752E-003  
  446.00  9.5537E-003  
  446.50  9.5062E-003  
  447.00  9.5402E-003  
  447.50  9.6044E-003  
  448.00  9.7237E-003  
  448.50  9.8485E-003  
  449.00  9.9370E-003  
  449.50  1.0062E-002  
  450.00  1.0159E-002  
  450.50  1.0224E-002  
  451.00  1.0316E-002  
  451.50  1.0400E-002  
  452.00  1.0530E-002  
  452.50  1.0611E-002  
  453.00  1.0653E-002  
  453.50  1.0704E-002  
  454.00  1.0776E-002  
  454.50  1.0848E-002  
  455.00  1.0957E-002  
  455.50  1.1036E-002  
  456.00  1.1097E-002  
  456.50  1.1146E-002  
  457.00  1.1216E-002  
  457.50  1.1368E-002  
  458.00  1.1545E-002  
  458.50  1.1636E-002  
  459.00  1.1722E-002  
  459.50  1.1788E-002  
  460.00  1.1887E-002  
  460.50  1.1977E-002  
  461.00  1.2018E-002  
  461.50  1.2045E-002  
  462.00  1.2197E-002  
  462.50  1.2346E-002  
  463.00  1.2483E-002  
  463.50  1.2579E-002  
  464.00  1.2597E-002  
  464.50  1.2651E-002  
  465.00  1.2715E-002  
  465.50  1.2787E-002  
  466.00  1.2856E-002  
  466.50  1.2902E-002  
  467.00  1.2962E-002  
  467.50  1.3026E-002  
  468.00  1.3125E-002  
  468.50  1.3189E-002  
  469.00  1.3288E-002  
  469.50  1.3393E-002  
  470.00  1.3466E-002  
  470.50  1.3619E-002  
  471.00  1.3736E-002  
  471.50  1.3825E-002  
  472.00  1.3893E-002  
  472.50  1.3948E-002  
  473.00  1.4024E-002  
  473.50  1.4207E-002  
  474.00  1.4369E-002  
  474.50  1.4511E-002  
  475.00  1.4615E-002  
  475.50  1.4668E-002  
  476.00  1.4678E-002  
  476.50  1.4750E-002  
  477.00  1.4849E-002  
  477.50  1.4968E-002  
  478.00  1.5034E-002  
  478.50  1.5122E-002  
  479.00  1.5214E-002  
  479.50  1.5315E-002  
  480.00  1.5455E-002  
  480.50  1.5497E-002  
  481.00  1.5527E-002  
  481.50  1.5562E-002  
  482.00  1.5632E-002  
  482.50  1.5710E-002  
  483.00  1.5797E-002  
  483.50  1.5886E-002  
  484.00  1.6023E-002  
  484.50  1.6128E-002  
  485.00  1.6220E-002  
  485.50  1.6292E-002  
  486.00  1.6388E-002  
  486.50  1.6530E-002  
  487.00  1.6633E-002  
  487.50  1.6735E-002  
  488.00  1.6827E-002  
  488.50  1.6969E-002  
  489.00  1.7132E-002  
  489.50  1.7229E-002  
  490.00  1.7309E-002  
  490.50  1.7380E-002  
  491.00  1.7492E-002  
  491.50  1.7629E-002  
  492.00  1.7709E-002  
  492.50  1.7799E-002  
  493.00  1.7914E-002  
  493.50  1.8068E-002  
  494.00  1.8234E-002  
  494.50  1.8367E-002  
  495.00  1.8438E-002  
  495.50  1.8487E-002  
  496.00  1.8546E-002  
  496.50  1.8655E-002  
  497.00  1.8805E-002  
  497.50  1.8943E-002  
  498.00  1.9084E-002  
  498.50  1.9210E-002  
  499.00  1.9385E-002  
  499.50  1.9524E-002  
  500.00  1.9669E-002  
  500.50  1.9757E-002  
  501.00  1.9853E-002  
  501.50  1.9981E-002  
  502.00  2.0142E-002  
  502.50  2.0334E-002  
  503.00  2.0512E-002  
  503.50  2.0670E-002  
  504.00  2.0827E-002  
  504.50  2.0948E-002  
  505.00  2.1075E-002  
  505.50  2.1210E-002  
  506.00  2.1347E-002  
  506.50  2.1505E-002  
  507.00  2.1686E-002  
  507.50  2.1846E-002  
  508.00  2.2009E-002  
  508.50  2.2112E-002  
  509.00  2.2203E-002  
  509.50  2.2330E-002  
  510.00  2.2498E-002  
  510.50  2.2697E-002  
  511.00  2.2936E-002  
  511.50  2.3162E-002  
  512.00  2.3401E-002  
  512.50  2.3561E-002  
  513.00  2.3716E-002  
  513.50  2.3843E-002  
  514.00  2.4004E-002  
  514.50  2.4175E-002  
  515.00  2.4313E-002  
  515.50  2.4448E-002  
  516.00  2.4615E-002  
  516.50  2.4790E-002  
  517.00  2.5016E-002  
  517.50  2.5230E-002  
  518.00  2.5430E-002  
  518.50  2.5630E-002  
  519.00  2.5805E-002  
  519.50  2.5981E-002  
  520.00  2.6110E-002  
  520.50  2.6251E-002  
  521.00  2.6447E-002  
  521.50  2.6655E-002  
  522.00  2.6877E-002  
  522.50  2.7062E-002  
  523.00  2.7276E-002  
  523.50  2.7510E-002  
  524.00  2.7716E-002  
  524.50  2.7842E-002  
  525.00  2.7941E-002  
  525.50  2.8018E-002  
  526.00  2.8187E-002  
  526.50  2.8417E-002  
  527.00  2.8687E-002  
  527.50  2.8965E-002  
  528.00  2.9154E-002  
  528.50  2.9338E-002  
  529.00  2.9448E-002  
  529.50  2.9597E-002  
  530.00  2.9763E-002  
  530.50  2.9955E-002  
  531.00  3.0191E-002  
  531.50  3.0390E-002  
  532.00  3.0589E-002  
  532.50  3.0792E-002  
  533.00  3.1004E-002  
  533.50  3.1201E-002  
  534.00  3.1387E-002  
  534.50  3.1583E-002  
  535.00  3.1757E-002  
  535.50  3.1955E-002  
  536.00  3.2130E-002  
  536.50  3.2293E-002  
  537.00  3.2479E-002  
  537.50  3.2646E-002  
  538.00  3.2880E-002  
  538.50  3.3078E-002  
  539.00  3.3314E-002  
  539.50  3.3489E-002  
  540.00  3.3716E-002  
  540.50  3.3917E-002  
  541.00  3.4072E-002  
  541.50  3.4168E-002  
  542.00  3.4174E-002  
  542.50  3.4289E-002  
  543.00  3.4536E-002  
  543.50  3.4850E-002  
  544.00  3.5116E-002  
  544.50  3.5299E-002  
  545.00  3.5449E-002  
  545.50  3.5615E-002  
  546.00  3.5806E-002  
  546.50  3.5966E-002  
  547.00  3.6128E-002  
  547.50  3.6302E-002  
  548.00  3.6507E-002  
  548.50  3.6728E-002  
  549.00  3.6932E-002  
  549.50  3.7125E-002  
  550.00  3.7305E-002  
  550.50  3.7536E-002  
  551.00  3.7753E-002  
  551.50  3.8013E-002  
  552.00  3.8237E-002  
  552.50  3.8441E-002  
  553.00  3.8661E-002  
  553.50  3.8858E-002  
  554.00  3.9084E-002  
  554.50  3.9258E-002  
  555.00  3.9406E-002  
  555.50  3.9583E-002  
  556.00  3.9771E-002  
  556.50  3.9972E-002  
  557.00  4.0139E-002  
  557.50  4.0311E-002  
  558.00  4.0527E-002  
  558.50  4.0774E-002  
  559.00  4.0956E-002  
  559.50  4.1149E-002  
  560.00  4.1315E-002  
  560.50  4.1423E-002  
  561.00  4.1567E-002  
  561.50  4.1733E-002  
  562.00  4.2001E-002  
  562.50  4.2254E-002  
  563.00  4.2463E-002  
  563.50  4.2644E-002  
  564.00  4.2811E-002  
  564.50  4.2907E-002  
  565.00  4.2995E-002  
  565.50  4.3081E-002  
  566.00  4.3246E-002  
  566.50  4.3418E-002  
  567.00  4.3565E-002  
  567.50  4.3661E-002  
  568.00  4.3842E-002  
  568.50  4.4105E-002  
  569.00  4.4415E-002  
  569.50  4.4680E-002  
  570.00  4.4845E-002  
  570.50  4.4992E-002  
  571.00  4.5091E-002  
  571.50  4.5217E-002  
  572.00  4.5321E-002  
  572.50  4.5438E-002  
  573.00  4.5547E-002  
  573.50  4.5686E-002  
  574.00  4.5952E-002  
  574.50  4.6188E-002  
  575.00  4.6374E-002  
  575.50  4.6443E-002  
  576.00  4.6554E-002  
  576.50  4.6755E-002  
  577.00  4.7038E-002  
  577.50  4.7249E-002  
  578.00  4.7366E-002  
  578.50  4.7434E-002  
  579.00  4.7509E-002  
  579.50  4.7608E-002  
  580.00  4.7722E-002  
  580.50  4.7887E-002  
  581.00  4.8039E-002  
  581.50  4.8229E-002  
  582.00  4.8359E-002  
  582.50  4.8509E-002  
  583.00  4.8717E-002  
  583.50  4.9005E-002  
  584.00  4.9266E-002  
  584.50  4.9399E-002  
  585.00  4.9447E-002  
  585.50  4.9463E-002  
  586.00  4.9533E-002  
  586.50  4.9672E-002  
  587.00  4.9856E-002  
  587.50  5.0063E-002  
  588.00  5.0218E-002  
  588.50  5.0404E-002  
  589.00  5.0607E-002  
  589.50  5.0790E-002  
  590.00  5.0846E-002  
  590.50  5.0938E-002  
  591.00  5.1154E-002  
  591.50  5.1432E-002  
  592.00  5.1639E-002  
  592.50  5.1785E-002  
  593.00  5.1822E-002  
  593.50  5.1879E-002  
  594.00  5.1982E-002  
  594.50  5.2185E-002  
  595.00  5.2388E-002  
  595.50  5.2433E-002  
  596.00  5.2429E-002  
  596.50  5.2507E-002  
  597.00  5.2687E-002  
  597.50  5.2873E-002  
  598.00  5.2930E-002  
  598.50  5.3004E-002  
  599.00  5.3155E-002  
  599.50  5.3323E-002  
  600.00  5.3479E-002  
  600.50  5.3532E-002  
  601.00  5.3697E-002  
  601.50  5.3858E-002  
  602.00  5.4083E-002  
  602.50  5.4241E-002  
  603.00  5.4401E-002  
  603.50  5.4458E-002  
  604.00  5.4514E-002  
  604.50  5.4573E-002  
  605.00  5.4654E-002  
  605.50  5.4741E-002  
  606.00  5.4815E-002  
  606.50  5.4995E-002  
  607.00  5.5166E-002  
  607.50  5.5359E-002  
  608.00  5.5429E-002  
  608.50  5.5461E-002  
  609.00  5.5470E-002  
  609.50  5.5588E-002  
  610.00  5.5829E-002  
  610.50  5.6090E-002  
  611.00  5.6285E-002  
  611.50  5.6360E-002  
  612.00  5.6421E-002  
  612.50  5.6520E-002  
  613.00  5.6667E-002  
  613.50  5.6782E-002  
  614.00  5.6906E-002  
  614.50  5.6873E-002  
  615.00  5.6910E-002  
  615.50  5.7008E-002  
  616.00  5.7222E-002  
  616.50  5.7409E-002  
  617.00  5.7509E-002  
  617.50  5.7664E-002  
  618.00  5.7854E-002  
  618.50  5.8057E-002  
  619.00  5.8125E-002  
  619.50  5.8099E-002  
  620.00  5.8056E-002  
  620.50  5.8086E-002  
  621.00  5.8199E-002  
  621.50  5.8345E-002  
  622.00  5.8484E-002  
  622.50  5.8637E-002  
  623.00  5.8753E-002  
  623.50  5.8883E-002  
  624.00  5.8953E-002  
  624.50  5.9041E-002  
  625.00  5.9076E-002  
  625.50  5.9130E-002  
  626.00  5.9244E-002  
  626.50  5.9401E-002  
  627.00  5.9582E-002  
  627.50  5.9621E-002  
  628.00  5.9588E-002  
  628.50  5.9591E-002  
  629.00  5.9779E-002  
  629.50  6.0106E-002  
  630.00  6.0381E-002  
  630.50  6.0442E-002  
  631.00  6.0427E-002  
  631.50  6.0564E-002  
  632.00  6.0781E-002  
  632.50  6.0997E-002  
  633.00  6.1062E-002  
  633.50  6.1090E-002  
  634.00  6.1057E-002  
  634.50  6.1052E-002  
  635.00  6.1118E-002  
  635.50  6.1218E-002  
  636.00  6.1446E-002  
  636.50  6.1642E-002  
  637.00  6.1794E-002  
  637.50  6.1755E-002  
  638.00  6.1632E-002  
  638.50  6.1672E-002  
  639.00  6.1714E-002  
  639.50  6.1837E-002  
  640.00  6.1880E-002  
  640.50  6.1952E-002  
  641.00  6.2101E-002  
  641.50  6.2265E-002  
  642.00  6.2487E-002  
  642.50  6.2614E-002  
  643.00  6.2677E-002  
  643.50  6.2690E-002  
  644.00  6.2856E-002  
  644.50  6.3010E-002  
  645.00  6.3181E-002  
  645.50  6.3163E-002  
  646.00  6.3243E-002  
  646.50  6.3263E-002  
  647.00  6.3357E-002  
  647.50  6.3353E-002  
  648.00  6.3512E-002  
  648.50  6.3654E-002  
  649.00  6.3781E-002  
  649.50  6.3898E-002  
  650.00  6.4062E-002  
  650.50  6.4191E-002  
  651.00  6.4093E-002  
  651.50  6.3917E-002  
  652.00  6.3866E-002  
  652.50  6.3970E-002  
  653.00  6.4126E-002  
  653.50  6.4289E-002  
  654.00  6.4425E-002  
  654.50  6.4448E-002  
  655.00  6.4630E-002  
  655.50  6.4844E-002  
  656.00  6.5102E-002  
  656.50  6.5100E-002  
  657.00  6.4992E-002  
  657.50  6.4979E-002  
  658.00  6.5054E-002  
  658.50  6.5225E-002  
  659.00  6.5436E-002  
  659.50  6.5611E-002  
  660.00  6.5753E-002  
  660.50  6.5771E-002  
  661.00  6.5762E-002  
  661.50  6.5809E-002  
  662.00  6.5803E-002  
  662.50  6.5876E-002  
  663.00  6.5872E-002  
  663.50  6.5883E-002  
  664.00  6.5817E-002  
  664.50  6.5842E-002  
  665.00  6.5895E-002  
  665.50  6.5880E-002  
  666.00  6.5867E-002  
  666.50  6.6059E-002  
  667.00  6.6287E-002  
  667.50  6.6359E-002  
  668.00  6.6275E-002  
  668.50  6.6373E-002  
  669.00  6.6616E-002  
  669.50  6.6817E-002  
  670.00  6.6723E-002  
  670.50  6.6684E-002  
  671.00  6.6731E-002  
  671.50  6.6872E-002  
  672.00  6.6997E-002  
  672.50  6.7048E-002  
  673.00  6.7187E-002  
  673.50  6.7208E-002  
  674.00  6.7192E-002  
  674.50  6.7115E-002  
  675.00  6.7129E-002  
  675.50  6.7331E-002  
  676.00  6.7492E-002  
  676.50  6.7659E-002  
  677.00  6.7740E-002  
  677.50  6.7790E-002  
  678.00  6.7696E-002  
  678.50  6.7497E-002  
  679.00  6.7449E-002  
  679.50  6.7586E-002  
  680.00  6.7921E-002  
  680.50  6.8136E-002  
  681.00  6.8162E-002  
  681.50  6.7934E-002  
  682.00  6.7933E-002  
  682.50  6.8100E-002  
  683.00  6.8373E-002  
  683.50  6.8607E-002  
  684.00  6.8573E-002  
  684.50  6.8368E-002  
  685.00  6.8271E-002  
  685.50  6.8564E-002  
  686.00  6.8968E-002  
  686.50  6.9155E-002  
  687.00  6.9272E-002  
  687.50  6.9405E-002  
  688.00  6.9414E-002  
  688.50  6.9348E-002  
  689.00  6.9145E-002  
  689.50  6.9222E-002  
  690.00  6.9353E-002  
  690.50  6.9621E-002  
  691.00  6.9766E-002  
  691.50  6.9848E-002  
  692.00  7.0068E-002  
  692.50  7.0220E-002  
  693.00  7.0381E-002  
  693.50  7.0368E-002  
  694.00  7.0294E-002  
  694.50  7.0248E-002  
  695.00  7.0252E-002  
  695.50  7.0308E-002  
  696.00  7.0405E-002  
  696.50  7.0441E-002  
  697.00  7.0591E-002  
  697.50  7.0820E-002  
  698.00  7.1239E-002  
  698.50  7.1472E-002  
  699.00  7.1573E-002  
  699.50  7.1404E-002  
  700.00  7.1303E-002  
  700.50  7.1375E-002  
  701.00  7.1658E-002  
  701.50  7.1820E-002  
  702.00  7.1758E-002  
  702.50  7.1583E-002  
  703.00  7.1556E-002  
  703.50  7.1683E-002  
  704.00  7.1875E-002  
  704.50  7.2025E-002  
  705.00  7.2234E-002  
  705.50  7.2253E-002  
  706.00  7.2156E-002  
  706.50  7.2026E-002  
  707.00  7.2041E-002  
  707.50  7.2301E-002  
  708.00  7.2279E-002  
  708.50  7.2281E-002  
  709.00  7.2231E-002  
  709.50  7.2526E-002  
  710.00  7.2666E-002  
  710.50  7.2825E-002  
  711.00  7.3019E-002  
  711.50  7.3109E-002  
  712.00  7.2991E-002  
  712.50  7.2934E-002  
  713.00  7.3212E-002  
  713.50  7.3572E-002  
  714.00  7.3768E-002  
  714.50  7.3864E-002  
  715.00  7.3824E-002  
  715.50  7.3797E-002  
  716.00  7.3824E-002  
  716.50  7.3861E-002  
  717.00  7.3797E-002  
  717.50  7.3989E-002  
  718.00  7.4354E-002  
  718.50  7.4556E-002  
  719.00  7.4535E-002  
  719.50  7.4401E-002  
  720.00  7.4418E-002  
  720.50  7.4383E-002  
  721.00  7.4520E-002  
  721.50  7.4606E-002  
  722.00  7.4651E-002  
  722.50  7.4750E-002  
  723.00  7.4866E-002  
  723.50  7.4893E-002  
  724.00  7.4850E-002  
  724.50  7.5036E-002  
  725.00  7.5522E-002  
  725.50  7.5870E-002  
  726.00  7.5910E-002  
  726.50  7.5788E-002  
  727.00  7.5972E-002  
  727.50  7.6114E-002  
  728.00  7.6106E-002  
  728.50  7.6046E-002  
  729.00  7.6282E-002  
  729.50  7.6460E-002  
  730.00  7.6533E-002  
  730.50  7.6762E-002  
  731.00  7.7005E-002  
  731.50  7.7067E-002  
  732.00  7.7107E-002  
  732.50  7.7285E-002  
  733.00  7.7493E-002  
  733.50  7.7453E-002  
  734.00  7.7371E-002  
  734.50  7.7224E-002  
  735.00  7.7253E-002  
  735.50  7.7304E-002  
  736.00  7.7393E-002  
  736.50  7.7231E-002  
  737.00  7.7123E-002  
  737.50  7.7188E-002  
  738.00  7.7442E-002  
  738.50  7.7581E-002  
  739.00  7.7764E-002  
  739.50  7.7830E-002  
  740.00  7.7991E-002  
  740.50  7.8062E-002  
  741.00  7.8069E-002  
  741.50  7.7968E-002  
  742.00  7.8096E-002  
  742.50  7.8376E-002  
  743.00  7.8677E-002  
  743.50  7.8887E-002  
  744.00  7.8898E-002  
  744.50  7.8759E-002  
  745.00  7.8835E-002  
  745.50  7.9028E-002  
  746.00  7.8992E-002  
  746.50  7.8822E-002  
  747.00  7.8799E-002  
  747.50  7.8901E-002  
  748.00  7.8846E-002  
  748.50  7.8862E-002  
  749.00  7.9028E-002  
  749.50  7.9422E-002  
  750.00  8.0015E-002  
  750.50  7.9799E-002  
  751.00  7.9351E-002  
  751.50  7.9087E-002  
  752.00  7.9552E-002  
  752.50  7.9835E-002  
  753.00  7.9887E-002  
  753.50  8.0088E-002  
  754.00  8.0125E-002  
  754.50  7.9911E-002  
  755.00  7.9857E-002  
  755.50  7.9743E-002  
  756.00  7.9795E-002  
  756.50  7.9738E-002  
  757.00  7.9895E-002  
  757.50  7.9928E-002  
  758.00  8.0114E-002  
  758.50  8.0294E-002  
  759.00  8.0406E-002  
  759.50  8.0397E-002  
  760.00  8.0243E-002  
  760.50  8.0128E-002  
  761.00  8.0359E-002  
  761.50  8.0782E-002  
  762.00  8.1019E-002  
  762.50  8.1122E-002  
  763.00  8.0996E-002  
  763.50  8.0873E-002  
  764.00  8.0573E-002  
  764.50  8.0392E-002  
  765.00  8.0532E-002  
  765.50  8.0810E-002  
  766.00  8.0812E-002  
  766.50  8.0620E-002  
  767.00  8.0707E-002  
  767.50  8.0915E-002  
  768.00  8.1167E-002  
  768.50  8.1169E-002  
  769.00  8.1181E-002  
  769.50  8.1138E-002  
  770.00  8.1106E-002  
  770.50  8.1208E-002  
  771.00  8.1552E-002  
  771.50  8.1792E-002  
  772.00  8.1604E-002  
  772.50  8.1351E-002  
  773.00  8.1402E-002  
  773.50  8.1814E-002  
  774.00  8.2149E-002  
  774.50  8.2511E-002  
  775.00  8.2302E-002  
  775.50  8.2313E-002  
  776.00  8.2162E-002  
  776.50  8.2152E-002  
  777.00  8.1987E-002  
  777.50  8.2125E-002  
  778.00  8.1797E-002  
  778.50  8.1723E-002  
  779.00  8.1484E-002  
  779.50  8.1843E-002  
  780.00  8.2107E-002  
  780.50  8.2301E-002  
  781.00  8.2392E-002  
  781.50  8.2853E-002  
  782.00  8.3198E-002  
  782.50  8.3094E-002  
  783.00  8.2976E-002  
  783.50  8.2678E-002  
  784.00  8.2470E-002  
  784.50  8.2709E-002  
  785.00  8.3164E-002  
  785.50  8.3423E-002  
  786.00  8.3172E-002  
  786.50  8.2994E-002  
  787.00  8.2956E-002  
  787.50  8.3293E-002  
  788.00  8.3360E-002  
  788.50  8.3207E-002  
  789.00  8.3358E-002  
  789.50  8.3899E-002  
  790.00  8.4307E-002  
  790.50  8.4097E-002  
  791.00  8.3723E-002  
  791.50  8.3535E-002  
  792.00  8.3689E-002  
  792.50  8.3880E-002  
  793.00  8.4230E-002  
  793.50  8.4330E-002  
  794.00  8.4156E-002  
  794.50  8.3951E-002  
  795.00  8.4029E-002  
  795.50  8.4098E-002  
  796.00  8.4144E-002  
  796.50  8.4383E-002  
  797.00  8.4629E-002  
  797.50  8.4589E-002  
  798.00  8.4144E-002  
  798.50  8.4125E-002  
  799.00  8.5069E-002  
  799.50  8.5489E-002  
  800.00  8.5541E-002  
  800.50  8.5389E-002  
  801.00  8.5271E-002  
  801.50  8.4739E-002  
  802.00  8.4667E-002  
  802.50  8.4845E-002  
  803.00  8.5068E-002  
  803.50  8.5032E-002  
  804.00  8.5113E-002  
  804.50  8.5261E-002  
  805.00  8.5245E-002  
  805.50  8.5304E-002  
  806.00  8.5356E-002  
  806.50  8.5208E-002  
  807.00  8.5342E-002  
  807.50  8.5298E-002  
  808.00  8.5299E-002  
  808.50  8.5547E-002  
  809.00  8.6214E-002  
  809.50  8.6037E-002  
  810.00  8.5889E-002  
  810.50  8.5439E-002  
  811.00  8.5194E-002  
  811.50  8.5310E-002  
  812.00  8.5831E-002  
  812.50  8.6286E-002  
  813.00  8.6616E-002  
  813.50  8.6922E-002  
  814.00  8.6982E-002  
  814.50  8.6855E-002  
  815.00  8.6949E-002  
  815.50  8.7116E-002  
  816.00  8.7235E-002  
  816.50  8.7206E-002  
  817.00  8.6933E-002  
  817.50  8.6325E-002  
  818.00  8.6189E-002  
  818.50  8.6235E-002  
  819.00  8.6632E-002  
  819.50  8.6908E-002  
  820.00  8.7082E-002  
  820.50  8.6838E-002  
  821.00  8.7075E-002  
  821.50  8.6764E-002  
  822.00  8.6990E-002  
  822.50  8.7335E-002  
  823.00  8.8041E-002  
  823.50  8.7764E-002  
  824.00  8.7301E-002  
  824.50  8.6942E-002  
  825.00  8.6934E-002  
  825.50  8.7121E-002  
  826.00  8.7375E-002  
  826.50  8.7365E-002  
  827.00  8.7141E-002  
  827.50  8.7306E-002  
  828.00  8.7388E-002  
  828.50  8.7495E-002  
  829.00  8.7554E-002  
  829.50  8.7437E-002  
  830.00  8.7404E-002  
  830.50  8.7288E-002  
  831.00  8.7242E-002  
  831.50  8.7162E-002  
  832.00  8.7105E-002  
  832.50  8.7395E-002  
  833.00  8.8142E-002  
  833.50  8.8109E-002  
  834.00  8.7499E-002  
  834.50  8.7449E-002  
  835.00  8.7255E-002  
  835.50  8.7577E-002  
  836.00  8.7644E-002  
  836.50  8.7324E-002  
  837.00  8.6938E-002  
  837.50  8.7069E-002  
  838.00  8.7529E-002  
  838.50  8.7426E-002  
  839.00  8.7400E-002  
  839.50  8.7356E-002  
  840.00  8.7336E-002  
  840.50  8.7400E-002  
  841.00  8.7741E-002  
  841.50  8.7899E-002  
  842.00  8.7552E-002  
  842.50  8.7409E-002  
  843.00  8.7823E-002  
  843.50  8.8645E-002  
  844.00  8.9010E-002  
  844.50  8.8703E-002  
  845.00  8.9147E-002  
  845.50  8.9780E-002  
  846.00  8.9620E-002  
  846.50  8.9982E-002  
  847.00  9.0574E-002  
  847.50  8.9767E-002  
  848.00  8.8878E-002  
  848.50  8.9382E-002  
  849.00  9.0059E-002  
  849.50  8.9953E-002  
  850.00  8.9471E-002  
  850.50  9.0456E-002  
  851.00  9.1563E-002  
  851.50  9.1012E-002  
  852.00  9.0415E-002  
  852.50  8.9990E-002  
  853.00  9.0187E-002  
  853.50  8.9909E-002  
  854.00  8.9719E-002  
  854.50  8.9750E-002  
  855.00  9.0195E-002  
  855.50  9.0948E-002  
  856.00  9.1376E-002  
  856.50  9.1016E-002  
  857.00  9.0789E-002  
  857.50  9.1078E-002  
  858.00  9.0804E-002  
  858.50  9.0567E-002  
  859.00  9.1478E-002  
  859.50  9.2200E-002  
  860.00  9.1698E-002  
  860.50  9.1217E-002  
  861.00  9.1182E-002  
  861.50  9.1182E-002  
  862.00  9.1366E-002  
  862.50  9.2132E-002  
  863.00  9.2565E-002  
  863.50  9.3700E-002  
  864.00  9.3095E-002  
  864.50  9.2423E-002  
  865.00  9.2287E-002  
  865.50  9.3175E-002  
  866.00  9.4344E-002  
  866.50  9.4218E-002  
  867.00  9.3727E-002  
  867.50  9.3164E-002  
  868.00  9.3190E-002  
  868.50  9.4194E-002  
  869.00  9.5500E-002  
  869.50  9.5688E-002  
  870.00  9.5442E-002  
  870.50  9.4865E-002  
  871.00  9.3925E-002  
  871.50  9.3998E-002  
  872.00  9.5494E-002  
  872.50  9.5852E-002  
  873.00  9.5111E-002  
  873.50  9.4566E-002  
  874.00  9.4635E-002  
  874.50  9.4710E-002  
  875.00  9.5108E-002  
  875.50  9.5907E-002  
  876.00  9.4917E-002  
  876.50  9.5317E-002  
  877.00  9.6757E-002  
  877.50  9.6814E-002  
  878.00  9.6301E-002  
  878.50  9.5825E-002  
  879.00  9.5838E-002  
  879.50  9.6573E-002  
  880.00  9.6076E-002  
  880.50  9.6129E-002  
  881.00  9.7048E-002  
  881.50  9.7030E-002  
  882.00  9.6874E-002  
  882.50  9.7464E-002  
  883.00  9.8422E-002  
  883.50  9.8022E-002  
  884.00  9.6948E-002  
  884.50  9.7428E-002  
  885.00  9.8613E-002  
  885.50  9.8181E-002  
  886.00  9.7480E-002  
  886.50  9.7852E-002  
  887.00  1.0013E-001  
  887.50  1.0070E-001  
  888.00  9.9804E-002  
  888.50  9.9335E-002  
  889.00  9.9432E-002  
  889.50  9.9372E-002  
  890.00  9.9623E-002  
  890.50  9.9629E-002  
  891.00  9.8641E-002  
  891.50  9.7225E-002  
  892.00  9.6987E-002  
  892.50  9.8046E-002  
  893.00  9.8631E-002  
  893.50  9.8773E-002  
  894.00  9.8022E-002  
  894.50  9.8198E-002  
  895.00  9.9377E-002  
  895.50  1.0019E-001  
  896.00  1.0149E-001  
  896.50  1.0073E-001  
  897.00  9.8723E-002  
  897.50  9.7254E-002  
  898.00  9.8421E-002  
  898.50  9.9897E-002  
  899.00  1.0091E-001  
  899.50  2.0060E-003  
