
# From lspdd.org
# 
# Name: DEL Sylvania A19 Domestique
# Indice spectral Valeur 
# MSI 0.59 
# SLI 0.74 
# IPI 0.68 
# Pourcentage de bleu 36.7 
# Caractéristique Valeur 
# CCT calculée (K) 4987 
# CCT du fabricant (K) 5087 
# Tension (V) 120 
# Puissance (W) 4.0 
# Efficacité lumineuse (Lum/W) 50.0 
#
# Image: '/app/system/img_2s/2562/medium_image2.JPG?1413486336'
# Image: '/app/system/img_1s/2562/medium_image1.JPG?1413486336'
# 

  273.00  0.0000E+000  
  273.50  0.0000E+000  
  274.00  0.0000E+000  
  274.50  0.0000E+000  
  275.00  0.0000E+000  
  275.50  0.0000E+000  
  276.00  0.0000E+000  
  276.50  0.0000E+000  
  277.00  0.0000E+000  
  277.50  0.0000E+000  
  278.00  0.0000E+000  
  278.50  0.0000E+000  
  279.00  0.0000E+000  
  279.50  0.0000E+000  
  280.00  0.0000E+000  
  280.50  0.0000E+000  
  281.00  0.0000E+000  
  281.50  0.0000E+000  
  282.00  0.0000E+000  
  282.50  0.0000E+000  
  283.00  0.0000E+000  
  283.50  0.0000E+000  
  284.00  0.0000E+000  
  284.50  0.0000E+000  
  285.00  0.0000E+000  
  285.50  0.0000E+000  
  286.00  0.0000E+000  
  286.50  0.0000E+000  
  287.00  0.0000E+000  
  287.50  0.0000E+000  
  288.00  0.0000E+000  
  288.50  0.0000E+000  
  289.00  0.0000E+000  
  289.50  0.0000E+000  
  290.00  0.0000E+000  
  290.50  0.0000E+000  
  291.00  0.0000E+000  
  291.50  0.0000E+000  
  292.00  0.0000E+000  
  292.50  0.0000E+000  
  293.00  0.0000E+000  
  293.50  0.0000E+000  
  294.00  0.0000E+000  
  294.50  0.0000E+000  
  295.00  0.0000E+000  
  295.50  0.0000E+000  
  296.00  0.0000E+000  
  296.50  0.0000E+000  
  297.00  0.0000E+000  
  297.50  0.0000E+000  
  298.00  0.0000E+000  
  298.50  0.0000E+000  
  299.00  0.0000E+000  
  299.50  0.0000E+000  
  300.00  0.0000E+000  
  300.50  0.0000E+000  
  301.00  3.2840E-006  
  301.50  2.3695E-005  
  302.00  8.6461E-005  
  302.50  1.0701E-004  
  303.00  1.3317E-004  
  303.50  8.5931E-005  
  304.00  3.5965E-005  
  304.50  0.0000E+000  
  305.00  0.0000E+000  
  305.50  0.0000E+000  
  306.00  0.0000E+000  
  306.50  4.6553E-006  
  307.00  2.2423E-005  
  307.50  2.2924E-005  
  308.00  1.8778E-005  
  308.50  0.0000E+000  
  309.00  5.0929E-005  
  309.50  1.4003E-004  
  310.00  1.8664E-004  
  310.50  1.8786E-004  
  311.00  7.7993E-005  
  311.50  7.9377E-006  
  312.00  0.0000E+000  
  312.50  2.9330E-007  
  313.00  2.0533E-005  
  313.50  1.6543E-005  
  314.00  9.9018E-007  
  314.50  0.0000E+000  
  315.00  0.0000E+000  
  315.50  0.0000E+000  
  316.00  0.0000E+000  
  316.50  0.0000E+000  
  317.00  0.0000E+000  
  317.50  4.6016E-006  
  318.00  4.3604E-005  
  318.50  6.2487E-005  
  319.00  8.7877E-005  
  319.50  8.3145E-005  
  320.00  4.9226E-005  
  320.50  5.5679E-005  
  321.00  9.0556E-005  
  321.50  1.0197E-004  
  322.00  9.3409E-005  
  322.50  1.0245E-004  
  323.00  8.6733E-005  
  323.50  5.9011E-005  
  324.00  3.9569E-005  
  324.50  4.6473E-005  
  325.00  3.9931E-005  
  325.50  6.4971E-005  
  326.00  6.8259E-005  
  326.50  2.7371E-005  
  327.00  4.0035E-006  
  327.50  0.0000E+000  
  328.00  1.3099E-005  
  328.50  2.7901E-005  
  329.00  3.7458E-005  
  329.50  3.3708E-005  
  330.00  0.0000E+000  
  330.50  0.0000E+000  
  331.00  0.0000E+000  
  331.50  0.0000E+000  
  332.00  1.5847E-005  
  332.50  5.9434E-005  
  333.00  8.0783E-005  
  333.50  5.9303E-005  
  334.00  3.2044E-005  
  334.50  0.0000E+000  
  335.00  0.0000E+000  
  335.50  0.0000E+000  
  336.00  0.0000E+000  
  336.50  0.0000E+000  
  337.00  0.0000E+000  
  337.50  0.0000E+000  
  338.00  9.7116E-006  
  338.50  6.5935E-005  
  339.00  1.2603E-004  
  339.50  5.0115E-005  
  340.00  0.0000E+000  
  340.50  0.0000E+000  
  341.00  0.0000E+000  
  341.50  1.9502E-005  
  342.00  8.8718E-005  
  342.50  1.6225E-004  
  343.00  1.6171E-004  
  343.50  9.0348E-005  
  344.00  4.1821E-005  
  344.50  8.7444E-006  
  345.00  0.0000E+000  
  345.50  0.0000E+000  
  346.00  0.0000E+000  
  346.50  0.0000E+000  
  347.00  4.2847E-006  
  347.50  4.6774E-005  
  348.00  7.1909E-005  
  348.50  5.8410E-005  
  349.00  8.9208E-006  
  349.50  0.0000E+000  
  350.00  1.5309E-005  
  350.50  4.5434E-005  
  351.00  6.3818E-005  
  351.50  4.8051E-005  
  352.00  4.7961E-005  
  352.50  5.7370E-005  
  353.00  1.0079E-004  
  353.50  7.5649E-005  
  354.00  6.8419E-005  
  354.50  5.1046E-005  
  355.00  3.8770E-005  
  355.50  6.0325E-005  
  356.00  4.3032E-005  
  356.50  6.3988E-005  
  357.00  8.5666E-005  
  357.50  9.5494E-005  
  358.00  1.2172E-004  
  358.50  1.1775E-004  
  359.00  1.2393E-004  
  359.50  9.7528E-005  
  360.00  8.3723E-005  
  360.50  1.2039E-004  
  361.00  1.4089E-004  
  361.50  1.4899E-004  
  362.00  1.3002E-004  
  362.50  8.9150E-005  
  363.00  1.2479E-004  
  363.50  1.7660E-004  
  364.00  2.3763E-004  
  364.50  2.6093E-004  
  365.00  2.5577E-004  
  365.50  2.5202E-004  
  366.00  1.5286E-004  
  366.50  9.3203E-005  
  367.00  2.4697E-005  
  367.50  0.0000E+000  
  368.00  0.0000E+000  
  368.50  0.0000E+000  
  369.00  8.6997E-006  
  369.50  7.1151E-005  
  370.00  1.0806E-004  
  370.50  1.3949E-004  
  371.00  1.5333E-004  
  371.50  8.3085E-005  
  372.00  3.2940E-005  
  372.50  1.5207E-005  
  373.00  1.1003E-005  
  373.50  5.8440E-005  
  374.00  7.1512E-005  
  374.50  1.4512E-004  
  375.00  1.7588E-004  
  375.50  1.8803E-004  
  376.00  1.6170E-004  
  376.50  1.1951E-004  
  377.00  1.2258E-004  
  377.50  1.5639E-004  
  378.00  1.5582E-004  
  378.50  1.0881E-004  
  379.00  6.1501E-005  
  379.50  6.1262E-005  
  380.00  1.1964E-004  
  380.50  1.3697E-004  
  381.00  1.2775E-004  
  381.50  1.0344E-004  
  382.00  9.4779E-005  
  382.50  9.8855E-005  
  383.00  8.2651E-005  
  383.50  8.2632E-005  
  384.00  7.4492E-005  
  384.50  1.0263E-004  
  385.00  1.3069E-004  
  385.50  1.2076E-004  
  386.00  1.4717E-004  
  386.50  1.4770E-004  
  387.00  9.5088E-005  
  387.50  5.2703E-005  
  388.00  6.6035E-005  
  388.50  1.1761E-004  
  389.00  1.8751E-004  
  389.50  2.1251E-004  
  390.00  2.0131E-004  
  390.50  2.3229E-004  
  391.00  2.2527E-004  
  391.50  2.4560E-004  
  392.00  2.5435E-004  
  392.50  2.3772E-004  
  393.00  2.3031E-004  
  393.50  1.7488E-004  
  394.00  1.2899E-004  
  394.50  1.0456E-004  
  395.00  1.1617E-004  
  395.50  1.2262E-004  
  396.00  1.1775E-004  
  396.50  1.2952E-004  
  397.00  1.3943E-004  
  397.50  1.3156E-004  
  398.00  1.7274E-004  
  398.50  1.5897E-004  
  399.00  2.1053E-004  
  399.50  2.0071E-004  
  400.00  1.5533E-004  
  400.50  1.2769E-004  
  401.00  1.0567E-004  
  401.50  1.1336E-004  
  402.00  1.5139E-004  
  402.50  1.8202E-004  
  403.00  2.3363E-004  
  403.50  2.7333E-004  
  404.00  2.7228E-004  
  404.50  2.9974E-004  
  405.00  2.9553E-004  
  405.50  3.3329E-004  
  406.00  3.5036E-004  
  406.50  3.1370E-004  
  407.00  3.1094E-004  
  407.50  2.7001E-004  
  408.00  2.5448E-004  
  408.50  2.5021E-004  
  409.00  2.7708E-004  
  409.50  3.5942E-004  
  410.00  4.1976E-004  
  410.50  4.3990E-004  
  411.00  4.2501E-004  
  411.50  4.2117E-004  
  412.00  4.0887E-004  
  412.50  4.1705E-004  
  413.00  3.9806E-004  
  413.50  4.2188E-004  
  414.00  4.9475E-004  
  414.50  5.5750E-004  
  415.00  6.4718E-004  
  415.50  7.6881E-004  
  416.00  8.9658E-004  
  416.50  1.0102E-003  
  417.00  1.0593E-003  
  417.50  1.0340E-003  
  418.00  1.0200E-003  
  418.50  1.0385E-003  
  419.00  1.1191E-003  
  419.50  1.2578E-003  
  420.00  1.3687E-003  
  420.50  1.4980E-003  
  421.00  1.5611E-003  
  421.50  1.6525E-003  
  422.00  1.7679E-003  
  422.50  1.9193E-003  
  423.00  2.1000E-003  
  423.50  2.3317E-003  
  424.00  2.5607E-003  
  424.50  2.7730E-003  
  425.00  2.9682E-003  
  425.50  3.1415E-003  
  426.00  3.3638E-003  
  426.50  3.6007E-003  
  427.00  3.8438E-003  
  427.50  4.0658E-003  
  428.00  4.3496E-003  
  428.50  4.6662E-003  
  429.00  5.0707E-003  
  429.50  5.4264E-003  
  430.00  5.7402E-003  
  430.50  6.1267E-003  
  431.00  6.5540E-003  
  431.50  7.0188E-003  
  432.00  7.4970E-003  
  432.50  7.9982E-003  
  433.00  8.5585E-003  
  433.50  9.2219E-003  
  434.00  9.9004E-003  
  434.50  1.0549E-002  
  435.00  1.1285E-002  
  435.50  1.2082E-002  
  436.00  1.2922E-002  
  436.50  1.3806E-002  
  437.00  1.4735E-002  
  437.50  1.5731E-002  
  438.00  1.6803E-002  
  438.50  1.7864E-002  
  439.00  1.8961E-002  
  439.50  2.0177E-002  
  440.00  2.1527E-002  
  440.50  2.2965E-002  
  441.00  2.4417E-002  
  441.50  2.5847E-002  
  442.00  2.7250E-002  
  442.50  2.8653E-002  
  443.00  3.0075E-002  
  443.50  3.1558E-002  
  444.00  3.3121E-002  
  444.50  3.4727E-002  
  445.00  3.6217E-002  
  445.50  3.7480E-002  
  446.00  3.8653E-002  
  446.50  3.9656E-002  
  447.00  4.0624E-002  
  447.50  4.1521E-002  
  448.00  4.2188E-002  
  448.50  4.2638E-002  
  449.00  4.2857E-002  
  449.50  4.2871E-002  
  450.00  4.2806E-002  
  450.50  4.2563E-002  
  451.00  4.2067E-002  
  451.50  4.1230E-002  
  452.00  4.0180E-002  
  452.50  3.9031E-002  
  453.00  3.7751E-002  
  453.50  3.6427E-002  
  454.00  3.5087E-002  
  454.50  3.3810E-002  
  455.00  3.2623E-002  
  455.50  3.1395E-002  
  456.00  3.0175E-002  
  456.50  2.9101E-002  
  457.00  2.8044E-002  
  457.50  2.7101E-002  
  458.00  2.6065E-002  
  458.50  2.5077E-002  
  459.00  2.4147E-002  
  459.50  2.3318E-002  
  460.00  2.2569E-002  
  460.50  2.1914E-002  
  461.00  2.1236E-002  
  461.50  2.0539E-002  
  462.00  1.9885E-002  
  462.50  1.9279E-002  
  463.00  1.8765E-002  
  463.50  1.8263E-002  
  464.00  1.7736E-002  
  464.50  1.7163E-002  
  465.00  1.6557E-002  
  465.50  1.5994E-002  
  466.00  1.5483E-002  
  466.50  1.5041E-002  
  467.00  1.4505E-002  
  467.50  1.3957E-002  
  468.00  1.3438E-002  
  468.50  1.3008E-002  
  469.00  1.2617E-002  
  469.50  1.2187E-002  
  470.00  1.1690E-002  
  470.50  1.1215E-002  
  471.00  1.0769E-002  
  471.50  1.0355E-002  
  472.00  9.9826E-003  
  472.50  9.6907E-003  
  473.00  9.3891E-003  
  473.50  9.0794E-003  
  474.00  8.7490E-003  
  474.50  8.4349E-003  
  475.00  8.1595E-003  
  475.50  7.9592E-003  
  476.00  7.7455E-003  
  476.50  7.5768E-003  
  477.00  7.4116E-003  
  477.50  7.2288E-003  
  478.00  7.0792E-003  
  478.50  7.0126E-003  
  479.00  6.9419E-003  
  479.50  6.8883E-003  
  480.00  6.8251E-003  
  480.50  6.6888E-003  
  481.00  6.5571E-003  
  481.50  6.4206E-003  
  482.00  6.3246E-003  
  482.50  6.2867E-003  
  483.00  6.2139E-003  
  483.50  6.1367E-003  
  484.00  6.0653E-003  
  484.50  6.0463E-003  
  485.00  6.0321E-003  
  485.50  6.0671E-003  
  486.00  6.1137E-003  
  486.50  6.1605E-003  
  487.00  6.1680E-003  
  487.50  6.1945E-003  
  488.00  6.2556E-003  
  488.50  6.3552E-003  
  489.00  6.4453E-003  
  489.50  6.4906E-003  
  490.00  6.5359E-003  
  490.50  6.5856E-003  
  491.00  6.6720E-003  
  491.50  6.7657E-003  
  492.00  6.8838E-003  
  492.50  6.9887E-003  
  493.00  7.1131E-003  
  493.50  7.2847E-003  
  494.00  7.4407E-003  
  494.50  7.6092E-003  
  495.00  7.7549E-003  
  495.50  7.8861E-003  
  496.00  8.0601E-003  
  496.50  8.2541E-003  
  497.00  8.4578E-003  
  497.50  8.6924E-003  
  498.00  8.9053E-003  
  498.50  9.0881E-003  
  499.00  9.2912E-003  
  499.50  9.5048E-003  
  500.00  9.7549E-003  
  500.50  1.0035E-002  
  501.00  1.0288E-002  
  501.50  1.0550E-002  
  502.00  1.0821E-002  
  502.50  1.1057E-002  
  503.00  1.1323E-002  
  503.50  1.1582E-002  
  504.00  1.1853E-002  
  504.50  1.2131E-002  
  505.00  1.2359E-002  
  505.50  1.2625E-002  
  506.00  1.2884E-002  
  506.50  1.3148E-002  
  507.00  1.3409E-002  
  507.50  1.3685E-002  
  508.00  1.3998E-002  
  508.50  1.4317E-002  
  509.00  1.4589E-002  
  509.50  1.4868E-002  
  510.00  1.5124E-002  
  510.50  1.5382E-002  
  511.00  1.5655E-002  
  511.50  1.5930E-002  
  512.00  1.6224E-002  
  512.50  1.6519E-002  
  513.00  1.6774E-002  
  513.50  1.7031E-002  
  514.00  1.7252E-002  
  514.50  1.7496E-002  
  515.00  1.7750E-002  
  515.50  1.8010E-002  
  516.00  1.8301E-002  
  516.50  1.8579E-002  
  517.00  1.8842E-002  
  517.50  1.9097E-002  
  518.00  1.9332E-002  
  518.50  1.9605E-002  
  519.00  1.9838E-002  
  519.50  2.0061E-002  
  520.00  2.0249E-002  
  520.50  2.0462E-002  
  521.00  2.0658E-002  
  521.50  2.0863E-002  
  522.00  2.1020E-002  
  522.50  2.1202E-002  
  523.00  2.1390E-002  
  523.50  2.1582E-002  
  524.00  2.1815E-002  
  524.50  2.2002E-002  
  525.00  2.2141E-002  
  525.50  2.2261E-002  
  526.00  2.2395E-002  
  526.50  2.2571E-002  
  527.00  2.2760E-002  
  527.50  2.2890E-002  
  528.00  2.3037E-002  
  528.50  2.3176E-002  
  529.00  2.3355E-002  
  529.50  2.3476E-002  
  530.00  2.3604E-002  
  530.50  2.3670E-002  
  531.00  2.3773E-002  
  531.50  2.3896E-002  
  532.00  2.4023E-002  
  532.50  2.4113E-002  
  533.00  2.4196E-002  
  533.50  2.4272E-002  
  534.00  2.4348E-002  
  534.50  2.4414E-002  
  535.00  2.4475E-002  
  535.50  2.4547E-002  
  536.00  2.4613E-002  
  536.50  2.4671E-002  
  537.00  2.4737E-002  
  537.50  2.4779E-002  
  538.00  2.4868E-002  
  538.50  2.4932E-002  
  539.00  2.4986E-002  
  539.50  2.5012E-002  
  540.00  2.5017E-002  
  540.50  2.5027E-002  
  541.00  2.5045E-002  
  541.50  2.5089E-002  
  542.00  2.5193E-002  
  542.50  2.5256E-002  
  543.00  2.5273E-002  
  543.50  2.5235E-002  
  544.00  2.5257E-002  
  544.50  2.5314E-002  
  545.00  2.5402E-002  
  545.50  2.5439E-002  
  546.00  2.5374E-002  
  546.50  2.5319E-002  
  547.00  2.5270E-002  
  547.50  2.5285E-002  
  548.00  2.5296E-002  
  548.50  2.5281E-002  
  549.00  2.5273E-002  
  549.50  2.5275E-002  
  550.00  2.5274E-002  
  550.50  2.5295E-002  
  551.00  2.5333E-002  
  551.50  2.5378E-002  
  552.00  2.5410E-002  
  552.50  2.5355E-002  
  553.00  2.5299E-002  
  553.50  2.5304E-002  
  554.00  2.5343E-002  
  554.50  2.5358E-002  
  555.00  2.5252E-002  
  555.50  2.5188E-002  
  556.00  2.5150E-002  
  556.50  2.5188E-002  
  557.00  2.5234E-002  
  557.50  2.5307E-002  
  558.00  2.5380E-002  
  558.50  2.5362E-002  
  559.00  2.5260E-002  
  559.50  2.5195E-002  
  560.00  2.5195E-002  
  560.50  2.5270E-002  
  561.00  2.5255E-002  
  561.50  2.5177E-002  
  562.00  2.5133E-002  
  562.50  2.5086E-002  
  563.00  2.5132E-002  
  563.50  2.5131E-002  
  564.00  2.5111E-002  
  564.50  2.5105E-002  
  565.00  2.5087E-002  
  565.50  2.5084E-002  
  566.00  2.5061E-002  
  566.50  2.5064E-002  
  567.00  2.5031E-002  
  567.50  2.5015E-002  
  568.00  2.5005E-002  
  568.50  2.5027E-002  
  569.00  2.5048E-002  
  569.50  2.5049E-002  
  570.00  2.5015E-002  
  570.50  2.4988E-002  
  571.00  2.4926E-002  
  571.50  2.4899E-002  
  572.00  2.4858E-002  
  572.50  2.4782E-002  
  573.00  2.4696E-002  
  573.50  2.4598E-002  
  574.00  2.4624E-002  
  574.50  2.4681E-002  
  575.00  2.4720E-002  
  575.50  2.4739E-002  
  576.00  2.4749E-002  
  576.50  2.4797E-002  
  577.00  2.4837E-002  
  577.50  2.4837E-002  
  578.00  2.4816E-002  
  578.50  2.4842E-002  
  579.00  2.4867E-002  
  579.50  2.4876E-002  
  580.00  2.4804E-002  
  580.50  2.4746E-002  
  581.00  2.4691E-002  
  581.50  2.4720E-002  
  582.00  2.4701E-002  
  582.50  2.4688E-002  
  583.00  2.4609E-002  
  583.50  2.4534E-002  
  584.00  2.4516E-002  
  584.50  2.4555E-002  
  585.00  2.4635E-002  
  585.50  2.4659E-002  
  586.00  2.4622E-002  
  586.50  2.4518E-002  
  587.00  2.4437E-002  
  587.50  2.4430E-002  
  588.00  2.4493E-002  
  588.50  2.4557E-002  
  589.00  2.4566E-002  
  589.50  2.4509E-002  
  590.00  2.4465E-002  
  590.50  2.4383E-002  
  591.00  2.4306E-002  
  591.50  2.4223E-002  
  592.00  2.4141E-002  
  592.50  2.4117E-002  
  593.00  2.4102E-002  
  593.50  2.4055E-002  
  594.00  2.4090E-002  
  594.50  2.4056E-002  
  595.00  2.4024E-002  
  595.50  2.3945E-002  
  596.00  2.3849E-002  
  596.50  2.3799E-002  
  597.00  2.3720E-002  
  597.50  2.3643E-002  
  598.00  2.3539E-002  
  598.50  2.3420E-002  
  599.00  2.3294E-002  
  599.50  2.3217E-002  
  600.00  2.3227E-002  
  600.50  2.3231E-002  
  601.00  2.3196E-002  
  601.50  2.3069E-002  
  602.00  2.2967E-002  
  602.50  2.2893E-002  
  603.00  2.2853E-002  
  603.50  2.2811E-002  
  604.00  2.2710E-002  
  604.50  2.2605E-002  
  605.00  2.2506E-002  
  605.50  2.2388E-002  
  606.00  2.2333E-002  
  606.50  2.2249E-002  
  607.00  2.2209E-002  
  607.50  2.2059E-002  
  608.00  2.1972E-002  
  608.50  2.1900E-002  
  609.00  2.1868E-002  
  609.50  2.1767E-002  
  610.00  2.1641E-002  
  610.50  2.1493E-002  
  611.00  2.1380E-002  
  611.50  2.1296E-002  
  612.00  2.1224E-002  
  612.50  2.1109E-002  
  613.00  2.0925E-002  
  613.50  2.0789E-002  
  614.00  2.0667E-002  
  614.50  2.0623E-002  
  615.00  2.0537E-002  
  615.50  2.0418E-002  
  616.00  2.0318E-002  
  616.50  2.0239E-002  
  617.00  2.0099E-002  
  617.50  1.9854E-002  
  618.00  1.9622E-002  
  618.50  1.9491E-002  
  619.00  1.9425E-002  
  619.50  1.9304E-002  
  620.00  1.9222E-002  
  620.50  1.9155E-002  
  621.00  1.9095E-002  
  621.50  1.8934E-002  
  622.00  1.8794E-002  
  622.50  1.8637E-002  
  623.00  1.8474E-002  
  623.50  1.8287E-002  
  624.00  1.8178E-002  
  624.50  1.8171E-002  
  625.00  1.8087E-002  
  625.50  1.7927E-002  
  626.00  1.7731E-002  
  626.50  1.7573E-002  
  627.00  1.7417E-002  
  627.50  1.7298E-002  
  628.00  1.7205E-002  
  628.50  1.7085E-002  
  629.00  1.6950E-002  
  629.50  1.6759E-002  
  630.00  1.6596E-002  
  630.50  1.6421E-002  
  631.00  1.6288E-002  
  631.50  1.6169E-002  
  632.00  1.5987E-002  
  632.50  1.5821E-002  
  633.00  1.5703E-002  
  633.50  1.5652E-002  
  634.00  1.5492E-002  
  634.50  1.5307E-002  
  635.00  1.5162E-002  
  635.50  1.5147E-002  
  636.00  1.5093E-002  
  636.50  1.4973E-002  
  637.00  1.4750E-002  
  637.50  1.4595E-002  
  638.00  1.4423E-002  
  638.50  1.4302E-002  
  639.00  1.4122E-002  
  639.50  1.3919E-002  
  640.00  1.3758E-002  
  640.50  1.3643E-002  
  641.00  1.3550E-002  
  641.50  1.3485E-002  
  642.00  1.3412E-002  
  642.50  1.3343E-002  
  643.00  1.3235E-002  
  643.50  1.3111E-002  
  644.00  1.2972E-002  
  644.50  1.2750E-002  
  645.00  1.2575E-002  
  645.50  1.2434E-002  
  646.00  1.2301E-002  
  646.50  1.2115E-002  
  647.00  1.1950E-002  
  647.50  1.1838E-002  
  648.00  1.1724E-002  
  648.50  1.1604E-002  
  649.00  1.1534E-002  
  649.50  1.1458E-002  
  650.00  1.1411E-002  
  650.50  1.1295E-002  
  651.00  1.1142E-002  
  651.50  1.0940E-002  
  652.00  1.0785E-002  
  652.50  1.0675E-002  
  653.00  1.0557E-002  
  653.50  1.0443E-002  
  654.00  1.0352E-002  
  654.50  1.0249E-002  
  655.00  1.0128E-002  
  655.50  1.0025E-002  
  656.00  9.8918E-003  
  656.50  9.7708E-003  
  657.00  9.6294E-003  
  657.50  9.5573E-003  
  658.00  9.4513E-003  
  658.50  9.3787E-003  
  659.00  9.2797E-003  
  659.50  9.1921E-003  
  660.00  9.0701E-003  
  660.50  8.9733E-003  
  661.00  8.9048E-003  
  661.50  8.8186E-003  
  662.00  8.6691E-003  
  662.50  8.4883E-003  
  663.00  8.3127E-003  
  663.50  8.2311E-003  
  664.00  8.1839E-003  
  664.50  8.1392E-003  
  665.00  8.0095E-003  
  665.50  7.8836E-003  
  666.00  7.7987E-003  
  666.50  7.7884E-003  
  667.00  7.7358E-003  
  667.50  7.6081E-003  
  668.00  7.4354E-003  
  668.50  7.3314E-003  
  669.00  7.2297E-003  
  669.50  7.1286E-003  
  670.00  6.9801E-003  
  670.50  6.8456E-003  
  671.00  6.7261E-003  
  671.50  6.6341E-003  
  672.00  6.6074E-003  
  672.50  6.5549E-003  
  673.00  6.4910E-003  
  673.50  6.3969E-003  
  674.00  6.3180E-003  
  674.50  6.2113E-003  
  675.00  6.1734E-003  
  675.50  6.1305E-003  
  676.00  6.0828E-003  
  676.50  5.9532E-003  
  677.00  5.8705E-003  
  677.50  5.8295E-003  
  678.00  5.8019E-003  
  678.50  5.7063E-003  
  679.00  5.6013E-003  
  679.50  5.5119E-003  
  680.00  5.4472E-003  
  680.50  5.4202E-003  
  681.00  5.3614E-003  
  681.50  5.2669E-003  
  682.00  5.1705E-003  
  682.50  5.1162E-003  
  683.00  5.0727E-003  
  683.50  4.9980E-003  
  684.00  4.8966E-003  
  684.50  4.8138E-003  
  685.00  4.6885E-003  
  685.50  4.6439E-003  
  686.00  4.6126E-003  
  686.50  4.5693E-003  
  687.00  4.5358E-003  
  687.50  4.5192E-003  
  688.00  4.5426E-003  
  688.50  4.5119E-003  
  689.00  4.4595E-003  
  689.50  4.4116E-003  
  690.00  4.3254E-003  
  690.50  4.2438E-003  
  691.00  4.1771E-003  
  691.50  4.1014E-003  
  692.00  3.9565E-003  
  692.50  3.8256E-003  
  693.00  3.7560E-003  
  693.50  3.7283E-003  
  694.00  3.6526E-003  
  694.50  3.6349E-003  
  695.00  3.6354E-003  
  695.50  3.6297E-003  
  696.00  3.5970E-003  
  696.50  3.5745E-003  
  697.00  3.4960E-003  
  697.50  3.4425E-003  
  698.00  3.4303E-003  
  698.50  3.4914E-003  
  699.00  3.4512E-003  
  699.50  3.3092E-003  
  700.00  3.2025E-003  
  700.50  3.1806E-003  
  701.00  3.1860E-003  
  701.50  3.1257E-003  
  702.00  3.0668E-003  
  702.50  3.0923E-003  
  703.00  3.0889E-003  
  703.50  3.0589E-003  
  704.00  2.9394E-003  
  704.50  2.8581E-003  
  705.00  2.8215E-003  
  705.50  2.8736E-003  
  706.00  2.9110E-003  
  706.50  2.8848E-003  
  707.00  2.7599E-003  
  707.50  2.7116E-003  
  708.00  2.6462E-003  
  708.50  2.5802E-003  
  709.00  2.5582E-003  
  709.50  2.5702E-003  
  710.00  2.4788E-003  
  710.50  2.3718E-003  
  711.00  2.3439E-003  
  711.50  2.3485E-003  
  712.00  2.2835E-003  
  712.50  2.3400E-003  
  713.00  2.3622E-003  
  713.50  2.3803E-003  
  714.00  2.2658E-003  
  714.50  2.3138E-003  
  715.00  2.2435E-003  
  715.50  2.2077E-003  
  716.00  2.1102E-003  
  716.50  2.1393E-003  
  717.00  2.1683E-003  
  717.50  2.1109E-003  
  718.00  1.9494E-003  
  718.50  1.8677E-003  
  719.00  1.8606E-003  
  719.50  1.9377E-003  
  720.00  1.9415E-003  
  720.50  2.0197E-003  
  721.00  2.0796E-003  
  721.50  2.0096E-003  
  722.00  1.9555E-003  
  722.50  1.7884E-003  
  723.00  1.6940E-003  
  723.50  1.5766E-003  
  724.00  1.6725E-003  
  724.50  1.7424E-003  
  725.00  1.7073E-003  
  725.50  1.6370E-003  
  726.00  1.6007E-003  
  726.50  1.6289E-003  
  727.00  1.5931E-003  
  727.50  1.4858E-003  
  728.00  1.3583E-003  
  728.50  1.3588E-003  
  729.00  1.4297E-003  
  729.50  1.4766E-003  
  730.00  1.5251E-003  
  730.50  1.4826E-003  
  731.00  1.4333E-003  
  731.50  1.3525E-003  
  732.00  1.3455E-003  
  732.50  1.3509E-003  
  733.00  1.3899E-003  
  733.50  1.4059E-003  
  734.00  1.3053E-003  
  734.50  1.1638E-003  
  735.00  1.1936E-003  
  735.50  1.2718E-003  
  736.00  1.3340E-003  
  736.50  1.3603E-003  
  737.00  1.3443E-003  
  737.50  1.2068E-003  
  738.00  1.0168E-003  
  738.50  9.8872E-004  
  739.00  1.0226E-003  
  739.50  1.0407E-003  
  740.00  1.0518E-003  
  740.50  1.0679E-003  
  741.00  1.0955E-003  
  741.50  1.1226E-003  
  742.00  1.0693E-003  
  742.50  9.9472E-004  
  743.00  8.9311E-004  
  743.50  9.6152E-004  
  744.00  1.0482E-003  
  744.50  1.0023E-003  
  745.00  8.5215E-004  
  745.50  7.1146E-004  
  746.00  7.7386E-004  
  746.50  8.8768E-004  
  747.00  1.0074E-003  
  747.50  9.4226E-004  
  748.00  9.0213E-004  
  748.50  8.2963E-004  
  749.00  8.2484E-004  
  749.50  8.0792E-004  
  750.00  7.5760E-004  
  750.50  7.6649E-004  
  751.00  7.3102E-004  
  751.50  7.6225E-004  
  752.00  6.4394E-004  
  752.50  6.2588E-004  
  753.00  6.5709E-004  
  753.50  6.7425E-004  
  754.00  5.9978E-004  
  754.50  6.6169E-004  
  755.00  7.7701E-004  
  755.50  8.3003E-004  
  756.00  9.0515E-004  
  756.50  9.5032E-004  
  757.00  8.8908E-004  
  757.50  8.1661E-004  
  758.00  7.2882E-004  
  758.50  7.6438E-004  
  759.00  7.0004E-004  
  759.50  6.3267E-004  
  760.00  6.4806E-004  
  760.50  8.0558E-004  
  761.00  8.9222E-004  
  761.50  7.6900E-004  
  762.00  6.7387E-004  
  762.50  6.9814E-004  
  763.00  6.3487E-004  
  763.50  6.6649E-004  
  764.00  5.5938E-004  
  764.50  5.3601E-004  
  765.00  5.0945E-004  
  765.50  5.2508E-004  
  766.00  4.1125E-004  
  766.50  3.4022E-004  
  767.00  3.2848E-004  
  767.50  5.0524E-004  
  768.00  7.2859E-004  
  768.50  8.6903E-004  
  769.00  7.7232E-004  
  769.50  6.5980E-004  
  770.00  6.8188E-004  
  770.50  6.9621E-004  
  771.00  6.2677E-004  
  771.50  4.7738E-004  
  772.00  3.9791E-004  
  772.50  1.8722E-004  
  773.00  2.3429E-004  
  773.50  2.5272E-004  
  774.00  3.1970E-004  
  774.50  1.4701E-004  
  775.00  8.6142E-005  
  775.50  7.4842E-005  
  776.00  2.2096E-004  
  776.50  4.0791E-004  
  777.00  4.6228E-004  
  777.50  4.6625E-004  
  778.00  4.1757E-004  
  778.50  3.5156E-004  
  779.00  1.1444E-004  
  779.50  2.0413E-004  
  780.00  3.8929E-004  
  780.50  6.4778E-004  
  781.00  6.9463E-004  
  781.50  7.1862E-004  
  782.00  7.1489E-004  
  782.50  6.7437E-004  
  783.00  6.3132E-004  
  783.50  4.9336E-004  
  784.00  2.3037E-004  
  784.50  1.5002E-004  
  785.00  2.0439E-004  
  785.50  6.1615E-005  
  786.00  0.0000E+000  
  786.50  1.0762E-005  
  787.00  1.8333E-004  
  787.50  5.7010E-005  
  788.00  0.0000E+000  
  788.50  4.7257E-005  
  789.00  1.9661E-004  
  789.50  2.9872E-004  
  790.00  3.4227E-004  
  790.50  6.3623E-005  
  791.00  0.0000E+000  
  791.50  1.4001E-005  
  792.00  2.0355E-004  
  792.50  2.3807E-004  
  793.00  1.6702E-004  
  793.50  5.1154E-005  
  794.00  4.3724E-005  
  794.50  1.8899E-005  
  795.00  7.4527E-005  
  795.50  3.3471E-006  
  796.00  0.0000E+000  
  796.50  1.1428E-005  
  797.00  3.8838E-005  
  797.50  9.4659E-005  
  798.00  1.5385E-004  
  798.50  1.1309E-004  
  799.00  2.1696E-004  
  799.50  2.8191E-004  
  800.00  2.1214E-004  
  800.50  1.2417E-004  
  801.00  6.3793E-005  
  801.50  1.4548E-004  
  802.00  3.5886E-004  
  802.50  4.9885E-004  
  803.00  3.2680E-004  
  803.50  0.0000E+000  
  804.00  0.0000E+000  
  804.50  9.6334E-005  
  805.00  1.6946E-004  
  805.50  1.4417E-004  
  806.00  1.7834E-004  
  806.50  3.2539E-004  
  807.00  1.1831E-004  
  807.50  0.0000E+000  
  808.00  9.0859E-007  
  808.50  1.3451E-004  
  809.00  7.5571E-005  
  809.50  2.8982E-005  
  810.00  1.3534E-004  
  810.50  3.9586E-004  
  811.00  1.9687E-004  
  811.50  0.0000E+000  
  812.00  0.0000E+000  
  812.50  0.0000E+000  
  813.00  0.0000E+000  
  813.50  4.8062E-005  
  814.00  2.2401E-004  
  814.50  1.1462E-004  
  815.00  2.0603E-004  
  815.50  3.8251E-004  
  816.00  4.1572E-004  
  816.50  1.6330E-004  
  817.00  3.3779E-006  
  817.50  2.2257E-006  
  818.00  0.0000E+000  
  818.50  0.0000E+000  
  819.00  7.3603E-006  
  819.50  1.0630E-004  
  820.00  2.8587E-004  
  820.50  1.4727E-004  
  821.00  1.7488E-004  
  821.50  8.8922E-005  
  822.00  1.9560E-004  
  822.50  3.2111E-004  
  823.00  4.9367E-004  
  823.50  4.1433E-004  
  824.00  3.5331E-004  
  824.50  2.4512E-004  
  825.00  1.7652E-004  
  825.50  1.0300E-004  
  826.00  0.0000E+000  
  826.50  0.0000E+000  
  827.00  0.0000E+000  
  827.50  0.0000E+000  
  828.00  6.0526E-005  
  828.50  0.0000E+000  
  829.00  0.0000E+000  
  829.50  0.0000E+000  
  830.00  3.0769E-005  
  830.50  0.0000E+000  
  831.00  0.0000E+000  
  831.50  1.1010E-004  
  832.00  3.9834E-004  
  832.50  4.1243E-004  
  833.00  1.7557E-004  
  833.50  6.9322E-005  
  834.00  3.1484E-004  
  834.50  2.9402E-004  
  835.00  4.3725E-004  
  835.50  4.2478E-004  
  836.00  3.2710E-004  
  836.50  1.3926E-004  
  837.00  2.2170E-004  
  837.50  2.3054E-004  
  838.00  3.0101E-004  
  838.50  4.3505E-004  
  839.00  4.1340E-004  
  839.50  4.3366E-004  
  840.00  1.8796E-004  
  840.50  3.8705E-005  
  841.00  0.0000E+000  
  841.50  0.0000E+000  
  842.00  2.2223E-005  
  842.50  3.4079E-004  
  843.00  5.4809E-004  
  843.50  3.4977E-004  
  844.00  9.7223E-005  
  844.50  2.2752E-004  
  845.00  1.7538E-004  
  845.50  1.6279E-004  
  846.00  3.0701E-005  
  846.50  0.0000E+000  
  847.00  0.0000E+000  
  847.50  9.2142E-005  
  848.00  4.1644E-004  
  848.50  3.4664E-004  
  849.00  2.4762E-004  
  849.50  4.6623E-004  
  850.00  2.9637E-004  
  850.50  0.0000E+000  
  851.00  5.5387E-006  
  851.50  1.9440E-004  
  852.00  2.0638E-004  
  852.50  0.0000E+000  
  853.00  0.0000E+000  
  853.50  0.0000E+000  
  854.00  3.7860E-005  
  854.50  6.4806E-004  
  855.00  5.5020E-004  
  855.50  1.9307E-004  
  856.00  2.9652E-004  
  856.50  1.5436E-004  
  857.00  0.0000E+000  
  857.50  0.0000E+000  
  858.00  0.0000E+000  
  858.50  2.7647E-004  
  859.00  1.3937E-003  
  859.50  1.5032E-003  
  860.00  1.1995E-003  
  860.50  1.0864E-003  
  861.00  8.5341E-004  
  861.50  7.0465E-004  
  862.00  6.8626E-004  
  862.50  4.1252E-004  
  863.00  2.1116E-004  
  863.50  2.5028E-004  
  864.00  5.2916E-004  
  864.50  3.5777E-004  
  865.00  1.4764E-004  
  865.50  1.1353E-004  
  866.00  4.9291E-005  
  866.50  0.0000E+000  
  867.00  4.3025E-004  
  867.50  6.8246E-004  
  868.00  4.0312E-004  
  868.50  2.1146E-004  
  869.00  4.2182E-004  
  869.50  9.4237E-004  
  870.00  1.1935E-003  
  870.50  2.8406E-004  
  871.00  0.0000E+000  
  871.50  3.3373E-004  
  872.00  1.0023E-003  
  872.50  1.8532E-005  
  873.00  0.0000E+000  
  873.50  0.0000E+000  
  874.00  0.0000E+000  
  874.50  0.0000E+000  
  875.00  0.0000E+000  
  875.50  9.1723E-005  
  876.00  4.5003E-004  
  876.50  3.1589E-004  
  877.00  1.1850E-005  
  877.50  0.0000E+000  
  878.00  2.7167E-004  
  878.50  7.0536E-004  
  879.00  5.5135E-004  
  879.50  5.3997E-004  
  880.00  8.4522E-004  
  880.50  9.3548E-004  
  881.00  3.8808E-004  
  881.50  3.3483E-004  
  882.00  4.1150E-004  
  882.50  0.0000E+000  
  883.00  0.0000E+000  
  883.50  0.0000E+000  
  884.00  6.6499E-005  
  884.50  1.0264E-003  
  885.00  1.4280E-003  
  885.50  1.3576E-003  
  886.00  8.6243E-004  
  886.50  1.0634E-003  
  887.00  1.2110E-003  
  887.50  7.3827E-004  
  888.00  7.5602E-004  
  888.50  1.5390E-003  
  889.00  1.6739E-003  
  889.50  1.1526E-003  
  890.00  8.1100E-004  
  890.50  5.8319E-004  
  891.00  8.1400E-004  
  891.50  7.8730E-004  
  892.00  5.3648E-004  
  892.50  4.8571E-004  
  893.00  9.1246E-005  
  893.50  0.0000E+000  
  894.00  0.0000E+000  
  894.50  7.8105E-004  
  895.00  1.3997E-003  
  895.50  1.3688E-003  
  896.00  1.4467E-003  
  896.50  2.0067E-003  
  897.00  1.8763E-003  
  897.50  1.9334E-003  
  898.00  1.8378E-003  
  898.50  1.2906E-003  
  899.00  1.4264E-003  
  899.50  2.2729E-005  
