
# From lspdd.org
# 
# Name: INC GE A19 Domestique
# Indice spectral Valeur 
# MSI 0.30 
# SLI 0.51 
# IPI 0.93 
# Pourcentage de bleu 13.1 
# Caractéristique Valeur 
# CCT calculée (K) 2671 
# CCT du fabricant (K) 2670 
# Tension (V) 120 
# Puissance (W) 100.0 
# Efficacité lumineuse (Lum/W) 15.3 
#
# Image: '/app/system/img_1s/2564/medium_image1.JPG?1413486343'
# 

  273.00  0.0000E+000  
  273.50  0.0000E+000  
  274.00  0.0000E+000  
  274.50  0.0000E+000  
  275.00  0.0000E+000  
  275.50  0.0000E+000  
  276.00  0.0000E+000  
  276.50  0.0000E+000  
  277.00  0.0000E+000  
  277.50  0.0000E+000  
  278.00  0.0000E+000  
  278.50  0.0000E+000  
  279.00  0.0000E+000  
  279.50  0.0000E+000  
  280.00  0.0000E+000  
  280.50  0.0000E+000  
  281.00  0.0000E+000  
  281.50  0.0000E+000  
  282.00  0.0000E+000  
  282.50  0.0000E+000  
  283.00  0.0000E+000  
  283.50  0.0000E+000  
  284.00  0.0000E+000  
  284.50  0.0000E+000  
  285.00  0.0000E+000  
  285.50  0.0000E+000  
  286.00  0.0000E+000  
  286.50  0.0000E+000  
  287.00  0.0000E+000  
  287.50  0.0000E+000  
  288.00  0.0000E+000  
  288.50  0.0000E+000  
  289.00  0.0000E+000  
  289.50  0.0000E+000  
  290.00  0.0000E+000  
  290.50  0.0000E+000  
  291.00  0.0000E+000  
  291.50  0.0000E+000  
  292.00  0.0000E+000  
  292.50  0.0000E+000  
  293.00  0.0000E+000  
  293.50  0.0000E+000  
  294.00  0.0000E+000  
  294.50  0.0000E+000  
  295.00  0.0000E+000  
  295.50  0.0000E+000  
  296.00  0.0000E+000  
  296.50  0.0000E+000  
  297.00  0.0000E+000  
  297.50  0.0000E+000  
  298.00  0.0000E+000  
  298.50  0.0000E+000  
  299.00  0.0000E+000  
  299.50  0.0000E+000  
  300.00  3.2448E-005  
  300.50  7.5938E-005  
  301.00  5.6744E-005  
  301.50  2.1968E-005  
  302.00  0.0000E+000  
  302.50  0.0000E+000  
  303.00  7.5085E-007  
  303.50  7.4483E-005  
  304.00  2.0985E-004  
  304.50  2.0156E-004  
  305.00  1.5532E-004  
  305.50  6.0370E-005  
  306.00  0.0000E+000  
  306.50  0.0000E+000  
  307.00  0.0000E+000  
  307.50  0.0000E+000  
  308.00  7.7134E-006  
  308.50  4.3070E-005  
  309.00  8.8993E-005  
  309.50  7.2047E-005  
  310.00  6.6275E-005  
  310.50  7.1588E-005  
  311.00  6.7491E-005  
  311.50  5.3151E-005  
  312.00  1.0543E-005  
  312.50  0.0000E+000  
  313.00  0.0000E+000  
  313.50  3.6345E-006  
  314.00  4.0939E-005  
  314.50  5.7867E-005  
  315.00  2.4661E-005  
  315.50  1.4449E-006  
  316.00  1.6647E-006  
  316.50  2.9639E-005  
  317.00  7.7341E-005  
  317.50  1.4136E-004  
  318.00  1.4871E-004  
  318.50  1.0112E-004  
  319.00  8.1457E-005  
  319.50  7.1589E-005  
  320.00  1.0375E-004  
  320.50  1.3564E-004  
  321.00  6.3852E-005  
  321.50  4.1965E-005  
  322.00  3.5391E-005  
  322.50  8.4448E-005  
  323.00  1.8895E-004  
  323.50  2.2005E-004  
  324.00  2.4809E-004  
  324.50  2.8295E-004  
  325.00  2.7652E-004  
  325.50  2.8032E-004  
  326.00  2.4465E-004  
  326.50  2.0462E-004  
  327.00  2.1444E-004  
  327.50  2.3026E-004  
  328.00  2.4077E-004  
  328.50  2.8874E-004  
  329.00  2.6722E-004  
  329.50  2.3363E-004  
  330.00  2.0553E-004  
  330.50  1.6690E-004  
  331.00  1.8618E-004  
  331.50  2.2317E-004  
  332.00  2.5961E-004  
  332.50  2.8494E-004  
  333.00  2.9795E-004  
  333.50  2.9077E-004  
  334.00  2.8463E-004  
  334.50  2.9813E-004  
  335.00  3.0075E-004  
  335.50  3.0273E-004  
  336.00  2.8525E-004  
  336.50  2.2752E-004  
  337.00  2.2226E-004  
  337.50  2.8235E-004  
  338.00  3.7578E-004  
  338.50  3.9462E-004  
  339.00  4.3025E-004  
  339.50  4.2089E-004  
  340.00  4.3295E-004  
  340.50  4.4025E-004  
  341.00  4.0336E-004  
  341.50  3.3248E-004  
  342.00  3.1811E-004  
  342.50  3.5519E-004  
  343.00  4.2860E-004  
  343.50  5.0083E-004  
  344.00  4.8296E-004  
  344.50  4.5479E-004  
  345.00  4.1172E-004  
  345.50  3.9353E-004  
  346.00  4.1911E-004  
  346.50  4.3671E-004  
  347.00  4.4769E-004  
  347.50  4.5643E-004  
  348.00  4.7714E-004  
  348.50  4.8570E-004  
  349.00  5.0115E-004  
  349.50  5.1012E-004  
  350.00  5.1980E-004  
  350.50  5.4110E-004  
  351.00  5.6871E-004  
  351.50  5.9203E-004  
  352.00  5.8666E-004  
  352.50  5.7317E-004  
  353.00  5.8015E-004  
  353.50  5.8141E-004  
  354.00  6.1431E-004  
  354.50  6.0190E-004  
  355.00  5.7970E-004  
  355.50  5.5427E-004  
  356.00  5.8956E-004  
  356.50  6.4597E-004  
  357.00  7.0188E-004  
  357.50  7.3381E-004  
  358.00  7.1921E-004  
  358.50  7.4626E-004  
  359.00  7.6993E-004  
  359.50  8.1658E-004  
  360.00  8.5015E-004  
  360.50  8.1890E-004  
  361.00  7.9271E-004  
  361.50  7.4968E-004  
  362.00  7.1841E-004  
  362.50  7.6449E-004  
  363.00  8.1371E-004  
  363.50  8.8929E-004  
  364.00  9.3914E-004  
  364.50  9.3711E-004  
  365.00  9.2827E-004  
  365.50  9.0890E-004  
  366.00  8.9579E-004  
  366.50  9.0310E-004  
  367.00  9.3238E-004  
  367.50  9.8637E-004  
  368.00  1.0751E-003  
  368.50  1.1568E-003  
  369.00  1.1953E-003  
  369.50  1.1989E-003  
  370.00  1.1810E-003  
  370.50  1.2169E-003  
  371.00  1.2621E-003  
  371.50  1.2939E-003  
  372.00  1.2898E-003  
  372.50  1.2613E-003  
  373.00  1.2763E-003  
  373.50  1.3157E-003  
  374.00  1.3763E-003  
  374.50  1.3900E-003  
  375.00  1.4300E-003  
  375.50  1.4733E-003  
  376.00  1.4832E-003  
  376.50  1.4846E-003  
  377.00  1.4660E-003  
  377.50  1.4761E-003  
  378.00  1.5502E-003  
  378.50  1.5300E-003  
  379.00  1.4749E-003  
  379.50  1.3918E-003  
  380.00  1.3940E-003  
  380.50  1.4729E-003  
  381.00  1.5456E-003  
  381.50  1.5837E-003  
  382.00  1.5699E-003  
  382.50  1.5858E-003  
  383.00  1.6010E-003  
  383.50  1.6028E-003  
  384.00  1.6410E-003  
  384.50  1.7033E-003  
  385.00  1.7625E-003  
  385.50  1.8091E-003  
  386.00  1.8324E-003  
  386.50  1.8581E-003  
  387.00  1.9008E-003  
  387.50  1.9352E-003  
  388.00  1.9013E-003  
  388.50  1.8884E-003  
  389.00  1.9152E-003  
  389.50  1.9083E-003  
  390.00  1.9773E-003  
  390.50  2.0881E-003  
  391.00  2.1642E-003  
  391.50  2.2204E-003  
  392.00  2.2319E-003  
  392.50  2.1822E-003  
  393.00  2.1968E-003  
  393.50  2.2300E-003  
  394.00  2.2463E-003  
  394.50  2.2735E-003  
  395.00  2.3001E-003  
  395.50  2.2972E-003  
  396.00  2.2908E-003  
  396.50  2.2636E-003  
  397.00  2.2734E-003  
  397.50  2.3241E-003  
  398.00  2.3430E-003  
  398.50  2.3643E-003  
  399.00  2.4237E-003  
  399.50  2.4948E-003  
  400.00  2.5788E-003  
  400.50  2.6346E-003  
  401.00  2.6656E-003  
  401.50  2.6995E-003  
  402.00  2.7104E-003  
  402.50  2.7142E-003  
  403.00  2.6841E-003  
  403.50  2.6957E-003  
  404.00  2.6791E-003  
  404.50  2.6736E-003  
  405.00  2.6990E-003  
  405.50  2.7798E-003  
  406.00  2.9051E-003  
  406.50  2.9912E-003  
  407.00  2.9830E-003  
  407.50  3.0100E-003  
  408.00  2.9971E-003  
  408.50  3.0335E-003  
  409.00  3.0440E-003  
  409.50  3.0173E-003  
  410.00  3.0168E-003  
  410.50  3.0584E-003  
  411.00  3.1624E-003  
  411.50  3.2047E-003  
  412.00  3.2133E-003  
  412.50  3.1563E-003  
  413.00  3.1602E-003  
  413.50  3.2097E-003  
  414.00  3.3185E-003  
  414.50  3.3757E-003  
  415.00  3.4344E-003  
  415.50  3.4941E-003  
  416.00  3.5100E-003  
  416.50  3.5295E-003  
  417.00  3.5461E-003  
  417.50  3.5511E-003  
  418.00  3.5322E-003  
  418.50  3.5891E-003  
  419.00  3.6314E-003  
  419.50  3.6837E-003  
  420.00  3.7534E-003  
  420.50  3.7520E-003  
  421.00  3.7643E-003  
  421.50  3.8244E-003  
  422.00  3.8773E-003  
  422.50  3.9452E-003  
  423.00  3.9957E-003  
  423.50  4.0248E-003  
  424.00  4.0738E-003  
  424.50  4.0907E-003  
  425.00  4.0851E-003  
  425.50  4.0888E-003  
  426.00  4.1492E-003  
  426.50  4.2259E-003  
  427.00  4.2967E-003  
  427.50  4.3249E-003  
  428.00  4.3367E-003  
  428.50  4.3377E-003  
  429.00  4.3340E-003  
  429.50  4.3736E-003  
  430.00  4.4371E-003  
  430.50  4.5353E-003  
  431.00  4.6239E-003  
  431.50  4.6924E-003  
  432.00  4.7098E-003  
  432.50  4.7149E-003  
  433.00  4.7181E-003  
  433.50  4.7252E-003  
  434.00  4.7594E-003  
  434.50  4.8196E-003  
  435.00  4.8606E-003  
  435.50  4.9101E-003  
  436.00  4.9535E-003  
  436.50  4.9707E-003  
  437.00  5.0108E-003  
  437.50  5.0389E-003  
  438.00  5.0824E-003  
  438.50  5.1028E-003  
  439.00  5.1687E-003  
  439.50  5.2960E-003  
  440.00  5.3724E-003  
  440.50  5.4149E-003  
  441.00  5.3638E-003  
  441.50  5.3159E-003  
  442.00  5.3886E-003  
  442.50  5.4588E-003  
  443.00  5.5552E-003  
  443.50  5.5978E-003  
  444.00  5.6284E-003  
  444.50  5.6734E-003  
  445.00  5.7180E-003  
  445.50  5.8064E-003  
  446.00  5.8520E-003  
  446.50  5.9129E-003  
  447.00  5.9176E-003  
  447.50  5.9143E-003  
  448.00  5.9817E-003  
  448.50  6.0773E-003  
  449.00  6.1728E-003  
  449.50  6.2363E-003  
  450.00  6.2029E-003  
  450.50  6.1939E-003  
  451.00  6.2105E-003  
  451.50  6.2835E-003  
  452.00  6.3795E-003  
  452.50  6.4721E-003  
  453.00  6.5079E-003  
  453.50  6.5831E-003  
  454.00  6.6252E-003  
  454.50  6.6883E-003  
  455.00  6.7780E-003  
  455.50  6.7746E-003  
  456.00  6.7553E-003  
  456.50  6.7264E-003  
  457.00  6.7817E-003  
  457.50  6.8718E-003  
  458.00  6.9297E-003  
  458.50  6.9951E-003  
  459.00  6.9913E-003  
  459.50  7.0385E-003  
  460.00  7.0580E-003  
  460.50  7.0411E-003  
  461.00  7.0299E-003  
  461.50  7.0294E-003  
  462.00  7.0943E-003  
  462.50  7.2053E-003  
  463.00  7.3501E-003  
  463.50  7.4528E-003  
  464.00  7.5247E-003  
  464.50  7.5894E-003  
  465.00  7.6607E-003  
  465.50  7.7562E-003  
  466.00  7.8030E-003  
  466.50  7.8142E-003  
  467.00  7.8062E-003  
  467.50  7.8828E-003  
  468.00  7.9300E-003  
  468.50  7.9993E-003  
  469.00  8.0144E-003  
  469.50  8.0108E-003  
  470.00  8.0380E-003  
  470.50  8.1106E-003  
  471.00  8.2164E-003  
  471.50  8.3104E-003  
  472.00  8.3306E-003  
  472.50  8.3600E-003  
  473.00  8.4338E-003  
  473.50  8.5197E-003  
  474.00  8.6034E-003  
  474.50  8.6065E-003  
  475.00  8.6285E-003  
  475.50  8.7116E-003  
  476.00  8.7934E-003  
  476.50  8.8909E-003  
  477.00  8.9175E-003  
  477.50  8.9748E-003  
  478.00  9.0162E-003  
  478.50  9.1362E-003  
  479.00  9.2256E-003  
  479.50  9.3313E-003  
  480.00  9.3742E-003  
  480.50  9.4028E-003  
  481.00  9.4264E-003  
  481.50  9.4056E-003  
  482.00  9.4259E-003  
  482.50  9.4627E-003  
  483.00  9.5362E-003  
  483.50  9.6615E-003  
  484.00  9.7838E-003  
  484.50  9.8796E-003  
  485.00  9.9345E-003  
  485.50  9.9369E-003  
  486.00  9.9683E-003  
  486.50  1.0016E-002  
  487.00  1.0078E-002  
  487.50  1.0110E-002  
  488.00  1.0151E-002  
  488.50  1.0204E-002  
  489.00  1.0290E-002  
  489.50  1.0361E-002  
  490.00  1.0435E-002  
  490.50  1.0490E-002  
  491.00  1.0538E-002  
  491.50  1.0542E-002  
  492.00  1.0600E-002  
  492.50  1.0630E-002  
  493.00  1.0734E-002  
  493.50  1.0840E-002  
  494.00  1.0924E-002  
  494.50  1.1011E-002  
  495.00  1.1068E-002  
  495.50  1.1139E-002  
  496.00  1.1228E-002  
  496.50  1.1339E-002  
  497.00  1.1437E-002  
  497.50  1.1503E-002  
  498.00  1.1575E-002  
  498.50  1.1631E-002  
  499.00  1.1701E-002  
  499.50  1.1762E-002  
  500.00  1.1832E-002  
  500.50  1.1916E-002  
  501.00  1.1988E-002  
  501.50  1.2071E-002  
  502.00  1.2187E-002  
  502.50  1.2304E-002  
  503.00  1.2447E-002  
  503.50  1.2551E-002  
  504.00  1.2668E-002  
  504.50  1.2753E-002  
  505.00  1.2822E-002  
  505.50  1.2855E-002  
  506.00  1.2912E-002  
  506.50  1.2974E-002  
  507.00  1.3099E-002  
  507.50  1.3229E-002  
  508.00  1.3315E-002  
  508.50  1.3379E-002  
  509.00  1.3422E-002  
  509.50  1.3524E-002  
  510.00  1.3643E-002  
  510.50  1.3784E-002  
  511.00  1.3900E-002  
  511.50  1.3990E-002  
  512.00  1.4063E-002  
  512.50  1.4144E-002  
  513.00  1.4272E-002  
  513.50  1.4441E-002  
  514.00  1.4609E-002  
  514.50  1.4737E-002  
  515.00  1.4820E-002  
  515.50  1.4902E-002  
  516.00  1.5005E-002  
  516.50  1.5117E-002  
  517.00  1.5243E-002  
  517.50  1.5369E-002  
  518.00  1.5481E-002  
  518.50  1.5592E-002  
  519.00  1.5674E-002  
  519.50  1.5732E-002  
  520.00  1.5809E-002  
  520.50  1.5873E-002  
  521.00  1.5983E-002  
  521.50  1.6108E-002  
  522.00  1.6229E-002  
  522.50  1.6356E-002  
  523.00  1.6474E-002  
  523.50  1.6605E-002  
  524.00  1.6747E-002  
  524.50  1.6861E-002  
  525.00  1.6977E-002  
  525.50  1.7061E-002  
  526.00  1.7183E-002  
  526.50  1.7309E-002  
  527.00  1.7433E-002  
  527.50  1.7532E-002  
  528.00  1.7645E-002  
  528.50  1.7755E-002  
  529.00  1.7873E-002  
  529.50  1.8005E-002  
  530.00  1.8116E-002  
  530.50  1.8216E-002  
  531.00  1.8331E-002  
  531.50  1.8410E-002  
  532.00  1.8507E-002  
  532.50  1.8576E-002  
  533.00  1.8698E-002  
  533.50  1.8855E-002  
  534.00  1.9003E-002  
  534.50  1.9128E-002  
  535.00  1.9230E-002  
  535.50  1.9358E-002  
  536.00  1.9479E-002  
  536.50  1.9594E-002  
  537.00  1.9726E-002  
  537.50  1.9853E-002  
  538.00  1.9968E-002  
  538.50  2.0078E-002  
  539.00  2.0181E-002  
  539.50  2.0328E-002  
  540.00  2.0478E-002  
  540.50  2.0571E-002  
  541.00  2.0633E-002  
  541.50  2.0670E-002  
  542.00  2.0777E-002  
  542.50  2.0915E-002  
  543.00  2.1032E-002  
  543.50  2.1128E-002  
  544.00  2.1205E-002  
  544.50  2.1349E-002  
  545.00  2.1527E-002  
  545.50  2.1695E-002  
  546.00  2.1821E-002  
  546.50  2.1895E-002  
  547.00  2.1977E-002  
  547.50  2.2069E-002  
  548.00  2.2247E-002  
  548.50  2.2423E-002  
  549.00  2.2569E-002  
  549.50  2.2692E-002  
  550.00  2.2807E-002  
  550.50  2.2952E-002  
  551.00  2.3082E-002  
  551.50  2.3209E-002  
  552.00  2.3277E-002  
  552.50  2.3367E-002  
  553.00  2.3443E-002  
  553.50  2.3580E-002  
  554.00  2.3715E-002  
  554.50  2.3846E-002  
  555.00  2.3929E-002  
  555.50  2.4073E-002  
  556.00  2.4183E-002  
  556.50  2.4359E-002  
  557.00  2.4504E-002  
  557.50  2.4637E-002  
  558.00  2.4748E-002  
  558.50  2.4846E-002  
  559.00  2.4963E-002  
  559.50  2.5069E-002  
  560.00  2.5224E-002  
  560.50  2.5368E-002  
  561.00  2.5549E-002  
  561.50  2.5653E-002  
  562.00  2.5719E-002  
  562.50  2.5795E-002  
  563.00  2.5864E-002  
  563.50  2.5955E-002  
  564.00  2.6034E-002  
  564.50  2.6160E-002  
  565.00  2.6273E-002  
  565.50  2.6360E-002  
  566.00  2.6434E-002  
  566.50  2.6518E-002  
  567.00  2.6633E-002  
  567.50  2.6760E-002  
  568.00  2.6898E-002  
  568.50  2.7015E-002  
  569.00  2.7081E-002  
  569.50  2.7152E-002  
  570.00  2.7220E-002  
  570.50  2.7414E-002  
  571.00  2.7671E-002  
  571.50  2.7881E-002  
  572.00  2.8015E-002  
  572.50  2.8033E-002  
  573.00  2.8006E-002  
  573.50  2.7990E-002  
  574.00  2.8093E-002  
  574.50  2.8252E-002  
  575.00  2.8443E-002  
  575.50  2.8524E-002  
  576.00  2.8600E-002  
  576.50  2.8739E-002  
  577.00  2.8925E-002  
  577.50  2.9064E-002  
  578.00  2.9134E-002  
  578.50  2.9187E-002  
  579.00  2.9280E-002  
  579.50  2.9414E-002  
  580.00  2.9488E-002  
  580.50  2.9589E-002  
  581.00  2.9676E-002  
  581.50  2.9808E-002  
  582.00  2.9883E-002  
  582.50  2.9980E-002  
  583.00  3.0061E-002  
  583.50  3.0173E-002  
  584.00  3.0286E-002  
  584.50  3.0425E-002  
  585.00  3.0616E-002  
  585.50  3.0720E-002  
  586.00  3.0810E-002  
  586.50  3.0911E-002  
  587.00  3.0978E-002  
  587.50  3.1070E-002  
  588.00  3.1189E-002  
  588.50  3.1319E-002  
  589.00  3.1435E-002  
  589.50  3.1434E-002  
  590.00  3.1519E-002  
  590.50  3.1604E-002  
  591.00  3.1729E-002  
  591.50  3.1849E-002  
  592.00  3.1949E-002  
  592.50  3.2075E-002  
  593.00  3.2123E-002  
  593.50  3.2179E-002  
  594.00  3.2290E-002  
  594.50  3.2382E-002  
  595.00  3.2516E-002  
  595.50  3.2611E-002  
  596.00  3.2706E-002  
  596.50  3.2828E-002  
  597.00  3.2861E-002  
  597.50  3.2889E-002  
  598.00  3.2944E-002  
  598.50  3.2981E-002  
  599.00  3.3122E-002  
  599.50  3.3202E-002  
  600.00  3.3305E-002  
  600.50  3.3370E-002  
  601.00  3.3414E-002  
  601.50  3.3455E-002  
  602.00  3.3517E-002  
  602.50  3.3687E-002  
  603.00  3.3820E-002  
  603.50  3.3925E-002  
  604.00  3.3890E-002  
  604.50  3.3911E-002  
  605.00  3.4014E-002  
  605.50  3.4171E-002  
  606.00  3.4302E-002  
  606.50  3.4391E-002  
  607.00  3.4489E-002  
  607.50  3.4581E-002  
  608.00  3.4689E-002  
  608.50  3.4698E-002  
  609.00  3.4806E-002  
  609.50  3.4791E-002  
  610.00  3.4817E-002  
  610.50  3.4816E-002  
  611.00  3.4947E-002  
  611.50  3.5079E-002  
  612.00  3.5148E-002  
  612.50  3.5165E-002  
  613.00  3.5307E-002  
  613.50  3.5424E-002  
  614.00  3.5514E-002  
  614.50  3.5586E-002  
  615.00  3.5677E-002  
  615.50  3.5765E-002  
  616.00  3.5813E-002  
  616.50  3.5846E-002  
  617.00  3.5899E-002  
  617.50  3.5894E-002  
  618.00  3.5877E-002  
  618.50  3.5895E-002  
  619.00  3.5923E-002  
  619.50  3.5992E-002  
  620.00  3.6082E-002  
  620.50  3.6165E-002  
  621.00  3.6302E-002  
  621.50  3.6397E-002  
  622.00  3.6491E-002  
  622.50  3.6554E-002  
  623.00  3.6547E-002  
  623.50  3.6557E-002  
  624.00  3.6657E-002  
  624.50  3.6737E-002  
  625.00  3.6821E-002  
  625.50  3.6754E-002  
  626.00  3.6693E-002  
  626.50  3.6701E-002  
  627.00  3.6811E-002  
  627.50  3.6945E-002  
  628.00  3.7065E-002  
  628.50  3.7120E-002  
  629.00  3.7205E-002  
  629.50  3.7266E-002  
  630.00  3.7317E-002  
  630.50  3.7500E-002  
  631.00  3.7595E-002  
  631.50  3.7656E-002  
  632.00  3.7544E-002  
  632.50  3.7582E-002  
  633.00  3.7681E-002  
  633.50  3.7815E-002  
  634.00  3.7918E-002  
  634.50  3.8010E-002  
  635.00  3.8085E-002  
  635.50  3.8119E-002  
  636.00  3.8093E-002  
  636.50  3.8077E-002  
  637.00  3.8151E-002  
  637.50  3.8229E-002  
  638.00  3.8421E-002  
  638.50  3.8514E-002  
  639.00  3.8625E-002  
  639.50  3.8649E-002  
  640.00  3.8678E-002  
  640.50  3.8741E-002  
  641.00  3.8699E-002  
  641.50  3.8739E-002  
  642.00  3.8845E-002  
  642.50  3.8973E-002  
  643.00  3.9015E-002  
  643.50  3.8950E-002  
  644.00  3.9012E-002  
  644.50  3.9124E-002  
  645.00  3.9310E-002  
  645.50  3.9326E-002  
  646.00  3.9343E-002  
  646.50  3.9277E-002  
  647.00  3.9441E-002  
  647.50  3.9577E-002  
  648.00  3.9673E-002  
  648.50  3.9662E-002  
  649.00  3.9675E-002  
  649.50  3.9757E-002  
  650.00  3.9829E-002  
  650.50  3.9848E-002  
  651.00  3.9783E-002  
  651.50  3.9733E-002  
  652.00  3.9731E-002  
  652.50  3.9882E-002  
  653.00  3.9859E-002  
  653.50  3.9859E-002  
  654.00  3.9853E-002  
  654.50  4.0035E-002  
  655.00  4.0251E-002  
  655.50  4.0422E-002  
  656.00  4.0541E-002  
  656.50  4.0557E-002  
  657.00  4.0462E-002  
  657.50  4.0428E-002  
  658.00  4.0469E-002  
  658.50  4.0629E-002  
  659.00  4.0715E-002  
  659.50  4.0771E-002  
  660.00  4.0777E-002  
  660.50  4.0862E-002  
  661.00  4.0922E-002  
  661.50  4.0924E-002  
  662.00  4.0847E-002  
  662.50  4.0767E-002  
  663.00  4.0835E-002  
  663.50  4.1025E-002  
  664.00  4.1239E-002  
  664.50  4.1343E-002  
  665.00  4.1240E-002  
  665.50  4.1109E-002  
  666.00  4.1024E-002  
  666.50  4.1109E-002  
  667.00  4.1081E-002  
  667.50  4.1091E-002  
  668.00  4.0976E-002  
  668.50  4.1020E-002  
  669.00  4.1061E-002  
  669.50  4.1146E-002  
  670.00  4.1269E-002  
  670.50  4.1395E-002  
  671.00  4.1508E-002  
  671.50  4.1485E-002  
  672.00  4.1406E-002  
  672.50  4.1386E-002  
  673.00  4.1375E-002  
  673.50  4.1404E-002  
  674.00  4.1397E-002  
  674.50  4.1540E-002  
  675.00  4.1616E-002  
  675.50  4.1814E-002  
  676.00  4.1814E-002  
  676.50  4.1887E-002  
  677.00  4.1851E-002  
  677.50  4.1920E-002  
  678.00  4.2001E-002  
  678.50  4.2067E-002  
  679.00  4.2122E-002  
  679.50  4.2116E-002  
  680.00  4.2165E-002  
  680.50  4.2247E-002  
  681.00  4.2257E-002  
  681.50  4.2297E-002  
  682.00  4.2468E-002  
  682.50  4.2675E-002  
  683.00  4.2772E-002  
  683.50  4.2703E-002  
  684.00  4.2663E-002  
  684.50  4.2648E-002  
  685.00  4.2698E-002  
  685.50  4.2692E-002  
  686.00  4.2732E-002  
  686.50  4.2727E-002  
  687.00  4.2765E-002  
  687.50  4.2751E-002  
  688.00  4.2627E-002  
  688.50  4.2591E-002  
  689.00  4.2583E-002  
  689.50  4.2740E-002  
  690.00  4.2913E-002  
  690.50  4.3046E-002  
  691.00  4.3109E-002  
  691.50  4.3128E-002  
  692.00  4.3106E-002  
  692.50  4.3060E-002  
  693.00  4.3119E-002  
  693.50  4.3298E-002  
  694.00  4.3401E-002  
  694.50  4.3421E-002  
  695.00  4.3526E-002  
  695.50  4.3710E-002  
  696.00  4.3734E-002  
  696.50  4.3616E-002  
  697.00  4.3382E-002  
  697.50  4.3417E-002  
  698.00  4.3488E-002  
  698.50  4.3762E-002  
  699.00  4.3945E-002  
  699.50  4.3951E-002  
  700.00  4.3815E-002  
  700.50  4.3721E-002  
  701.00  4.3915E-002  
  701.50  4.4184E-002  
  702.00  4.4287E-002  
  702.50  4.4279E-002  
  703.00  4.4181E-002  
  703.50  4.4307E-002  
  704.00  4.4511E-002  
  704.50  4.4654E-002  
  705.00  4.4635E-002  
  705.50  4.4363E-002  
  706.00  4.4265E-002  
  706.50  4.4261E-002  
  707.00  4.4426E-002  
  707.50  4.4472E-002  
  708.00  4.4561E-002  
  708.50  4.4783E-002  
  709.00  4.4873E-002  
  709.50  4.4890E-002  
  710.00  4.4746E-002  
  710.50  4.4742E-002  
  711.00  4.4731E-002  
  711.50  4.4733E-002  
  712.00  4.4848E-002  
  712.50  4.5029E-002  
  713.00  4.5215E-002  
  713.50  4.5290E-002  
  714.00  4.5278E-002  
  714.50  4.5278E-002  
  715.00  4.5290E-002  
  715.50  4.5519E-002  
  716.00  4.5686E-002  
  716.50  4.5745E-002  
  717.00  4.5465E-002  
  717.50  4.5523E-002  
  718.00  4.5693E-002  
  718.50  4.5989E-002  
  719.00  4.6001E-002  
  719.50  4.5914E-002  
  720.00  4.5766E-002  
  720.50  4.5753E-002  
  721.00  4.5874E-002  
  721.50  4.5960E-002  
  722.00  4.5996E-002  
  722.50  4.6030E-002  
  723.00  4.6246E-002  
  723.50  4.6320E-002  
  724.00  4.6253E-002  
  724.50  4.6083E-002  
  725.00  4.6177E-002  
  725.50  4.6381E-002  
  726.00  4.6495E-002  
  726.50  4.6545E-002  
  727.00  4.6548E-002  
  727.50  4.6415E-002  
  728.00  4.6316E-002  
  728.50  4.6449E-002  
  729.00  4.6614E-002  
  729.50  4.6659E-002  
  730.00  4.6673E-002  
  730.50  4.6731E-002  
  731.00  4.6789E-002  
  731.50  4.6881E-002  
  732.00  4.7004E-002  
  732.50  4.7100E-002  
  733.00  4.7053E-002  
  733.50  4.7071E-002  
  734.00  4.7135E-002  
  734.50  4.7167E-002  
  735.00  4.7144E-002  
  735.50  4.7052E-002  
  736.00  4.7049E-002  
  736.50  4.7072E-002  
  737.00  4.7139E-002  
  737.50  4.7108E-002  
  738.00  4.7183E-002  
  738.50  4.7339E-002  
  739.00  4.7496E-002  
  739.50  4.7424E-002  
  740.00  4.7422E-002  
  740.50  4.7404E-002  
  741.00  4.7475E-002  
  741.50  4.7445E-002  
  742.00  4.7557E-002  
  742.50  4.7687E-002  
  743.00  4.7820E-002  
  743.50  4.7887E-002  
  744.00  4.7836E-002  
  744.50  4.7743E-002  
  745.00  4.7865E-002  
  745.50  4.8088E-002  
  746.00  4.8312E-002  
  746.50  4.8221E-002  
  747.00  4.8144E-002  
  747.50  4.8123E-002  
  748.00  4.8485E-002  
  748.50  4.8709E-002  
  749.00  4.8680E-002  
  749.50  4.8491E-002  
  750.00  4.8416E-002  
  750.50  4.8452E-002  
  751.00  4.8578E-002  
  751.50  4.8612E-002  
  752.00  4.8789E-002  
  752.50  4.8709E-002  
  753.00  4.8737E-002  
  753.50  4.8796E-002  
  754.00  4.9038E-002  
  754.50  4.9038E-002  
  755.00  4.8939E-002  
  755.50  4.8953E-002  
  756.00  4.9189E-002  
  756.50  4.9259E-002  
  757.00  4.9378E-002  
  757.50  4.9370E-002  
  758.00  4.9467E-002  
  758.50  4.9378E-002  
  759.00  4.9406E-002  
  759.50  4.9330E-002  
  760.00  4.9173E-002  
  760.50  4.9010E-002  
  761.00  4.9116E-002  
  761.50  4.9378E-002  
  762.00  4.9590E-002  
  762.50  4.9630E-002  
  763.00  4.9313E-002  
  763.50  4.9305E-002  
  764.00  4.9507E-002  
  764.50  4.9695E-002  
  765.00  4.9534E-002  
  765.50  4.9297E-002  
  766.00  4.9062E-002  
  766.50  4.9111E-002  
  767.00  4.9264E-002  
  767.50  4.9290E-002  
  768.00  4.9412E-002  
  768.50  4.9555E-002  
  769.00  4.9637E-002  
  769.50  4.9596E-002  
  770.00  4.9592E-002  
  770.50  4.9585E-002  
  771.00  4.9456E-002  
  771.50  4.9320E-002  
  772.00  4.9391E-002  
  772.50  4.9599E-002  
  773.00  4.9868E-002  
  773.50  5.0113E-002  
  774.00  5.0061E-002  
  774.50  4.9970E-002  
  775.00  5.0092E-002  
  775.50  5.0324E-002  
  776.00  5.0289E-002  
  776.50  5.0157E-002  
  777.00  5.0111E-002  
  777.50  5.0249E-002  
  778.00  5.0128E-002  
  778.50  5.0285E-002  
  779.00  5.0226E-002  
  779.50  5.0244E-002  
  780.00  5.0251E-002  
  780.50  5.0476E-002  
  781.00  5.0644E-002  
  781.50  5.0934E-002  
  782.00  5.1256E-002  
  782.50  5.1208E-002  
  783.00  5.0650E-002  
  783.50  5.0263E-002  
  784.00  5.0419E-002  
  784.50  5.0777E-002  
  785.00  5.1064E-002  
  785.50  5.1332E-002  
  786.00  5.1315E-002  
  786.50  5.1205E-002  
  787.00  5.0969E-002  
  787.50  5.1104E-002  
  788.00  5.0996E-002  
  788.50  5.0870E-002  
  789.00  5.0913E-002  
  789.50  5.1140E-002  
  790.00  5.1228E-002  
  790.50  5.1287E-002  
  791.00  5.1095E-002  
  791.50  5.1013E-002  
  792.00  5.1007E-002  
  792.50  5.1214E-002  
  793.00  5.1208E-002  
  793.50  5.1405E-002  
  794.00  5.1407E-002  
  794.50  5.1455E-002  
  795.00  5.1311E-002  
  795.50  5.1078E-002  
  796.00  5.1073E-002  
  796.50  5.1517E-002  
  797.00  5.2086E-002  
  797.50  5.2082E-002  
  798.00  5.1974E-002  
  798.50  5.1604E-002  
  799.00  5.1654E-002  
  799.50  5.2123E-002  
  800.00  5.2442E-002  
  800.50  5.2263E-002  
  801.00  5.2039E-002  
  801.50  5.2107E-002  
  802.00  5.2269E-002  
  802.50  5.2321E-002  
  803.00  5.2087E-002  
  803.50  5.1655E-002  
  804.00  5.1532E-002  
  804.50  5.1622E-002  
  805.00  5.1887E-002  
  805.50  5.2024E-002  
  806.00  5.2404E-002  
  806.50  5.2496E-002  
  807.00  5.2282E-002  
  807.50  5.2267E-002  
  808.00  5.2279E-002  
  808.50  5.2378E-002  
  809.00  5.2595E-002  
  809.50  5.2690E-002  
  810.00  5.2668E-002  
  810.50  5.2495E-002  
  811.00  5.2306E-002  
  811.50  5.2440E-002  
  812.00  5.2468E-002  
  812.50  5.2407E-002  
  813.00  5.2483E-002  
  813.50  5.2873E-002  
  814.00  5.3032E-002  
  814.50  5.2691E-002  
  815.00  5.2739E-002  
  815.50  5.2820E-002  
  816.00  5.2639E-002  
  816.50  5.3071E-002  
  817.00  5.3463E-002  
  817.50  5.3140E-002  
  818.00  5.2489E-002  
  818.50  5.2509E-002  
  819.00  5.3294E-002  
  819.50  5.3735E-002  
  820.00  5.3470E-002  
  820.50  5.2881E-002  
  821.00  5.3054E-002  
  821.50  5.3295E-002  
  822.00  5.3538E-002  
  822.50  5.3282E-002  
  823.00  5.2849E-002  
  823.50  5.2715E-002  
  824.00  5.2873E-002  
  824.50  5.2901E-002  
  825.00  5.3178E-002  
  825.50  5.3197E-002  
  826.00  5.3111E-002  
  826.50  5.3039E-002  
  827.00  5.2907E-002  
  827.50  5.2868E-002  
  828.00  5.2821E-002  
  828.50  5.2882E-002  
  829.00  5.2857E-002  
  829.50  5.2681E-002  
  830.00  5.2728E-002  
  830.50  5.2664E-002  
  831.00  5.2959E-002  
  831.50  5.3205E-002  
  832.00  5.3375E-002  
  832.50  5.3537E-002  
  833.00  5.3533E-002  
  833.50  5.3259E-002  
  834.00  5.2884E-002  
  834.50  5.3020E-002  
  835.00  5.3253E-002  
  835.50  5.3194E-002  
  836.00  5.3146E-002  
  836.50  5.3117E-002  
  837.00  5.3339E-002  
  837.50  5.3492E-002  
  838.00  5.3432E-002  
  838.50  5.3226E-002  
  839.00  5.2324E-002  
  839.50  5.2433E-002  
  840.00  5.3125E-002  
  840.50  5.3419E-002  
  841.00  5.2830E-002  
  841.50  5.2596E-002  
  842.00  5.3022E-002  
  842.50  5.3531E-002  
  843.00  5.3417E-002  
  843.50  5.3469E-002  
  844.00  5.3594E-002  
  844.50  5.3349E-002  
  845.00  5.3180E-002  
  845.50  5.3136E-002  
  846.00  5.2889E-002  
  846.50  5.2984E-002  
  847.00  5.3345E-002  
  847.50  5.3584E-002  
  848.00  5.3628E-002  
  848.50  5.3444E-002  
  849.00  5.3340E-002  
  849.50  5.3529E-002  
  850.00  5.3807E-002  
  850.50  5.4292E-002  
  851.00  5.4404E-002  
  851.50  5.3858E-002  
  852.00  5.3818E-002  
  852.50  5.3778E-002  
  853.00  5.3868E-002  
  853.50  5.3904E-002  
  854.00  5.3505E-002  
  854.50  5.2642E-002  
  855.00  5.2693E-002  
  855.50  5.3438E-002  
  856.00  5.3786E-002  
  856.50  5.3970E-002  
  857.00  5.3668E-002  
  857.50  5.3703E-002  
  858.00  5.3845E-002  
  858.50  5.4147E-002  
  859.00  5.3996E-002  
  859.50  5.4316E-002  
  860.00  5.4459E-002  
  860.50  5.5013E-002  
  861.00  5.5200E-002  
  861.50  5.4809E-002  
  862.00  5.3841E-002  
  862.50  5.3134E-002  
  863.00  5.3233E-002  
  863.50  5.3401E-002  
  864.00  5.3622E-002  
  864.50  5.4040E-002  
  865.00  5.4734E-002  
  865.50  5.4791E-002  
  866.00  5.4552E-002  
  866.50  5.4055E-002  
  867.00  5.3598E-002  
  867.50  5.3333E-002  
  868.00  5.3384E-002  
  868.50  5.3659E-002  
  869.00  5.4140E-002  
  869.50  5.4926E-002  
  870.00  5.4995E-002  
  870.50  5.4853E-002  
  871.00  5.4650E-002  
  871.50  5.4371E-002  
  872.00  5.4504E-002  
  872.50  5.5050E-002  
  873.00  5.4861E-002  
  873.50  5.4276E-002  
  874.00  5.3562E-002  
  874.50  5.3796E-002  
  875.00  5.4479E-002  
  875.50  5.5029E-002  
  876.00  5.6263E-002  
  876.50  5.6135E-002  
  877.00  5.5172E-002  
  877.50  5.4772E-002  
  878.00  5.5010E-002  
  878.50  5.4996E-002  
  879.00  5.5326E-002  
  879.50  5.5072E-002  
  880.00  5.5010E-002  
  880.50  5.4409E-002  
  881.00  5.4638E-002  
  881.50  5.5351E-002  
  882.00  5.5117E-002  
  882.50  5.5132E-002  
  883.00  5.5303E-002  
  883.50  5.4832E-002  
  884.00  5.4168E-002  
  884.50  5.4758E-002  
  885.00  5.5026E-002  
  885.50  5.4610E-002  
  886.00  5.5200E-002  
  886.50  5.5190E-002  
  887.00  5.4731E-002  
  887.50  5.3992E-002  
  888.00  5.3397E-002  
  888.50  5.4467E-002  
  889.00  5.5695E-002  
  889.50  5.5858E-002  
  890.00  5.3937E-002  
  890.50  5.3758E-002  
  891.00  5.4482E-002  
  891.50  5.4819E-002  
  892.00  5.5698E-002  
  892.50  5.5395E-002  
  893.00  5.5162E-002  
  893.50  5.5549E-002  
  894.00  5.4581E-002  
  894.50  5.3300E-002  
  895.00  5.3818E-002  
  895.50  5.5022E-002  
  896.00  5.5261E-002  
  896.50  5.4725E-002  
  897.00  5.4676E-002  
  897.50  5.4444E-002  
  898.00  5.5067E-002  
  898.50  5.5626E-002  
  899.00  5.5470E-002  
  899.50  1.0887E-003  
