
# From lspdd.org
# 
# Name: LFC ELume PAR30 Domestique
# Indice spectral Valeur 
# MSI 0.28 
# SLI 0.46 
# IPI 0.57 
# Pourcentage de bleu 14.6 
# Caractéristique Valeur 
# CCT calculée (K) 2794 
# CCT du fabricant (K) 2700 
# Tension (V) 120 
# Puissance (W) 15.0 
# Efficacité lumineuse (Lum/W) 46.7 
#
# Image: '/app/system/img_2s/2565/medium_image2.JPG?1413486347'
# Image: '/app/system/img_1s/2565/medium_image1.JPG?1413486351'
# 

  273.00  0.0000E+000  
  273.50  0.0000E+000  
  274.00  0.0000E+000  
  274.50  0.0000E+000  
  275.00  0.0000E+000  
  275.50  0.0000E+000  
  276.00  0.0000E+000  
  276.50  0.0000E+000  
  277.00  0.0000E+000  
  277.50  0.0000E+000  
  278.00  0.0000E+000  
  278.50  0.0000E+000  
  279.00  0.0000E+000  
  279.50  0.0000E+000  
  280.00  0.0000E+000  
  280.50  0.0000E+000  
  281.00  0.0000E+000  
  281.50  0.0000E+000  
  282.00  0.0000E+000  
  282.50  0.0000E+000  
  283.00  0.0000E+000  
  283.50  0.0000E+000  
  284.00  0.0000E+000  
  284.50  0.0000E+000  
  285.00  0.0000E+000  
  285.50  0.0000E+000  
  286.00  0.0000E+000  
  286.50  0.0000E+000  
  287.00  0.0000E+000  
  287.50  0.0000E+000  
  288.00  0.0000E+000  
  288.50  0.0000E+000  
  289.00  0.0000E+000  
  289.50  0.0000E+000  
  290.00  0.0000E+000  
  290.50  0.0000E+000  
  291.00  0.0000E+000  
  291.50  0.0000E+000  
  292.00  0.0000E+000  
  292.50  0.0000E+000  
  293.00  0.0000E+000  
  293.50  0.0000E+000  
  294.00  0.0000E+000  
  294.50  0.0000E+000  
  295.00  0.0000E+000  
  295.50  0.0000E+000  
  296.00  0.0000E+000  
  296.50  0.0000E+000  
  297.00  0.0000E+000  
  297.50  0.0000E+000  
  298.00  0.0000E+000  
  298.50  0.0000E+000  
  299.00  0.0000E+000  
  299.50  0.0000E+000  
  300.00  0.0000E+000  
  300.50  0.0000E+000  
  301.00  0.0000E+000  
  301.50  0.0000E+000  
  302.00  0.0000E+000  
  302.50  0.0000E+000  
  303.00  0.0000E+000  
  303.50  0.0000E+000  
  304.00  0.0000E+000  
  304.50  0.0000E+000  
  305.00  0.0000E+000  
  305.50  0.0000E+000  
  306.00  0.0000E+000  
  306.50  0.0000E+000  
  307.00  0.0000E+000  
  307.50  0.0000E+000  
  308.00  0.0000E+000  
  308.50  0.0000E+000  
  309.00  0.0000E+000  
  309.50  0.0000E+000  
  310.00  0.0000E+000  
  310.50  0.0000E+000  
  311.00  0.0000E+000  
  311.50  0.0000E+000  
  312.00  0.0000E+000  
  312.50  0.0000E+000  
  313.00  0.0000E+000  
  313.50  0.0000E+000  
  314.00  0.0000E+000  
  314.50  0.0000E+000  
  315.00  0.0000E+000  
  315.50  0.0000E+000  
  316.00  0.0000E+000  
  316.50  0.0000E+000  
  317.00  0.0000E+000  
  317.50  0.0000E+000  
  318.00  0.0000E+000  
  318.50  0.0000E+000  
  319.00  0.0000E+000  
  319.50  0.0000E+000  
  320.00  0.0000E+000  
  320.50  0.0000E+000  
  321.00  0.0000E+000  
  321.50  0.0000E+000  
  322.00  0.0000E+000  
  322.50  0.0000E+000  
  323.00  0.0000E+000  
  323.50  0.0000E+000  
  324.00  0.0000E+000  
  324.50  0.0000E+000  
  325.00  0.0000E+000  
  325.50  0.0000E+000  
  326.00  0.0000E+000  
  326.50  0.0000E+000  
  327.00  0.0000E+000  
  327.50  0.0000E+000  
  328.00  0.0000E+000  
  328.50  0.0000E+000  
  329.00  0.0000E+000  
  329.50  0.0000E+000  
  330.00  0.0000E+000  
  330.50  0.0000E+000  
  331.00  0.0000E+000  
  331.50  0.0000E+000  
  332.00  0.0000E+000  
  332.50  0.0000E+000  
  333.00  0.0000E+000  
  333.50  0.0000E+000  
  334.00  0.0000E+000  
  334.50  0.0000E+000  
  335.00  0.0000E+000  
  335.50  0.0000E+000  
  336.00  0.0000E+000  
  336.50  0.0000E+000  
  337.00  0.0000E+000  
  337.50  0.0000E+000  
  338.00  0.0000E+000  
  338.50  0.0000E+000  
  339.00  3.5553E-006  
  339.50  8.3441E-006  
  340.00  2.1678E-005  
  340.50  4.2077E-005  
  341.00  7.4812E-005  
  341.50  9.2902E-005  
  342.00  1.0936E-004  
  342.50  7.7621E-005  
  343.00  1.4277E-005  
  343.50  0.0000E+000  
  344.00  0.0000E+000  
  344.50  9.8635E-006  
  345.00  7.9469E-005  
  345.50  1.0963E-004  
  346.00  1.2920E-004  
  346.50  1.3821E-004  
  347.00  1.3200E-004  
  347.50  1.6540E-004  
  348.00  2.1217E-004  
  348.50  2.2042E-004  
  349.00  1.6761E-004  
  349.50  7.8807E-005  
  350.00  5.0327E-005  
  350.50  6.9107E-005  
  351.00  1.5265E-004  
  351.50  2.1076E-004  
  352.00  2.4773E-004  
  352.50  3.0883E-004  
  353.00  3.3848E-004  
  353.50  3.5222E-004  
  354.00  3.7043E-004  
  354.50  3.2352E-004  
  355.00  2.8929E-004  
  355.50  3.2065E-004  
  356.00  3.3266E-004  
  356.50  3.8782E-004  
  357.00  4.4287E-004  
  357.50  4.6674E-004  
  358.00  5.0215E-004  
  358.50  5.4291E-004  
  359.00  5.9479E-004  
  359.50  6.5366E-004  
  360.00  6.9221E-004  
  360.50  7.0970E-004  
  361.00  7.3801E-004  
  361.50  7.4798E-004  
  362.00  8.2875E-004  
  362.50  1.0029E-003  
  363.00  2.0163E-003  
  363.50  4.9394E-003  
  364.00  9.8218E-003  
  364.50  1.5093E-002  
  365.00  1.8110E-002  
  365.50  1.7490E-002  
  366.00  1.3367E-002  
  366.50  8.7002E-003  
  367.00  5.0058E-003  
  367.50  2.8401E-003  
  368.00  1.6408E-003  
  368.50  1.1273E-003  
  369.00  9.4572E-004  
  369.50  8.6233E-004  
  370.00  8.0767E-004  
  370.50  7.7953E-004  
  371.00  6.8415E-004  
  371.50  6.1859E-004  
  372.00  5.7465E-004  
  372.50  5.0562E-004  
  373.00  5.2219E-004  
  373.50  5.0430E-004  
  374.00  4.7837E-004  
  374.50  4.7134E-004  
  375.00  4.8549E-004  
  375.50  5.0051E-004  
  376.00  5.4772E-004  
  376.50  5.8230E-004  
  377.00  5.9218E-004  
  377.50  5.9496E-004  
  378.00  6.3194E-004  
  378.50  7.1468E-004  
  379.00  8.5072E-004  
  379.50  1.0142E-003  
  380.00  1.0947E-003  
  380.50  1.0989E-003  
  381.00  1.0628E-003  
  381.50  9.3528E-004  
  382.00  8.5517E-004  
  382.50  7.6601E-004  
  383.00  6.8087E-004  
  383.50  6.3550E-004  
  384.00  5.6968E-004  
  384.50  5.8218E-004  
  385.00  5.9814E-004  
  385.50  6.1595E-004  
  386.00  5.8279E-004  
  386.50  5.2538E-004  
  387.00  4.9976E-004  
  387.50  4.9514E-004  
  388.00  4.8324E-004  
  388.50  4.8978E-004  
  389.00  4.4612E-004  
  389.50  4.2301E-004  
  390.00  4.5926E-004  
  390.50  4.7000E-004  
  391.00  5.3706E-004  
  391.50  5.7049E-004  
  392.00  5.4454E-004  
  392.50  5.3260E-004  
  393.00  5.0181E-004  
  393.50  4.9294E-004  
  394.00  4.7807E-004  
  394.50  4.5734E-004  
  395.00  4.2372E-004  
  395.50  4.4383E-004  
  396.00  4.9209E-004  
  396.50  5.3108E-004  
  397.00  5.9018E-004  
  397.50  6.0589E-004  
  398.00  6.2456E-004  
  398.50  6.6605E-004  
  399.00  6.5648E-004  
  399.50  6.9522E-004  
  400.00  7.7169E-004  
  400.50  8.9075E-004  
  401.00  1.0261E-003  
  401.50  1.1752E-003  
  402.00  1.4704E-003  
  402.50  3.2133E-003  
  403.00  1.1996E-002  
  403.50  2.8834E-002  
  404.00  4.7578E-002  
  404.50  5.6602E-002  
  405.00  5.1132E-002  
  405.50  3.3718E-002  
  406.00  1.7170E-002  
  406.50  8.3299E-003  
  407.00  6.3131E-003  
  407.50  6.1204E-003  
  408.00  5.5459E-003  
  408.50  4.1363E-003  
  409.00  2.6435E-003  
  409.50  1.7293E-003  
  410.00  1.3683E-003  
  410.50  1.3160E-003  
  411.00  1.3333E-003  
  411.50  1.3679E-003  
  412.00  1.4081E-003  
  412.50  1.4091E-003  
  413.00  1.4018E-003  
  413.50  1.4048E-003  
  414.00  1.3876E-003  
  414.50  1.3763E-003  
  415.00  1.3532E-003  
  415.50  1.3426E-003  
  416.00  1.4058E-003  
  416.50  1.4684E-003  
  417.00  1.5241E-003  
  417.50  1.5487E-003  
  418.00  1.5172E-003  
  418.50  1.4465E-003  
  419.00  1.3446E-003  
  419.50  1.2840E-003  
  420.00  1.2741E-003  
  420.50  1.3631E-003  
  421.00  1.4655E-003  
  421.50  1.5196E-003  
  422.00  1.5562E-003  
  422.50  1.5562E-003  
  423.00  1.5586E-003  
  423.50  1.6248E-003  
  424.00  1.6378E-003  
  424.50  1.6647E-003  
  425.00  1.7323E-003  
  425.50  1.7868E-003  
  426.00  1.8701E-003  
  426.50  1.8925E-003  
  427.00  1.9038E-003  
  427.50  1.9200E-003  
  428.00  1.9738E-003  
  428.50  2.0063E-003  
  429.00  2.0329E-003  
  429.50  2.0780E-003  
  430.00  2.1649E-003  
  430.50  2.2988E-003  
  431.00  2.4373E-003  
  431.50  2.5858E-003  
  432.00  2.7772E-003  
  432.50  3.1153E-003  
  433.00  3.8213E-003  
  433.50  6.6334E-003  
  434.00  1.8770E-002  
  434.50  5.2088E-002  
  435.00  9.8908E-002  
  435.50  1.3416E-001  
  436.00  1.3160E-001  
  436.50  9.7192E-002  
  437.00  5.2363E-002  
  437.50  2.1720E-002  
  438.00  9.1552E-003  
  438.50  5.5256E-003  
  439.00  4.2149E-003  
  439.50  3.6716E-003  
  440.00  3.3205E-003  
  440.50  3.1022E-003  
  441.00  2.9499E-003  
  441.50  2.7959E-003  
  442.00  2.7200E-003  
  442.50  2.6194E-003  
  443.00  2.5780E-003  
  443.50  2.5670E-003  
  444.00  2.5430E-003  
  444.50  2.5324E-003  
  445.00  2.4587E-003  
  445.50  2.3913E-003  
  446.00  2.3262E-003  
  446.50  2.2906E-003  
  447.00  2.2599E-003  
  447.50  2.2448E-003  
  448.00  2.2434E-003  
  448.50  2.2753E-003  
  449.00  2.3292E-003  
  449.50  2.3516E-003  
  450.00  2.3005E-003  
  450.50  2.2086E-003  
  451.00  2.1141E-003  
  451.50  2.0854E-003  
  452.00  2.1005E-003  
  452.50  2.1042E-003  
  453.00  2.0899E-003  
  453.50  2.0475E-003  
  454.00  2.0460E-003  
  454.50  1.9984E-003  
  455.00  1.9823E-003  
  455.50  1.9328E-003  
  456.00  1.8921E-003  
  456.50  1.9075E-003  
  457.00  1.9271E-003  
  457.50  1.9374E-003  
  458.00  1.9174E-003  
  458.50  1.8576E-003  
  459.00  1.8389E-003  
  459.50  1.8368E-003  
  460.00  1.8566E-003  
  460.50  1.8426E-003  
  461.00  1.8326E-003  
  461.50  1.8370E-003  
  462.00  1.8669E-003  
  462.50  1.8750E-003  
  463.00  1.8450E-003  
  463.50  1.8183E-003  
  464.00  1.7714E-003  
  464.50  1.7645E-003  
  465.00  1.7890E-003  
  465.50  1.7959E-003  
  466.00  1.8274E-003  
  466.50  1.8490E-003  
  467.00  1.8772E-003  
  467.50  1.8673E-003  
  468.00  1.8247E-003  
  468.50  1.7391E-003  
  469.00  1.6826E-003  
  469.50  1.6531E-003  
  470.00  1.5965E-003  
  470.50  1.6398E-003  
  471.00  1.6484E-003  
  471.50  1.6872E-003  
  472.00  1.6974E-003  
  472.50  1.7304E-003  
  473.00  1.7773E-003  
  473.50  1.8346E-003  
  474.00  1.8612E-003  
  474.50  1.8679E-003  
  475.00  1.8641E-003  
  475.50  1.8317E-003  
  476.00  1.8012E-003  
  476.50  1.7964E-003  
  477.00  1.8559E-003  
  477.50  1.9578E-003  
  478.00  2.1299E-003  
  478.50  2.3438E-003  
  479.00  2.5938E-003  
  479.50  2.9070E-003  
  480.00  3.3408E-003  
  480.50  3.9083E-003  
  481.00  4.6879E-003  
  481.50  5.7300E-003  
  482.00  7.1284E-003  
  482.50  8.9392E-003  
  483.00  1.1027E-002  
  483.50  1.3363E-002  
  484.00  1.5876E-002  
  484.50  1.8573E-002  
  485.00  2.1392E-002  
  485.50  2.4012E-002  
  486.00  2.6065E-002  
  486.50  2.7172E-002  
  487.00  2.7347E-002  
  487.50  2.6618E-002  
  488.00  2.5377E-002  
  488.50  2.3798E-002  
  489.00  2.2170E-002  
  489.50  2.0684E-002  
  490.00  1.9538E-002  
  490.50  1.8783E-002  
  491.00  1.8291E-002  
  491.50  1.7730E-002  
  492.00  1.6968E-002  
  492.50  1.5993E-002  
  493.00  1.5017E-002  
  493.50  1.4068E-002  
  494.00  1.3239E-002  
  494.50  1.2492E-002  
  495.00  1.1752E-002  
  495.50  1.1063E-002  
  496.00  1.0347E-002  
  496.50  9.7701E-003  
  497.00  9.2368E-003  
  497.50  8.7098E-003  
  498.00  8.1449E-003  
  498.50  7.4924E-003  
  499.00  6.8637E-003  
  499.50  6.2947E-003  
  500.00  5.7827E-003  
  500.50  5.3046E-003  
  501.00  4.8454E-003  
  501.50  4.4421E-003  
  502.00  4.1176E-003  
  502.50  3.8436E-003  
  503.00  3.5736E-003  
  503.50  3.2990E-003  
  504.00  3.0579E-003  
  504.50  2.8651E-003  
  505.00  2.7186E-003  
  505.50  2.6001E-003  
  506.00  2.4810E-003  
  506.50  2.3761E-003  
  507.00  2.3159E-003  
  507.50  2.2868E-003  
  508.00  2.2960E-003  
  508.50  2.3197E-003  
  509.00  2.3457E-003  
  509.50  2.3386E-003  
  510.00  2.2886E-003  
  510.50  2.2454E-003  
  511.00  2.2297E-003  
  511.50  2.2729E-003  
  512.00  2.3162E-003  
  512.50  2.3418E-003  
  513.00  2.3303E-003  
  513.50  2.2819E-003  
  514.00  2.2099E-003  
  514.50  2.1566E-003  
  515.00  2.1117E-003  
  515.50  2.1295E-003  
  516.00  2.1190E-003  
  516.50  2.1098E-003  
  517.00  2.0680E-003  
  517.50  2.0192E-003  
  518.00  1.9966E-003  
  518.50  1.9742E-003  
  519.00  1.9778E-003  
  519.50  2.0072E-003  
  520.00  2.0211E-003  
  520.50  2.0218E-003  
  521.00  1.9929E-003  
  521.50  1.9395E-003  
  522.00  1.9002E-003  
  522.50  1.8761E-003  
  523.00  1.9086E-003  
  523.50  1.9554E-003  
  524.00  2.0086E-003  
  524.50  2.0224E-003  
  525.00  2.0535E-003  
  525.50  2.1249E-003  
  526.00  2.1977E-003  
  526.50  2.2616E-003  
  527.00  2.3151E-003  
  527.50  2.3567E-003  
  528.00  2.4190E-003  
  528.50  2.4752E-003  
  529.00  2.5454E-003  
  529.50  2.5997E-003  
  530.00  2.7020E-003  
  530.50  2.8231E-003  
  531.00  3.0826E-003  
  531.50  3.5636E-003  
  532.00  4.4030E-003  
  532.50  5.5782E-003  
  533.00  6.6768E-003  
  533.50  7.2732E-003  
  534.00  7.3049E-003  
  534.50  7.1965E-003  
  535.00  7.4815E-003  
  535.50  8.5294E-003  
  536.00  1.0544E-002  
  536.50  1.3576E-002  
  537.00  1.7406E-002  
  537.50  2.1474E-002  
  538.00  2.5740E-002  
  538.50  3.1125E-002  
  539.00  3.9699E-002  
  539.50  5.3622E-002  
  540.00  7.4284E-002  
  540.50  9.8270E-002  
  541.00  1.1917E-001  
  541.50  1.3188E-001  
  542.00  1.3441E-001  
  542.50  1.3130E-001  
  543.00  1.2714E-001  
  543.50  1.2478E-001  
  544.00  1.2677E-001  
  544.50  1.3286E-001  
  545.00  1.3952E-001  
  545.50  1.4506E-001  
  546.00  1.4601E-001  
  546.50  1.4117E-001  
  547.00  1.2900E-001  
  547.50  1.1272E-001  
  548.00  9.6133E-002  
  548.50  8.3269E-002  
  549.00  7.3053E-002  
  549.50  6.4066E-002  
  550.00  5.6081E-002  
  550.50  4.8828E-002  
  551.00  4.2253E-002  
  551.50  3.6569E-002  
  552.00  3.1714E-002  
  552.50  2.7698E-002  
  553.00  2.4267E-002  
  553.50  2.1305E-002  
  554.00  1.8527E-002  
  554.50  1.5912E-002  
  555.00  1.3522E-002  
  555.50  1.1614E-002  
  556.00  1.0147E-002  
  556.50  9.0637E-003  
  557.00  8.1934E-003  
  557.50  7.4825E-003  
  558.00  6.8785E-003  
  558.50  6.3873E-003  
  559.00  5.9500E-003  
  559.50  5.5349E-003  
  560.00  5.2149E-003  
  560.50  4.9956E-003  
  561.00  4.9004E-003  
  561.50  4.8177E-003  
  562.00  4.7144E-003  
  562.50  4.5601E-003  
  563.00  4.3923E-003  
  563.50  4.1820E-003  
  564.00  4.0101E-003  
  564.50  3.8338E-003  
  565.00  3.6837E-003  
  565.50  3.5497E-003  
  566.00  3.4664E-003  
  566.50  3.4470E-003  
  567.00  3.4594E-003  
  567.50  3.4559E-003  
  568.00  3.4895E-003  
  568.50  3.4672E-003  
  569.00  3.3945E-003  
  569.50  3.1894E-003  
  570.00  2.9373E-003  
  570.50  2.7051E-003  
  571.00  2.5485E-003  
  571.50  2.4790E-003  
  572.00  2.4573E-003  
  572.50  2.4626E-003  
  573.00  2.5157E-003  
  573.50  2.6517E-003  
  574.00  2.8969E-003  
  574.50  3.3253E-003  
  575.00  4.9354E-003  
  575.50  9.7892E-003  
  576.00  1.8406E-002  
  576.50  2.7017E-002  
  577.00  3.0952E-002  
  577.50  2.9654E-002  
  578.00  2.8750E-002  
  578.50  3.1880E-002  
  579.00  3.5868E-002  
  579.50  3.6785E-002  
  580.00  3.4185E-002  
  580.50  3.0549E-002  
  581.00  2.8236E-002  
  581.50  2.7846E-002  
  582.00  2.9850E-002  
  582.50  3.2660E-002  
  583.00  3.4818E-002  
  583.50  3.5629E-002  
  584.00  3.5196E-002  
  584.50  3.4142E-002  
  585.00  3.3229E-002  
  585.50  3.4431E-002  
  586.00  3.9508E-002  
  586.50  4.8446E-002  
  587.00  5.5876E-002  
  587.50  5.5921E-002  
  588.00  4.7715E-002  
  588.50  3.6315E-002  
  589.00  2.7795E-002  
  589.50  2.3513E-002  
  590.00  2.2883E-002  
  590.50  2.4280E-002  
  591.00  2.7400E-002  
  591.50  3.2868E-002  
  592.00  4.0386E-002  
  592.50  4.7812E-002  
  593.00  5.1402E-002  
  593.50  4.8080E-002  
  594.00  3.9996E-002  
  594.50  3.0957E-002  
  595.00  2.4436E-002  
  595.50  2.0787E-002  
  596.00  1.9440E-002  
  596.50  1.9234E-002  
  597.00  1.9987E-002  
  597.50  2.2062E-002  
  598.00  2.5618E-002  
  598.50  3.0339E-002  
  599.00  3.4412E-002  
  599.50  3.5714E-002  
  600.00  3.3651E-002  
  600.50  2.9036E-002  
  601.00  2.3836E-002  
  601.50  1.9397E-002  
  602.00  1.6395E-002  
  602.50  1.4584E-002  
  603.00  1.3866E-002  
  603.50  1.3964E-002  
  604.00  1.4534E-002  
  604.50  1.5355E-002  
  605.00  1.6294E-002  
  605.50  1.7602E-002  
  606.00  1.9436E-002  
  606.50  2.2064E-002  
  607.00  2.5876E-002  
  607.50  3.1329E-002  
  608.00  3.9818E-002  
  608.50  5.3763E-002  
  609.00  7.8645E-002  
  609.50  1.1979E-001  
  610.00  1.6215E-001  
  610.50  1.9210E-001  
  611.00  2.0302E-001  
  611.50  2.0442E-001  
  612.00  2.0435E-001  
  612.50  1.9994E-001  
  613.00  1.9000E-001  
  613.50  1.7630E-001  
  614.00  1.6194E-001  
  614.50  1.4602E-001  
  615.00  1.2630E-001  
  615.50  1.0320E-001  
  616.00  8.0771E-002  
  616.50  6.2244E-002  
  617.00  4.9349E-002  
  617.50  4.0541E-002  
  618.00  3.4853E-002  
  618.50  3.1304E-002  
  619.00  2.9294E-002  
  619.50  2.8606E-002  
  620.00  2.8783E-002  
  620.50  2.9370E-002  
  621.00  3.0011E-002  
  621.50  3.0502E-002  
  622.00  3.1204E-002  
  622.50  3.2369E-002  
  623.00  3.3909E-002  
  623.50  3.5356E-002  
  624.00  3.6458E-002  
  624.50  3.7210E-002  
  625.00  3.7793E-002  
  625.50  3.8315E-002  
  626.00  3.8541E-002  
  626.50  3.8403E-002  
  627.00  3.7834E-002  
  627.50  3.7054E-002  
  628.00  3.6441E-002  
  628.50  3.6608E-002  
  629.00  3.8925E-002  
  629.50  4.4608E-002  
  630.00  5.4220E-002  
  630.50  6.3129E-002  
  631.00  6.5526E-002  
  631.50  5.7469E-002  
  632.00  4.3172E-002  
  632.50  2.8912E-002  
  633.00  1.9154E-002  
  633.50  1.3695E-002  
  634.00  1.1086E-002  
  634.50  9.6860E-003  
  635.00  8.8822E-003  
  635.50  8.3179E-003  
  636.00  7.8432E-003  
  636.50  7.4209E-003  
  637.00  7.0304E-003  
  637.50  6.6298E-003  
  638.00  6.2330E-003  
  638.50  5.9314E-003  
  639.00  5.7177E-003  
  639.50  5.6065E-003  
  640.00  5.5022E-003  
  640.50  5.4207E-003  
  641.00  5.3591E-003  
  641.50  5.3628E-003  
  642.00  5.3883E-003  
  642.50  5.4371E-003  
  643.00  5.5124E-003  
  643.50  5.6217E-003  
  644.00  5.7074E-003  
  644.50  5.6791E-003  
  645.00  5.5645E-003  
  645.50  5.3984E-003  
  646.00  5.3004E-003  
  646.50  5.1905E-003  
  647.00  5.1413E-003  
  647.50  5.1562E-003  
  648.00  5.4381E-003  
  648.50  6.3015E-003  
  649.00  8.2937E-003  
  649.50  1.1798E-002  
  650.00  1.5595E-002  
  650.50  1.7750E-002  
  651.00  1.6795E-002  
  651.50  1.3983E-002  
  652.00  1.1279E-002  
  652.50  9.8996E-003  
  653.00  9.3490E-003  
  653.50  8.7229E-003  
  654.00  7.7010E-003  
  654.50  6.5648E-003  
  655.00  5.6939E-003  
  655.50  5.2726E-003  
  656.00  5.1575E-003  
  656.50  5.3419E-003  
  657.00  5.7257E-003  
  657.50  6.1009E-003  
  658.00  6.1162E-003  
  658.50  5.6095E-003  
  659.00  4.8375E-003  
  659.50  4.2033E-003  
  660.00  3.9103E-003  
  660.50  4.1490E-003  
  661.00  5.2338E-003  
  661.50  7.3390E-003  
  662.00  9.6756E-003  
  662.50  1.0957E-002  
  663.00  1.0410E-002  
  663.50  8.6273E-003  
  664.00  6.6255E-003  
  664.50  5.1192E-003  
  665.00  4.2364E-003  
  665.50  3.8052E-003  
  666.00  3.6518E-003  
  666.50  3.6438E-003  
  667.00  3.6737E-003  
  667.50  3.6573E-003  
  668.00  3.5599E-003  
  668.50  3.4514E-003  
  669.00  3.3324E-003  
  669.50  3.2473E-003  
  670.00  3.1911E-003  
  670.50  3.1789E-003  
  671.00  3.1095E-003  
  671.50  3.0634E-003  
  672.00  2.9927E-003  
  672.50  2.8608E-003  
  673.00  2.6808E-003  
  673.50  2.5232E-003  
  674.00  2.4514E-003  
  674.50  2.3594E-003  
  675.00  2.2868E-003  
  675.50  2.2681E-003  
  676.00  2.2662E-003  
  676.50  2.2586E-003  
  677.00  2.2565E-003  
  677.50  2.2761E-003  
  678.00  2.3409E-003  
  678.50  2.3722E-003  
  679.00  2.5298E-003  
  679.50  2.7442E-003  
  680.00  2.9686E-003  
  680.50  3.0565E-003  
  681.00  3.0294E-003  
  681.50  2.9080E-003  
  682.00  2.7428E-003  
  682.50  2.5949E-003  
  683.00  2.5421E-003  
  683.50  2.5386E-003  
  684.00  2.5644E-003  
  684.50  2.7125E-003  
  685.00  2.9891E-003  
  685.50  3.6245E-003  
  686.00  4.8134E-003  
  686.50  6.6697E-003  
  687.00  8.8246E-003  
  687.50  1.0289E-002  
  688.00  1.0317E-002  
  688.50  8.8562E-003  
  689.00  6.6437E-003  
  689.50  4.7285E-003  
  690.00  3.4304E-003  
  690.50  2.7223E-003  
  691.00  2.3412E-003  
  691.50  2.1840E-003  
  692.00  2.5093E-003  
  692.50  3.7104E-003  
  693.00  5.5457E-003  
  693.50  7.1269E-003  
  694.00  7.2309E-003  
  694.50  5.7373E-003  
  695.00  3.7601E-003  
  695.50  2.2393E-003  
  696.00  1.5587E-003  
  696.50  1.2389E-003  
  697.00  1.0382E-003  
  697.50  9.3798E-004  
  698.00  8.9267E-004  
  698.50  9.4361E-004  
  699.00  1.0201E-003  
  699.50  1.1277E-003  
  700.00  1.2164E-003  
  700.50  1.2661E-003  
  701.00  1.2940E-003  
  701.50  1.4060E-003  
  702.00  1.6228E-003  
  702.50  1.9693E-003  
  703.00  2.4409E-003  
  703.50  3.2008E-003  
  704.00  4.2111E-003  
  704.50  5.6200E-003  
  705.00  7.8396E-003  
  705.50  1.1647E-002  
  706.00  1.6769E-002  
  706.50  2.1949E-002  
  707.00  2.5088E-002  
  707.50  2.5641E-002  
  708.00  2.5872E-002  
  708.50  2.7293E-002  
  709.00  2.8062E-002  
  709.50  2.4924E-002  
  710.00  1.8759E-002  
  710.50  1.3656E-002  
  711.00  1.3328E-002  
  711.50  1.7459E-002  
  712.00  2.2003E-002  
  712.50  2.3152E-002  
  713.00  1.9286E-002  
  713.50  1.2802E-002  
  714.00  7.0630E-003  
  714.50  3.5972E-003  
  715.00  1.9013E-003  
  715.50  1.1812E-003  
  716.00  8.4293E-004  
  716.50  7.0150E-004  
  717.00  6.3783E-004  
  717.50  6.4163E-004  
  718.00  7.0071E-004  
  718.50  6.5446E-004  
  719.00  6.0891E-004  
  719.50  5.8160E-004  
  720.00  5.8018E-004  
  720.50  5.3470E-004  
  721.00  5.0047E-004  
  721.50  4.3656E-004  
  722.00  3.2684E-004  
  722.50  2.5869E-004  
  723.00  2.2657E-004  
  723.50  2.6585E-004  
  724.00  2.6817E-004  
  724.50  2.6341E-004  
  725.00  2.8600E-004  
  725.50  3.1648E-004  
  726.00  4.2682E-004  
  726.50  4.0572E-004  
  727.00  3.7833E-004  
  727.50  3.7517E-004  
  728.00  3.9693E-004  
  728.50  2.9114E-004  
  729.00  2.1842E-004  
  729.50  3.8632E-004  
  730.00  6.6820E-004  
  730.50  6.8835E-004  
  731.00  4.1166E-004  
  731.50  1.6429E-004  
  732.00  3.4192E-005  
  732.50  0.0000E+000  
  733.00  1.0167E-005  
  733.50  5.7711E-005  
  734.00  6.6788E-005  
  734.50  1.8424E-005  
  735.00  0.0000E+000  
  735.50  0.0000E+000  
  736.00  0.0000E+000  
  736.50  7.8473E-006  
  737.00  5.7853E-006  
  737.50  7.5639E-005  
  738.00  2.8537E-004  
  738.50  4.2614E-004  
  739.00  3.7553E-004  
  739.50  1.5698E-004  
  740.00  8.4092E-005  
  740.50  1.5758E-004  
  741.00  2.7200E-004  
  741.50  3.9201E-004  
  742.00  5.3554E-004  
  742.50  6.8183E-004  
  743.00  6.1106E-004  
  743.50  4.8057E-004  
  744.00  3.0300E-004  
  744.50  5.5340E-005  
  745.00  0.0000E+000  
  745.50  0.0000E+000  
  746.00  6.9345E-005  
  746.50  1.5905E-004  
  747.00  1.7890E-004  
  747.50  7.1471E-005  
  748.00  0.0000E+000  
  748.50  0.0000E+000  
  749.00  0.0000E+000  
  749.50  5.8972E-005  
  750.00  2.9484E-004  
  750.50  1.9273E-004  
  751.00  6.2314E-005  
  751.50  0.0000E+000  
  752.00  0.0000E+000  
  752.50  0.0000E+000  
  753.00  0.0000E+000  
  753.50  0.0000E+000  
  754.00  0.0000E+000  
  754.50  0.0000E+000  
  755.00  0.0000E+000  
  755.50  0.0000E+000  
  756.00  0.0000E+000  
  756.50  0.0000E+000  
  757.00  0.0000E+000  
  757.50  0.0000E+000  
  758.00  0.0000E+000  
  758.50  0.0000E+000  
  759.00  0.0000E+000  
  759.50  0.0000E+000  
  760.00  0.0000E+000  
  760.50  0.0000E+000  
  761.00  0.0000E+000  
  761.50  0.0000E+000  
  762.00  0.0000E+000  
  762.50  1.6541E-004  
  763.00  7.1317E-004  
  763.50  1.0718E-003  
  764.00  8.6769E-004  
  764.50  2.5775E-004  
  765.00  0.0000E+000  
  765.50  0.0000E+000  
  766.00  0.0000E+000  
  766.50  0.0000E+000  
  767.00  0.0000E+000  
  767.50  0.0000E+000  
  768.00  0.0000E+000  
  768.50  0.0000E+000  
  769.00  0.0000E+000  
  769.50  0.0000E+000  
  770.00  0.0000E+000  
  770.50  0.0000E+000  
  771.00  0.0000E+000  
  771.50  0.0000E+000  
  772.00  0.0000E+000  
  772.50  7.5678E-005  
  773.00  1.3669E-004  
  773.50  0.0000E+000  
  774.00  0.0000E+000  
  774.50  0.0000E+000  
  775.00  0.0000E+000  
  775.50  0.0000E+000  
  776.00  0.0000E+000  
  776.50  0.0000E+000  
  777.00  0.0000E+000  
  777.50  0.0000E+000  
  778.00  0.0000E+000  
  778.50  0.0000E+000  
  779.00  0.0000E+000  
  779.50  0.0000E+000  
  780.00  0.0000E+000  
  780.50  0.0000E+000  
  781.00  0.0000E+000  
  781.50  0.0000E+000  
  782.00  0.0000E+000  
  782.50  0.0000E+000  
  783.00  0.0000E+000  
  783.50  0.0000E+000  
  784.00  0.0000E+000  
  784.50  0.0000E+000  
  785.00  0.0000E+000  
  785.50  0.0000E+000  
  786.00  0.0000E+000  
  786.50  0.0000E+000  
  787.00  0.0000E+000  
  787.50  0.0000E+000  
  788.00  0.0000E+000  
  788.50  0.0000E+000  
  789.00  0.0000E+000  
  789.50  0.0000E+000  
  790.00  0.0000E+000  
  790.50  0.0000E+000  
  791.00  0.0000E+000  
  791.50  0.0000E+000  
  792.00  0.0000E+000  
  792.50  0.0000E+000  
  793.00  0.0000E+000  
  793.50  0.0000E+000  
  794.00  0.0000E+000  
  794.50  0.0000E+000  
  795.00  0.0000E+000  
  795.50  0.0000E+000  
  796.00  0.0000E+000  
  796.50  0.0000E+000  
  797.00  0.0000E+000  
  797.50  0.0000E+000  
  798.00  0.0000E+000  
  798.50  0.0000E+000  
  799.00  0.0000E+000  
  799.50  0.0000E+000  
  800.00  0.0000E+000  
  800.50  0.0000E+000  
  801.00  0.0000E+000  
  801.50  0.0000E+000  
  802.00  0.0000E+000  
  802.50  0.0000E+000  
  803.00  0.0000E+000  
  803.50  0.0000E+000  
  804.00  0.0000E+000  
  804.50  0.0000E+000  
  805.00  0.0000E+000  
  805.50  0.0000E+000  
  806.00  0.0000E+000  
  806.50  0.0000E+000  
  807.00  0.0000E+000  
  807.50  0.0000E+000  
  808.00  0.0000E+000  
  808.50  0.0000E+000  
  809.00  8.3411E-004  
  809.50  1.0862E-003  
  810.00  8.8537E-004  
  810.50  7.6793E-004  
  811.00  1.0169E-003  
  811.50  1.1287E-003  
  812.00  7.5895E-004  
  812.50  1.2434E-004  
  813.00  0.0000E+000  
  813.50  0.0000E+000  
  814.00  0.0000E+000  
  814.50  0.0000E+000  
  815.00  0.0000E+000  
  815.50  0.0000E+000  
  816.00  0.0000E+000  
  816.50  0.0000E+000  
  817.00  0.0000E+000  
  817.50  0.0000E+000  
  818.00  0.0000E+000  
  818.50  0.0000E+000  
  819.00  0.0000E+000  
  819.50  0.0000E+000  
  820.00  0.0000E+000  
  820.50  0.0000E+000  
  821.00  0.0000E+000  
  821.50  0.0000E+000  
  822.00  0.0000E+000  
  822.50  0.0000E+000  
  823.00  0.0000E+000  
  823.50  0.0000E+000  
  824.00  0.0000E+000  
  824.50  0.0000E+000  
  825.00  0.0000E+000  
  825.50  0.0000E+000  
  826.00  0.0000E+000  
  826.50  0.0000E+000  
  827.00  0.0000E+000  
  827.50  0.0000E+000  
  828.00  0.0000E+000  
  828.50  0.0000E+000  
  829.00  0.0000E+000  
  829.50  0.0000E+000  
  830.00  0.0000E+000  
  830.50  0.0000E+000  
  831.00  0.0000E+000  
  831.50  0.0000E+000  
  832.00  0.0000E+000  
  832.50  0.0000E+000  
  833.00  0.0000E+000  
  833.50  0.0000E+000  
  834.00  0.0000E+000  
  834.50  0.0000E+000  
  835.00  0.0000E+000  
  835.50  0.0000E+000  
  836.00  0.0000E+000  
  836.50  0.0000E+000  
  837.00  0.0000E+000  
  837.50  0.0000E+000  
  838.00  0.0000E+000  
  838.50  0.0000E+000  
  839.00  0.0000E+000  
  839.50  0.0000E+000  
  840.00  0.0000E+000  
  840.50  0.0000E+000  
  841.00  0.0000E+000  
  841.50  0.0000E+000  
  842.00  0.0000E+000  
  842.50  0.0000E+000  
  843.00  0.0000E+000  
  843.50  0.0000E+000  
  844.00  0.0000E+000  
  844.50  0.0000E+000  
  845.00  0.0000E+000  
  845.50  0.0000E+000  
  846.00  0.0000E+000  
  846.50  0.0000E+000  
  847.00  0.0000E+000  
  847.50  0.0000E+000  
  848.00  0.0000E+000  
  848.50  0.0000E+000  
  849.00  0.0000E+000  
  849.50  0.0000E+000  
  850.00  0.0000E+000  
  850.50  0.0000E+000  
  851.00  0.0000E+000  
  851.50  0.0000E+000  
  852.00  0.0000E+000  
  852.50  0.0000E+000  
  853.00  0.0000E+000  
  853.50  0.0000E+000  
  854.00  0.0000E+000  
  854.50  0.0000E+000  
  855.00  0.0000E+000  
  855.50  0.0000E+000  
  856.00  0.0000E+000  
  856.50  0.0000E+000  
  857.00  0.0000E+000  
  857.50  0.0000E+000  
  858.00  0.0000E+000  
  858.50  0.0000E+000  
  859.00  0.0000E+000  
  859.50  0.0000E+000  
  860.00  0.0000E+000  
  860.50  0.0000E+000  
  861.00  0.0000E+000  
  861.50  0.0000E+000  
  862.00  0.0000E+000  
  862.50  0.0000E+000  
  863.00  0.0000E+000  
  863.50  0.0000E+000  
  864.00  0.0000E+000  
  864.50  0.0000E+000  
  865.00  0.0000E+000  
  865.50  0.0000E+000  
  866.00  0.0000E+000  
  866.50  0.0000E+000  
  867.00  0.0000E+000  
  867.50  0.0000E+000  
  868.00  0.0000E+000  
  868.50  0.0000E+000  
  869.00  0.0000E+000  
  869.50  0.0000E+000  
  870.00  3.8048E-004  
  870.50  1.7786E-003  
  871.00  2.3607E-003  
  871.50  1.6437E-003  
  872.00  1.5680E-004  
  872.50  0.0000E+000  
  873.00  0.0000E+000  
  873.50  0.0000E+000  
  874.00  0.0000E+000  
  874.50  0.0000E+000  
  875.00  0.0000E+000  
  875.50  0.0000E+000  
  876.00  0.0000E+000  
  876.50  0.0000E+000  
  877.00  0.0000E+000  
  877.50  0.0000E+000  
  878.00  0.0000E+000  
  878.50  0.0000E+000  
  879.00  0.0000E+000  
  879.50  0.0000E+000  
  880.00  0.0000E+000  
  880.50  0.0000E+000  
  881.00  0.0000E+000  
  881.50  0.0000E+000  
  882.00  0.0000E+000  
  882.50  0.0000E+000  
  883.00  0.0000E+000  
  883.50  0.0000E+000  
  884.00  0.0000E+000  
  884.50  0.0000E+000  
  885.00  0.0000E+000  
  885.50  0.0000E+000  
  886.00  0.0000E+000  
  886.50  0.0000E+000  
  887.00  0.0000E+000  
  887.50  0.0000E+000  
  888.00  0.0000E+000  
  888.50  0.0000E+000  
  889.00  0.0000E+000  
  889.50  0.0000E+000  
  890.00  0.0000E+000  
  890.50  0.0000E+000  
  891.00  0.0000E+000  
  891.50  0.0000E+000  
  892.00  0.0000E+000  
  892.50  0.0000E+000  
  893.00  0.0000E+000  
  893.50  0.0000E+000  
  894.00  0.0000E+000  
  894.50  0.0000E+000  
  895.00  0.0000E+000  
  895.50  0.0000E+000  
  896.00  0.0000E+000  
  896.50  0.0000E+000  
  897.00  0.0000E+000  
  897.50  0.0000E+000  
  898.00  0.0000E+000  
  898.50  0.0000E+000  
  899.00  0.0000E+000  
  899.50  0.0000E+000  
