
# From lspdd.org
# 
# Name: LFC ELume PAR20 Domestique
# Indice spectral Valeur 
# MSI 0.29 
# SLI 0.45 
# IPI 0.57 
# Pourcentage de bleu 15.0 
# Caractéristique Valeur 
# CCT calculée (K) 2736 
# CCT du fabricant (K) 2700 
# Tension (V) 120 
# Puissance (W) 9.0 
# Efficacité lumineuse (Lum/W) 33.3 
#
# Image: '/app/system/img_2s/2567/medium_image2.JPG?1413486362'
# Image: '/app/system/img_1s/2567/medium_image1.JPG?1413486366'
# 

  273.00  0.0000E+000  
  273.50  0.0000E+000  
  274.00  0.0000E+000  
  274.50  0.0000E+000  
  275.00  0.0000E+000  
  275.50  0.0000E+000  
  276.00  0.0000E+000  
  276.50  0.0000E+000  
  277.00  0.0000E+000  
  277.50  0.0000E+000  
  278.00  0.0000E+000  
  278.50  0.0000E+000  
  279.00  0.0000E+000  
  279.50  0.0000E+000  
  280.00  0.0000E+000  
  280.50  0.0000E+000  
  281.00  0.0000E+000  
  281.50  0.0000E+000  
  282.00  0.0000E+000  
  282.50  0.0000E+000  
  283.00  0.0000E+000  
  283.50  0.0000E+000  
  284.00  0.0000E+000  
  284.50  0.0000E+000  
  285.00  0.0000E+000  
  285.50  0.0000E+000  
  286.00  0.0000E+000  
  286.50  0.0000E+000  
  287.00  0.0000E+000  
  287.50  0.0000E+000  
  288.00  0.0000E+000  
  288.50  0.0000E+000  
  289.00  0.0000E+000  
  289.50  0.0000E+000  
  290.00  0.0000E+000  
  290.50  0.0000E+000  
  291.00  0.0000E+000  
  291.50  0.0000E+000  
  292.00  0.0000E+000  
  292.50  0.0000E+000  
  293.00  0.0000E+000  
  293.50  0.0000E+000  
  294.00  0.0000E+000  
  294.50  0.0000E+000  
  295.00  0.0000E+000  
  295.50  0.0000E+000  
  296.00  0.0000E+000  
  296.50  0.0000E+000  
  297.00  0.0000E+000  
  297.50  0.0000E+000  
  298.00  0.0000E+000  
  298.50  0.0000E+000  
  299.00  0.0000E+000  
  299.50  0.0000E+000  
  300.00  0.0000E+000  
  300.50  0.0000E+000  
  301.00  0.0000E+000  
  301.50  0.0000E+000  
  302.00  0.0000E+000  
  302.50  0.0000E+000  
  303.00  0.0000E+000  
  303.50  0.0000E+000  
  304.00  0.0000E+000  
  304.50  0.0000E+000  
  305.00  0.0000E+000  
  305.50  0.0000E+000  
  306.00  0.0000E+000  
  306.50  0.0000E+000  
  307.00  0.0000E+000  
  307.50  0.0000E+000  
  308.00  0.0000E+000  
  308.50  0.0000E+000  
  309.00  0.0000E+000  
  309.50  0.0000E+000  
  310.00  0.0000E+000  
  310.50  0.0000E+000  
  311.00  0.0000E+000  
  311.50  0.0000E+000  
  312.00  0.0000E+000  
  312.50  0.0000E+000  
  313.00  0.0000E+000  
  313.50  0.0000E+000  
  314.00  0.0000E+000  
  314.50  0.0000E+000  
  315.00  0.0000E+000  
  315.50  0.0000E+000  
  316.00  0.0000E+000  
  316.50  0.0000E+000  
  317.00  0.0000E+000  
  317.50  0.0000E+000  
  318.00  0.0000E+000  
  318.50  0.0000E+000  
  319.00  0.0000E+000  
  319.50  0.0000E+000  
  320.00  0.0000E+000  
  320.50  0.0000E+000  
  321.00  0.0000E+000  
  321.50  0.0000E+000  
  322.00  0.0000E+000  
  322.50  0.0000E+000  
  323.00  0.0000E+000  
  323.50  0.0000E+000  
  324.00  0.0000E+000  
  324.50  0.0000E+000  
  325.00  0.0000E+000  
  325.50  0.0000E+000  
  326.00  0.0000E+000  
  326.50  0.0000E+000  
  327.00  0.0000E+000  
  327.50  0.0000E+000  
  328.00  0.0000E+000  
  328.50  0.0000E+000  
  329.00  0.0000E+000  
  329.50  0.0000E+000  
  330.00  0.0000E+000  
  330.50  0.0000E+000  
  331.00  0.0000E+000  
  331.50  0.0000E+000  
  332.00  0.0000E+000  
  332.50  0.0000E+000  
  333.00  0.0000E+000  
  333.50  0.0000E+000  
  334.00  0.0000E+000  
  334.50  0.0000E+000  
  335.00  0.0000E+000  
  335.50  0.0000E+000  
  336.00  0.0000E+000  
  336.50  0.0000E+000  
  337.00  0.0000E+000  
  337.50  0.0000E+000  
  338.00  0.0000E+000  
  338.50  0.0000E+000  
  339.00  0.0000E+000  
  339.50  0.0000E+000  
  340.00  0.0000E+000  
  340.50  0.0000E+000  
  341.00  0.0000E+000  
  341.50  0.0000E+000  
  342.00  0.0000E+000  
  342.50  0.0000E+000  
  343.00  0.0000E+000  
  343.50  0.0000E+000  
  344.00  0.0000E+000  
  344.50  0.0000E+000  
  345.00  0.0000E+000  
  345.50  0.0000E+000  
  346.00  0.0000E+000  
  346.50  0.0000E+000  
  347.00  0.0000E+000  
  347.50  0.0000E+000  
  348.00  0.0000E+000  
  348.50  0.0000E+000  
  349.00  0.0000E+000  
  349.50  0.0000E+000  
  350.00  0.0000E+000  
  350.50  0.0000E+000  
  351.00  0.0000E+000  
  351.50  0.0000E+000  
  352.00  0.0000E+000  
  352.50  0.0000E+000  
  353.00  0.0000E+000  
  353.50  0.0000E+000  
  354.00  3.2875E-006  
  354.50  0.0000E+000  
  355.00  0.0000E+000  
  355.50  2.3867E-007  
  356.00  1.3622E-005  
  356.50  4.2129E-005  
  357.00  7.4947E-005  
  357.50  6.4420E-005  
  358.00  6.3727E-005  
  358.50  9.7469E-005  
  359.00  1.2291E-004  
  359.50  1.7755E-004  
  360.00  2.0333E-004  
  360.50  2.4139E-004  
  361.00  2.8091E-004  
  361.50  2.9861E-004  
  362.00  3.5762E-004  
  362.50  4.9417E-004  
  363.00  1.2298E-003  
  363.50  3.4331E-003  
  364.00  7.2060E-003  
  364.50  1.1354E-002  
  365.00  1.3883E-002  
  365.50  1.3572E-002  
  366.00  1.0428E-002  
  366.50  6.7440E-003  
  367.00  3.7450E-003  
  367.50  1.9557E-003  
  368.00  9.9454E-004  
  368.50  5.8095E-004  
  369.00  4.3792E-004  
  369.50  3.7927E-004  
  370.00  2.9389E-004  
  370.50  2.8959E-004  
  371.00  2.7332E-004  
  371.50  2.9039E-004  
  372.00  2.9981E-004  
  372.50  2.6582E-004  
  373.00  2.3779E-004  
  373.50  1.8545E-004  
  374.00  1.6565E-004  
  374.50  1.3349E-004  
  375.00  1.3081E-004  
  375.50  1.3672E-004  
  376.00  1.7115E-004  
  376.50  1.8010E-004  
  377.00  1.9954E-004  
  377.50  2.2896E-004  
  378.00  2.7490E-004  
  378.50  3.1939E-004  
  379.00  3.1204E-004  
  379.50  3.0019E-004  
  380.00  3.1251E-004  
  380.50  3.4625E-004  
  381.00  3.7414E-004  
  381.50  2.8901E-004  
  382.00  1.7543E-004  
  382.50  9.0875E-005  
  383.00  2.7543E-005  
  383.50  1.3525E-005  
  384.00  4.3631E-005  
  384.50  9.1080E-005  
  385.00  1.6172E-004  
  385.50  2.1187E-004  
  386.00  1.8141E-004  
  386.50  1.6839E-004  
  387.00  1.6591E-004  
  387.50  1.7470E-004  
  388.00  2.0299E-004  
  388.50  1.9958E-004  
  389.00  1.9240E-004  
  389.50  1.7661E-004  
  390.00  1.6171E-004  
  390.50  1.6689E-004  
  391.00  2.1871E-004  
  391.50  2.4359E-004  
  392.00  2.4198E-004  
  392.50  1.8038E-004  
  393.00  1.3147E-004  
  393.50  1.1538E-004  
  394.00  1.4462E-004  
  394.50  1.5521E-004  
  395.00  1.4091E-004  
  395.50  1.4600E-004  
  396.00  1.6633E-004  
  396.50  2.2265E-004  
  397.00  2.9033E-004  
  397.50  3.3485E-004  
  398.00  3.7269E-004  
  398.50  4.0795E-004  
  399.00  4.0178E-004  
  399.50  4.4936E-004  
  400.00  5.4033E-004  
  400.50  6.5299E-004  
  401.00  7.7226E-004  
  401.50  8.5135E-004  
  402.00  1.0710E-003  
  402.50  2.4892E-003  
  403.00  9.6315E-003  
  403.50  2.3389E-002  
  404.00  3.8739E-002  
  404.50  4.6122E-002  
  405.00  4.1629E-002  
  405.50  2.7419E-002  
  406.00  1.3942E-002  
  406.50  6.9097E-003  
  407.00  5.5287E-003  
  407.50  5.5485E-003  
  408.00  5.0608E-003  
  408.50  3.7303E-003  
  409.00  2.2595E-003  
  409.50  1.3821E-003  
  410.00  1.0054E-003  
  410.50  9.5733E-004  
  411.00  9.2755E-004  
  411.50  8.9651E-004  
  412.00  8.7092E-004  
  412.50  8.4318E-004  
  413.00  8.2514E-004  
  413.50  8.4715E-004  
  414.00  8.7695E-004  
  414.50  8.9984E-004  
  415.00  9.4062E-004  
  415.50  9.8618E-004  
  416.00  1.0362E-003  
  416.50  1.0780E-003  
  417.00  1.0898E-003  
  417.50  1.0426E-003  
  418.00  1.0206E-003  
  418.50  1.0116E-003  
  419.00  1.0173E-003  
  419.50  1.0869E-003  
  420.00  1.1676E-003  
  420.50  1.2526E-003  
  421.00  1.2908E-003  
  421.50  1.2787E-003  
  422.00  1.2776E-003  
  422.50  1.3158E-003  
  423.00  1.3531E-003  
  423.50  1.4027E-003  
  424.00  1.4344E-003  
  424.50  1.4568E-003  
  425.00  1.5151E-003  
  425.50  1.5707E-003  
  426.00  1.6372E-003  
  426.50  1.6666E-003  
  427.00  1.6752E-003  
  427.50  1.6726E-003  
  428.00  1.6862E-003  
  428.50  1.7329E-003  
  429.00  1.8179E-003  
  429.50  1.9335E-003  
  430.00  2.0131E-003  
  430.50  2.0932E-003  
  431.00  2.1664E-003  
  431.50  2.2406E-003  
  432.00  2.3741E-003  
  432.50  2.6238E-003  
  433.00  3.1405E-003  
  433.50  5.1984E-003  
  434.00  1.3759E-002  
  434.50  3.7332E-002  
  435.00  7.0148E-002  
  435.50  9.4785E-002  
  436.00  9.2871E-002  
  436.50  6.8622E-002  
  437.00  3.7267E-002  
  437.50  1.5840E-002  
  438.00  6.9668E-003  
  438.50  4.3754E-003  
  439.00  3.3496E-003  
  439.50  2.9863E-003  
  440.00  2.7777E-003  
  440.50  2.6562E-003  
  441.00  2.5657E-003  
  441.50  2.4761E-003  
  442.00  2.4586E-003  
  442.50  2.4363E-003  
  443.00  2.4088E-003  
  443.50  2.3715E-003  
  444.00  2.3404E-003  
  444.50  2.3631E-003  
  445.00  2.4001E-003  
  445.50  2.3924E-003  
  446.00  2.3453E-003  
  446.50  2.2850E-003  
  447.00  2.2263E-003  
  447.50  2.1760E-003  
  448.00  2.1697E-003  
  448.50  2.1574E-003  
  449.00  2.1654E-003  
  449.50  2.1837E-003  
  450.00  2.1797E-003  
  450.50  2.1624E-003  
  451.00  2.1335E-003  
  451.50  2.1262E-003  
  452.00  2.1355E-003  
  452.50  2.1154E-003  
  453.00  2.1138E-003  
  453.50  2.1051E-003  
  454.00  2.1203E-003  
  454.50  2.1154E-003  
  455.00  2.0845E-003  
  455.50  2.0752E-003  
  456.00  2.0590E-003  
  456.50  2.0364E-003  
  457.00  2.0259E-003  
  457.50  1.9895E-003  
  458.00  1.9508E-003  
  458.50  1.9268E-003  
  459.00  1.9044E-003  
  459.50  1.8921E-003  
  460.00  1.8913E-003  
  460.50  1.8400E-003  
  461.00  1.8237E-003  
  461.50  1.8108E-003  
  462.00  1.8153E-003  
  462.50  1.7969E-003  
  463.00  1.7584E-003  
  463.50  1.7166E-003  
  464.00  1.6844E-003  
  464.50  1.6849E-003  
  465.00  1.7145E-003  
  465.50  1.7129E-003  
  466.00  1.7181E-003  
  466.50  1.7381E-003  
  467.00  1.7676E-003  
  467.50  1.7956E-003  
  468.00  1.7573E-003  
  468.50  1.6561E-003  
  469.00  1.5626E-003  
  469.50  1.5180E-003  
  470.00  1.4572E-003  
  470.50  1.4794E-003  
  471.00  1.4897E-003  
  471.50  1.5230E-003  
  472.00  1.5552E-003  
  472.50  1.5733E-003  
  473.00  1.6039E-003  
  473.50  1.6140E-003  
  474.00  1.5897E-003  
  474.50  1.5546E-003  
  475.00  1.5407E-003  
  475.50  1.5306E-003  
  476.00  1.5324E-003  
  476.50  1.5049E-003  
  477.00  1.5204E-003  
  477.50  1.5641E-003  
  478.00  1.6430E-003  
  478.50  1.7578E-003  
  479.00  1.8937E-003  
  479.50  2.0543E-003  
  480.00  2.3058E-003  
  480.50  2.6315E-003  
  481.00  3.0959E-003  
  481.50  3.6956E-003  
  482.00  4.5008E-003  
  482.50  5.5017E-003  
  483.00  6.6505E-003  
  483.50  7.9994E-003  
  484.00  9.4128E-003  
  484.50  1.0901E-002  
  485.00  1.2424E-002  
  485.50  1.3840E-002  
  486.00  1.4989E-002  
  486.50  1.5659E-002  
  487.00  1.5797E-002  
  487.50  1.5441E-002  
  488.00  1.4790E-002  
  488.50  1.3954E-002  
  489.00  1.3102E-002  
  489.50  1.2286E-002  
  490.00  1.1627E-002  
  490.50  1.1184E-002  
  491.00  1.0896E-002  
  491.50  1.0560E-002  
  492.00  1.0084E-002  
  492.50  9.4795E-003  
  493.00  8.9152E-003  
  493.50  8.3933E-003  
  494.00  7.8882E-003  
  494.50  7.4036E-003  
  495.00  6.9777E-003  
  495.50  6.6000E-003  
  496.00  6.2443E-003  
  496.50  5.9346E-003  
  497.00  5.6040E-003  
  497.50  5.2633E-003  
  498.00  4.9180E-003  
  498.50  4.5605E-003  
  499.00  4.2447E-003  
  499.50  3.9253E-003  
  500.00  3.6104E-003  
  500.50  3.2987E-003  
  501.00  3.0004E-003  
  501.50  2.7365E-003  
  502.00  2.5078E-003  
  502.50  2.3278E-003  
  503.00  2.1648E-003  
  503.50  2.0132E-003  
  504.00  1.9174E-003  
  504.50  1.8380E-003  
  505.00  1.7568E-003  
  505.50  1.6686E-003  
  506.00  1.5866E-003  
  506.50  1.5271E-003  
  507.00  1.5161E-003  
  507.50  1.5009E-003  
  508.00  1.5072E-003  
  508.50  1.5256E-003  
  509.00  1.5324E-003  
  509.50  1.5142E-003  
  510.00  1.4668E-003  
  510.50  1.4192E-003  
  511.00  1.3943E-003  
  511.50  1.4019E-003  
  512.00  1.4313E-003  
  512.50  1.4668E-003  
  513.00  1.4786E-003  
  513.50  1.4594E-003  
  514.00  1.4254E-003  
  514.50  1.4008E-003  
  515.00  1.3772E-003  
  515.50  1.3685E-003  
  516.00  1.3601E-003  
  516.50  1.3524E-003  
  517.00  1.3146E-003  
  517.50  1.2673E-003  
  518.00  1.2311E-003  
  518.50  1.2265E-003  
  519.00  1.2609E-003  
  519.50  1.2902E-003  
  520.00  1.2877E-003  
  520.50  1.2751E-003  
  521.00  1.2704E-003  
  521.50  1.2444E-003  
  522.00  1.2159E-003  
  522.50  1.1864E-003  
  523.00  1.2091E-003  
  523.50  1.2566E-003  
  524.00  1.2931E-003  
  524.50  1.2726E-003  
  525.00  1.2892E-003  
  525.50  1.3128E-003  
  526.00  1.3578E-003  
  526.50  1.4010E-003  
  527.00  1.4354E-003  
  527.50  1.4978E-003  
  528.00  1.5452E-003  
  528.50  1.5479E-003  
  529.00  1.5599E-003  
  529.50  1.5693E-003  
  530.00  1.6152E-003  
  530.50  1.7010E-003  
  531.00  1.8442E-003  
  531.50  2.1926E-003  
  532.00  2.7720E-003  
  532.50  3.5741E-003  
  533.00  4.2767E-003  
  533.50  4.5848E-003  
  534.00  4.5253E-003  
  534.50  4.3641E-003  
  535.00  4.4693E-003  
  535.50  5.0517E-003  
  536.00  6.1761E-003  
  536.50  7.9138E-003  
  537.00  1.0125E-002  
  537.50  1.2544E-002  
  538.00  1.5100E-002  
  538.50  1.8223E-002  
  539.00  2.3143E-002  
  539.50  3.1023E-002  
  540.00  4.3181E-002  
  540.50  5.9212E-002  
  541.00  7.5511E-002  
  541.50  8.7004E-002  
  542.00  8.9796E-002  
  542.50  8.6317E-002  
  543.00  8.1494E-002  
  543.50  7.8774E-002  
  544.00  8.2130E-002  
  544.50  9.4223E-002  
  545.00  1.1347E-001  
  545.50  1.3247E-001  
  546.00  1.3803E-001  
  546.50  1.2610E-001  
  547.00  1.0167E-001  
  547.50  7.6003E-002  
  548.00  5.8490E-002  
  548.50  4.8602E-002  
  549.00  4.2390E-002  
  549.50  3.7278E-002  
  550.00  3.2712E-002  
  550.50  2.8538E-002  
  551.00  2.4767E-002  
  551.50  2.1496E-002  
  552.00  1.8749E-002  
  552.50  1.6445E-002  
  553.00  1.4441E-002  
  553.50  1.2615E-002  
  554.00  1.0875E-002  
  554.50  9.2283E-003  
  555.00  7.7968E-003  
  555.50  6.7093E-003  
  556.00  5.9068E-003  
  556.50  5.3120E-003  
  557.00  4.7989E-003  
  557.50  4.3718E-003  
  558.00  4.0007E-003  
  558.50  3.6707E-003  
  559.00  3.3986E-003  
  559.50  3.1795E-003  
  560.00  3.0603E-003  
  560.50  2.9670E-003  
  561.00  2.9113E-003  
  561.50  2.8630E-003  
  562.00  2.8544E-003  
  562.50  2.7913E-003  
  563.00  2.6845E-003  
  563.50  2.5336E-003  
  564.00  2.4191E-003  
  564.50  2.3249E-003  
  565.00  2.2355E-003  
  565.50  2.1479E-003  
  566.00  2.0880E-003  
  566.50  2.0503E-003  
  567.00  2.0456E-003  
  567.50  2.0367E-003  
  568.00  2.0607E-003  
  568.50  2.0397E-003  
  569.00  2.0117E-003  
  569.50  1.9147E-003  
  570.00  1.7924E-003  
  570.50  1.6535E-003  
  571.00  1.5380E-003  
  571.50  1.4795E-003  
  572.00  1.4957E-003  
  572.50  1.5147E-003  
  573.00  1.5541E-003  
  573.50  1.6232E-003  
  574.00  1.7448E-003  
  574.50  2.0482E-003  
  575.00  3.2837E-003  
  575.50  7.0880E-003  
  576.00  1.3866E-002  
  576.50  2.0597E-002  
  577.00  2.3599E-002  
  577.50  2.2538E-002  
  578.00  2.1937E-002  
  578.50  2.4513E-002  
  579.00  2.7339E-002  
  579.50  2.7024E-002  
  580.00  2.3743E-002  
  580.50  1.9988E-002  
  581.00  1.7695E-002  
  581.50  1.7106E-002  
  582.00  1.8075E-002  
  582.50  1.9589E-002  
  583.00  2.0758E-002  
  583.50  2.1164E-002  
  584.00  2.0939E-002  
  584.50  2.0305E-002  
  585.00  1.9748E-002  
  585.50  2.0531E-002  
  586.00  2.3836E-002  
  586.50  2.9619E-002  
  587.00  3.4417E-002  
  587.50  3.4528E-002  
  588.00  2.9420E-002  
  588.50  2.2314E-002  
  589.00  1.7010E-002  
  589.50  1.4304E-002  
  590.00  1.3863E-002  
  590.50  1.4670E-002  
  591.00  1.6652E-002  
  591.50  2.0092E-002  
  592.00  2.4823E-002  
  592.50  2.9456E-002  
  593.00  3.1746E-002  
  593.50  2.9760E-002  
  594.00  2.4745E-002  
  594.50  1.9079E-002  
  595.00  1.4989E-002  
  595.50  1.2730E-002  
  596.00  1.1960E-002  
  596.50  1.1900E-002  
  597.00  1.2394E-002  
  597.50  1.3659E-002  
  598.00  1.5880E-002  
  598.50  1.8767E-002  
  599.00  2.1301E-002  
  599.50  2.2046E-002  
  600.00  2.0741E-002  
  600.50  1.7862E-002  
  601.00  1.4620E-002  
  601.50  1.1911E-002  
  602.00  1.0149E-002  
  602.50  9.0801E-003  
  603.00  8.6568E-003  
  603.50  8.6834E-003  
  604.00  9.0845E-003  
  604.50  9.6154E-003  
  605.00  1.0190E-002  
  605.50  1.0938E-002  
  606.00  1.2062E-002  
  606.50  1.3716E-002  
  607.00  1.6115E-002  
  607.50  1.9565E-002  
  608.00  2.4917E-002  
  608.50  3.3764E-002  
  609.00  4.9619E-002  
  609.50  8.2349E-002  
  610.00  1.2790E-001  
  610.50  1.7066E-001  
  611.00  1.9668E-001  
  611.50  2.0289E-001  
  612.00  1.9298E-001  
  612.50  1.7227E-001  
  613.00  1.4491E-001  
  613.50  1.2149E-001  
  614.00  1.0562E-001  
  614.50  9.2927E-002  
  615.00  7.9440E-002  
  615.50  6.4522E-002  
  616.00  5.0385E-002  
  616.50  3.8811E-002  
  617.00  3.0813E-002  
  617.50  2.5348E-002  
  618.00  2.1768E-002  
  618.50  1.9462E-002  
  619.00  1.8043E-002  
  619.50  1.7544E-002  
  620.00  1.7632E-002  
  620.50  1.7993E-002  
  621.00  1.8366E-002  
  621.50  1.8648E-002  
  622.00  1.9064E-002  
  622.50  1.9734E-002  
  623.00  2.0583E-002  
  623.50  2.1422E-002  
  624.00  2.2088E-002  
  624.50  2.2591E-002  
  625.00  2.2982E-002  
  625.50  2.3268E-002  
  626.00  2.3422E-002  
  626.50  2.3317E-002  
  627.00  2.2969E-002  
  627.50  2.2549E-002  
  628.00  2.2320E-002  
  628.50  2.2619E-002  
  629.00  2.4198E-002  
  629.50  2.7821E-002  
  630.00  3.3892E-002  
  630.50  3.9446E-002  
  631.00  4.0945E-002  
  631.50  3.5919E-002  
  632.00  2.6972E-002  
  632.50  1.7993E-002  
  633.00  1.1835E-002  
  633.50  8.4549E-003  
  634.00  6.9357E-003  
  634.50  6.0906E-003  
  635.00  5.5558E-003  
  635.50  5.1718E-003  
  636.00  4.8702E-003  
  636.50  4.5888E-003  
  637.00  4.2952E-003  
  637.50  3.9807E-003  
  638.00  3.7501E-003  
  638.50  3.5810E-003  
  639.00  3.4513E-003  
  639.50  3.3620E-003  
  640.00  3.2481E-003  
  640.50  3.2061E-003  
  641.00  3.1994E-003  
  641.50  3.2321E-003  
  642.00  3.3026E-003  
  642.50  3.3378E-003  
  643.00  3.4060E-003  
  643.50  3.4559E-003  
  644.00  3.4896E-003  
  644.50  3.4528E-003  
  645.00  3.3777E-003  
  645.50  3.2812E-003  
  646.00  3.2338E-003  
  646.50  3.2010E-003  
  647.00  3.2153E-003  
  647.50  3.2493E-003  
  648.00  3.3804E-003  
  648.50  3.8590E-003  
  649.00  5.0615E-003  
  649.50  7.2600E-003  
  650.00  9.6678E-003  
  650.50  1.1019E-002  
  651.00  1.0447E-002  
  651.50  8.6684E-003  
  652.00  6.9585E-003  
  652.50  6.0791E-003  
  653.00  5.7198E-003  
  653.50  5.3373E-003  
  654.00  4.6896E-003  
  654.50  3.9426E-003  
  655.00  3.3983E-003  
  655.50  3.1424E-003  
  656.00  3.1125E-003  
  656.50  3.2173E-003  
  657.00  3.4236E-003  
  657.50  3.6410E-003  
  658.00  3.6433E-003  
  658.50  3.3219E-003  
  659.00  2.8432E-003  
  659.50  2.4772E-003  
  660.00  2.2981E-003  
  660.50  2.4282E-003  
  661.00  3.0909E-003  
  661.50  4.4733E-003  
  662.00  5.9640E-003  
  662.50  6.7562E-003  
  663.00  6.3590E-003  
  663.50  5.2379E-003  
  664.00  3.9458E-003  
  664.50  2.9330E-003  
  665.00  2.3611E-003  
  665.50  2.1699E-003  
  666.00  2.1995E-003  
  666.50  2.2428E-003  
  667.00  2.2224E-003  
  667.50  2.1477E-003  
  668.00  2.0788E-003  
  668.50  2.0002E-003  
  669.00  1.9339E-003  
  669.50  1.8642E-003  
  670.00  1.8271E-003  
  670.50  1.8143E-003  
  671.00  1.7767E-003  
  671.50  1.7835E-003  
  672.00  1.7764E-003  
  672.50  1.7004E-003  
  673.00  1.5935E-003  
  673.50  1.4600E-003  
  674.00  1.3974E-003  
  674.50  1.3202E-003  
  675.00  1.2874E-003  
  675.50  1.2869E-003  
  676.00  1.2614E-003  
  676.50  1.2110E-003  
  677.00  1.2023E-003  
  677.50  1.2390E-003  
  678.00  1.2678E-003  
  678.50  1.2405E-003  
  679.00  1.2407E-003  
  679.50  1.2966E-003  
  680.00  1.4218E-003  
  680.50  1.5362E-003  
  681.00  1.6042E-003  
  681.50  1.5883E-003  
  682.00  1.5325E-003  
  682.50  1.4873E-003  
  683.00  1.4432E-003  
  683.50  1.4156E-003  
  684.00  1.4069E-003  
  684.50  1.5176E-003  
  685.00  1.7224E-003  
  685.50  2.0963E-003  
  686.00  2.7525E-003  
  686.50  3.8271E-003  
  687.00  5.1682E-003  
  687.50  6.1821E-003  
  688.00  6.3392E-003  
  688.50  5.5242E-003  
  689.00  4.1076E-003  
  689.50  2.8190E-003  
  690.00  2.0258E-003  
  690.50  1.6865E-003  
  691.00  1.5057E-003  
  691.50  1.3551E-003  
  692.00  1.5014E-003  
  692.50  2.1850E-003  
  693.00  3.2567E-003  
  693.50  4.1789E-003  
  694.00  4.2415E-003  
  694.50  3.4121E-003  
  695.00  2.3047E-003  
  695.50  1.4568E-003  
  696.00  9.8470E-004  
  696.50  7.0654E-004  
  697.00  5.0862E-004  
  697.50  4.0750E-004  
  698.00  4.0656E-004  
  698.50  4.6414E-004  
  699.00  5.0402E-004  
  699.50  5.5757E-004  
  700.00  6.0685E-004  
  700.50  6.8046E-004  
  701.00  6.7097E-004  
  701.50  7.3362E-004  
  702.00  8.6457E-004  
  702.50  1.1122E-003  
  703.00  1.4344E-003  
  703.50  1.9236E-003  
  704.00  2.5739E-003  
  704.50  3.4255E-003  
  705.00  4.8092E-003  
  705.50  7.1022E-003  
  706.00  1.0336E-002  
  706.50  1.3528E-002  
  707.00  1.5522E-002  
  707.50  1.5911E-002  
  708.00  1.6081E-002  
  708.50  1.6890E-002  
  709.00  1.7276E-002  
  709.50  1.5367E-002  
  710.00  1.1539E-002  
  710.50  8.3647E-003  
  711.00  8.1225E-003  
  711.50  1.0667E-002  
  712.00  1.3381E-002  
  712.50  1.4021E-002  
  713.00  1.1773E-002  
  713.50  7.8666E-003  
  714.00  4.3209E-003  
  714.50  2.0751E-003  
  715.00  9.5462E-004  
  715.50  3.9651E-004  
  716.00  9.4921E-005  
  716.50  6.5436E-005  
  717.00  1.0702E-004  
  717.50  1.8053E-004  
  718.00  3.0620E-004  
  718.50  3.8657E-004  
  719.00  3.6547E-004  
  719.50  3.0245E-004  
  720.00  2.4151E-004  
  720.50  1.9592E-004  
  721.00  1.2468E-004  
  721.50  4.0226E-005  
  722.00  8.6540E-006  
  722.50  0.0000E+000  
  723.00  0.0000E+000  
  723.50  0.0000E+000  
  724.00  0.0000E+000  
  724.50  0.0000E+000  
  725.00  3.5048E-005  
  725.50  4.7381E-005  
  726.00  8.9602E-005  
  726.50  1.1612E-006  
  727.00  0.0000E+000  
  727.50  0.0000E+000  
  728.00  1.8521E-005  
  728.50  0.0000E+000  
  729.00  0.0000E+000  
  729.50  3.2106E-005  
  730.00  1.9183E-004  
  730.50  2.3724E-004  
  731.00  1.3821E-004  
  731.50  9.4625E-006  
  732.00  0.0000E+000  
  732.50  0.0000E+000  
  733.00  0.0000E+000  
  733.50  0.0000E+000  
  734.00  0.0000E+000  
  734.50  0.0000E+000  
  735.00  0.0000E+000  
  735.50  0.0000E+000  
  736.00  0.0000E+000  
  736.50  0.0000E+000  
  737.00  0.0000E+000  
  737.50  0.0000E+000  
  738.00  4.2327E-005  
  738.50  1.0152E-004  
  739.00  1.4371E-005  
  739.50  0.0000E+000  
  740.00  0.0000E+000  
  740.50  0.0000E+000  
  741.00  0.0000E+000  
  741.50  6.3878E-005  
  742.00  2.5496E-004  
  742.50  4.1799E-004  
  743.00  3.5163E-004  
  743.50  1.7819E-004  
  744.00  7.4471E-006  
  744.50  0.0000E+000  
  745.00  0.0000E+000  
  745.50  0.0000E+000  
  746.00  0.0000E+000  
  746.50  0.0000E+000  
  747.00  0.0000E+000  
  747.50  0.0000E+000  
  748.00  0.0000E+000  
  748.50  0.0000E+000  
  749.00  0.0000E+000  
  749.50  0.0000E+000  
  750.00  1.8934E-005  
  750.50  0.0000E+000  
  751.00  0.0000E+000  
  751.50  0.0000E+000  
  752.00  0.0000E+000  
  752.50  0.0000E+000  
  753.00  0.0000E+000  
  753.50  0.0000E+000  
  754.00  0.0000E+000  
  754.50  0.0000E+000  
  755.00  0.0000E+000  
  755.50  0.0000E+000  
  756.00  0.0000E+000  
  756.50  0.0000E+000  
  757.00  0.0000E+000  
  757.50  0.0000E+000  
  758.00  0.0000E+000  
  758.50  0.0000E+000  
  759.00  0.0000E+000  
  759.50  0.0000E+000  
  760.00  0.0000E+000  
  760.50  0.0000E+000  
  761.00  0.0000E+000  
  761.50  0.0000E+000  
  762.00  0.0000E+000  
  762.50  1.5291E-005  
  763.00  2.5012E-004  
  763.50  4.0907E-004  
  764.00  3.4299E-004  
  764.50  6.6372E-006  
  765.00  0.0000E+000  
  765.50  0.0000E+000  
  766.00  0.0000E+000  
  766.50  0.0000E+000  
  767.00  0.0000E+000  
  767.50  0.0000E+000  
  768.00  0.0000E+000  
  768.50  0.0000E+000  
  769.00  0.0000E+000  
  769.50  0.0000E+000  
  770.00  0.0000E+000  
  770.50  0.0000E+000  
  771.00  0.0000E+000  
  771.50  0.0000E+000  
  772.00  0.0000E+000  
  772.50  0.0000E+000  
  773.00  0.0000E+000  
  773.50  0.0000E+000  
  774.00  0.0000E+000  
  774.50  0.0000E+000  
  775.00  0.0000E+000  
  775.50  0.0000E+000  
  776.00  0.0000E+000  
  776.50  0.0000E+000  
  777.00  0.0000E+000  
  777.50  0.0000E+000  
  778.00  0.0000E+000  
  778.50  0.0000E+000  
  779.00  0.0000E+000  
  779.50  0.0000E+000  
  780.00  0.0000E+000  
  780.50  0.0000E+000  
  781.00  0.0000E+000  
  781.50  0.0000E+000  
  782.00  0.0000E+000  
  782.50  0.0000E+000  
  783.00  0.0000E+000  
  783.50  0.0000E+000  
  784.00  0.0000E+000  
  784.50  0.0000E+000  
  785.00  0.0000E+000  
  785.50  0.0000E+000  
  786.00  0.0000E+000  
  786.50  0.0000E+000  
  787.00  0.0000E+000  
  787.50  0.0000E+000  
  788.00  0.0000E+000  
  788.50  0.0000E+000  
  789.00  0.0000E+000  
  789.50  0.0000E+000  
  790.00  0.0000E+000  
  790.50  0.0000E+000  
  791.00  0.0000E+000  
  791.50  0.0000E+000  
  792.00  0.0000E+000  
  792.50  0.0000E+000  
  793.00  0.0000E+000  
  793.50  0.0000E+000  
  794.00  0.0000E+000  
  794.50  0.0000E+000  
  795.00  0.0000E+000  
  795.50  0.0000E+000  
  796.00  0.0000E+000  
  796.50  0.0000E+000  
  797.00  0.0000E+000  
  797.50  0.0000E+000  
  798.00  0.0000E+000  
  798.50  0.0000E+000  
  799.00  0.0000E+000  
  799.50  0.0000E+000  
  800.00  0.0000E+000  
  800.50  0.0000E+000  
  801.00  0.0000E+000  
  801.50  0.0000E+000  
  802.00  0.0000E+000  
  802.50  0.0000E+000  
  803.00  0.0000E+000  
  803.50  0.0000E+000  
  804.00  0.0000E+000  
  804.50  0.0000E+000  
  805.00  0.0000E+000  
  805.50  0.0000E+000  
  806.00  0.0000E+000  
  806.50  0.0000E+000  
  807.00  0.0000E+000  
  807.50  0.0000E+000  
  808.00  0.0000E+000  
  808.50  4.0447E-005  
  809.00  4.9886E-004  
  809.50  6.3974E-004  
  810.00  3.3197E-004  
  810.50  1.4995E-004  
  811.00  2.7888E-004  
  811.50  4.1725E-004  
  812.00  2.5294E-004  
  812.50  0.0000E+000  
  813.00  0.0000E+000  
  813.50  0.0000E+000  
  814.00  0.0000E+000  
  814.50  0.0000E+000  
  815.00  0.0000E+000  
  815.50  0.0000E+000  
  816.00  0.0000E+000  
  816.50  0.0000E+000  
  817.00  0.0000E+000  
  817.50  0.0000E+000  
  818.00  0.0000E+000  
  818.50  0.0000E+000  
  819.00  0.0000E+000  
  819.50  0.0000E+000  
  820.00  0.0000E+000  
  820.50  0.0000E+000  
  821.00  0.0000E+000  
  821.50  0.0000E+000  
  822.00  0.0000E+000  
  822.50  0.0000E+000  
  823.00  0.0000E+000  
  823.50  0.0000E+000  
  824.00  0.0000E+000  
  824.50  0.0000E+000  
  825.00  0.0000E+000  
  825.50  0.0000E+000  
  826.00  0.0000E+000  
  826.50  0.0000E+000  
  827.00  0.0000E+000  
  827.50  0.0000E+000  
  828.00  0.0000E+000  
  828.50  0.0000E+000  
  829.00  0.0000E+000  
  829.50  0.0000E+000  
  830.00  0.0000E+000  
  830.50  0.0000E+000  
  831.00  0.0000E+000  
  831.50  0.0000E+000  
  832.00  0.0000E+000  
  832.50  0.0000E+000  
  833.00  0.0000E+000  
  833.50  0.0000E+000  
  834.00  0.0000E+000  
  834.50  0.0000E+000  
  835.00  0.0000E+000  
  835.50  0.0000E+000  
  836.00  0.0000E+000  
  836.50  0.0000E+000  
  837.00  0.0000E+000  
  837.50  0.0000E+000  
  838.00  0.0000E+000  
  838.50  0.0000E+000  
  839.00  0.0000E+000  
  839.50  0.0000E+000  
  840.00  0.0000E+000  
  840.50  0.0000E+000  
  841.00  0.0000E+000  
  841.50  0.0000E+000  
  842.00  0.0000E+000  
  842.50  0.0000E+000  
  843.00  0.0000E+000  
  843.50  0.0000E+000  
  844.00  0.0000E+000  
  844.50  0.0000E+000  
  845.00  0.0000E+000  
  845.50  0.0000E+000  
  846.00  0.0000E+000  
  846.50  0.0000E+000  
  847.00  0.0000E+000  
  847.50  0.0000E+000  
  848.00  0.0000E+000  
  848.50  0.0000E+000  
  849.00  0.0000E+000  
  849.50  0.0000E+000  
  850.00  0.0000E+000  
  850.50  0.0000E+000  
  851.00  0.0000E+000  
  851.50  0.0000E+000  
  852.00  0.0000E+000  
  852.50  0.0000E+000  
  853.00  0.0000E+000  
  853.50  0.0000E+000  
  854.00  0.0000E+000  
  854.50  0.0000E+000  
  855.00  0.0000E+000  
  855.50  0.0000E+000  
  856.00  0.0000E+000  
  856.50  0.0000E+000  
  857.00  0.0000E+000  
  857.50  0.0000E+000  
  858.00  0.0000E+000  
  858.50  0.0000E+000  
  859.00  0.0000E+000  
  859.50  0.0000E+000  
  860.00  0.0000E+000  
  860.50  0.0000E+000  
  861.00  0.0000E+000  
  861.50  0.0000E+000  
  862.00  0.0000E+000  
  862.50  0.0000E+000  
  863.00  0.0000E+000  
  863.50  0.0000E+000  
  864.00  0.0000E+000  
  864.50  0.0000E+000  
  865.00  0.0000E+000  
  865.50  0.0000E+000  
  866.00  0.0000E+000  
  866.50  0.0000E+000  
  867.00  0.0000E+000  
  867.50  0.0000E+000  
  868.00  0.0000E+000  
  868.50  0.0000E+000  
  869.00  0.0000E+000  
  869.50  0.0000E+000  
  870.00  0.0000E+000  
  870.50  6.6628E-004  
  871.00  9.7893E-004  
  871.50  1.3983E-004  
  872.00  0.0000E+000  
  872.50  0.0000E+000  
  873.00  0.0000E+000  
  873.50  0.0000E+000  
  874.00  0.0000E+000  
  874.50  0.0000E+000  
  875.00  0.0000E+000  
  875.50  0.0000E+000  
  876.00  0.0000E+000  
  876.50  0.0000E+000  
  877.00  0.0000E+000  
  877.50  0.0000E+000  
  878.00  0.0000E+000  
  878.50  0.0000E+000  
  879.00  0.0000E+000  
  879.50  0.0000E+000  
  880.00  0.0000E+000  
  880.50  0.0000E+000  
  881.00  0.0000E+000  
  881.50  0.0000E+000  
  882.00  0.0000E+000  
  882.50  0.0000E+000  
  883.00  0.0000E+000  
  883.50  0.0000E+000  
  884.00  0.0000E+000  
  884.50  0.0000E+000  
  885.00  0.0000E+000  
  885.50  0.0000E+000  
  886.00  0.0000E+000  
  886.50  0.0000E+000  
  887.00  0.0000E+000  
  887.50  0.0000E+000  
  888.00  0.0000E+000  
  888.50  0.0000E+000  
  889.00  0.0000E+000  
  889.50  0.0000E+000  
  890.00  0.0000E+000  
  890.50  0.0000E+000  
  891.00  0.0000E+000  
  891.50  0.0000E+000  
  892.00  0.0000E+000  
  892.50  0.0000E+000  
  893.00  0.0000E+000  
  893.50  0.0000E+000  
  894.00  0.0000E+000  
  894.50  0.0000E+000  
  895.00  0.0000E+000  
  895.50  0.0000E+000  
  896.00  0.0000E+000  
  896.50  0.0000E+000  
  897.00  0.0000E+000  
  897.50  0.0000E+000  
  898.00  0.0000E+000  
  898.50  0.0000E+000  
  899.00  0.0000E+000  
  899.50  0.0000E+000  
