
# From lspdd.org
# 
# Name: DEL EnergySmart PAR30 Domestique
# Indice spectral Valeur 
# MSI 0.29 
# SLI 0.49 
# IPI 0.65 
# Pourcentage de bleu 18.6 
# Caractéristique Valeur 
# CCT calculée (K) 2911 
# CCT du fabricant (K) 3000 
# Tension (V) 120 
# Puissance (W) 10.0 
# Efficacité lumineuse (Lum/W) 50.0 
#
# Image: '/app/system/img_2s/2568/medium_image2.JPG?1413486370'
# Image: '/app/system/img_1s/2568/medium_image1.JPG?1413486374'
# 

  273.00  0.0000E+000  
  273.50  0.0000E+000  
  274.00  0.0000E+000  
  274.50  0.0000E+000  
  275.00  0.0000E+000  
  275.50  0.0000E+000  
  276.00  0.0000E+000  
  276.50  0.0000E+000  
  277.00  0.0000E+000  
  277.50  0.0000E+000  
  278.00  0.0000E+000  
  278.50  0.0000E+000  
  279.00  0.0000E+000  
  279.50  0.0000E+000  
  280.00  0.0000E+000  
  280.50  0.0000E+000  
  281.00  0.0000E+000  
  281.50  0.0000E+000  
  282.00  0.0000E+000  
  282.50  0.0000E+000  
  283.00  0.0000E+000  
  283.50  0.0000E+000  
  284.00  0.0000E+000  
  284.50  0.0000E+000  
  285.00  0.0000E+000  
  285.50  0.0000E+000  
  286.00  0.0000E+000  
  286.50  0.0000E+000  
  287.00  0.0000E+000  
  287.50  0.0000E+000  
  288.00  0.0000E+000  
  288.50  0.0000E+000  
  289.00  0.0000E+000  
  289.50  0.0000E+000  
  290.00  0.0000E+000  
  290.50  0.0000E+000  
  291.00  0.0000E+000  
  291.50  0.0000E+000  
  292.00  0.0000E+000  
  292.50  0.0000E+000  
  293.00  0.0000E+000  
  293.50  0.0000E+000  
  294.00  0.0000E+000  
  294.50  0.0000E+000  
  295.00  0.0000E+000  
  295.50  0.0000E+000  
  296.00  0.0000E+000  
  296.50  0.0000E+000  
  297.00  0.0000E+000  
  297.50  0.0000E+000  
  298.00  0.0000E+000  
  298.50  0.0000E+000  
  299.00  0.0000E+000  
  299.50  0.0000E+000  
  300.00  2.2968E-005  
  300.50  5.3558E-005  
  301.00  4.0092E-005  
  301.50  0.0000E+000  
  302.00  0.0000E+000  
  302.50  0.0000E+000  
  303.00  0.0000E+000  
  303.50  1.4106E-005  
  304.00  4.4319E-005  
  304.50  4.8054E-005  
  305.00  2.3282E-005  
  305.50  6.6834E-006  
  306.00  1.3801E-007  
  306.50  2.2757E-005  
  307.00  2.9945E-005  
  307.50  4.2372E-005  
  308.00  3.5579E-005  
  308.50  1.2383E-005  
  309.00  6.3009E-006  
  309.50  0.0000E+000  
  310.00  0.0000E+000  
  310.50  2.0656E-005  
  311.00  1.0569E-004  
  311.50  1.1701E-004  
  312.00  1.2143E-004  
  312.50  7.9135E-005  
  313.00  1.4450E-005  
  313.50  2.1110E-005  
  314.00  1.4115E-006  
  314.50  2.2089E-006  
  315.00  2.2900E-005  
  315.50  1.6458E-005  
  316.00  4.0312E-005  
  316.50  5.5078E-005  
  317.00  5.4146E-005  
  317.50  9.9587E-005  
  318.00  6.7649E-005  
  318.50  9.7714E-006  
  319.00  0.0000E+000  
  319.50  0.0000E+000  
  320.00  0.0000E+000  
  320.50  3.2332E-008  
  321.00  1.0189E-005  
  321.50  5.0544E-005  
  322.00  9.7928E-005  
  322.50  1.1847E-004  
  323.00  1.3160E-004  
  323.50  1.2672E-004  
  324.00  1.0039E-004  
  324.50  5.6472E-005  
  325.00  3.5144E-006  
  325.50  0.0000E+000  
  326.00  0.0000E+000  
  326.50  0.0000E+000  
  327.00  1.3040E-005  
  327.50  1.0500E-005  
  328.00  5.6368E-007  
  328.50  0.0000E+000  
  329.00  0.0000E+000  
  329.50  0.0000E+000  
  330.00  0.0000E+000  
  330.50  0.0000E+000  
  331.00  0.0000E+000  
  331.50  4.0490E-005  
  332.00  8.5157E-005  
  332.50  9.8959E-005  
  333.00  8.4398E-005  
  333.50  7.7173E-005  
  334.00  7.5609E-005  
  334.50  7.5202E-005  
  335.00  2.6168E-005  
  335.50  0.0000E+000  
  336.00  0.0000E+000  
  336.50  1.2772E-005  
  337.00  6.7842E-005  
  337.50  1.2803E-004  
  338.00  1.0695E-004  
  338.50  9.0476E-005  
  339.00  8.9899E-005  
  339.50  1.1546E-004  
  340.00  1.2833E-004  
  340.50  1.0430E-004  
  341.00  6.7743E-005  
  341.50  7.3560E-005  
  342.00  8.3441E-005  
  342.50  8.0204E-005  
  343.00  3.4646E-005  
  343.50  7.5283E-007  
  344.00  0.0000E+000  
  344.50  0.0000E+000  
  345.00  3.5561E-005  
  345.50  7.9739E-005  
  346.00  1.3248E-004  
  346.50  1.5321E-004  
  347.00  8.5057E-005  
  347.50  2.6540E-005  
  348.00  3.7200E-007  
  348.50  7.1311E-006  
  349.00  4.7597E-005  
  349.50  8.2937E-005  
  350.00  7.9965E-005  
  350.50  7.6943E-005  
  351.00  6.1060E-005  
  351.50  2.0193E-005  
  352.00  0.0000E+000  
  352.50  0.0000E+000  
  353.00  0.0000E+000  
  353.50  0.0000E+000  
  354.00  0.0000E+000  
  354.50  0.0000E+000  
  355.00  0.0000E+000  
  355.50  0.0000E+000  
  356.00  0.0000E+000  
  356.50  0.0000E+000  
  357.00  2.1079E-005  
  357.50  7.2901E-005  
  358.00  1.2917E-004  
  358.50  1.5349E-004  
  359.00  1.1892E-004  
  359.50  1.0058E-004  
  360.00  8.6440E-005  
  360.50  8.3022E-005  
  361.00  1.0463E-004  
  361.50  1.0375E-004  
  362.00  1.0704E-004  
  362.50  9.2974E-005  
  363.00  8.0390E-005  
  363.50  1.2389E-004  
  364.00  1.2903E-004  
  364.50  1.2647E-004  
  365.00  5.3758E-005  
  365.50  3.1314E-008  
  366.00  0.0000E+000  
  366.50  0.0000E+000  
  367.00  0.0000E+000  
  367.50  0.0000E+000  
  368.00  0.0000E+000  
  368.50  4.5022E-005  
  369.00  7.5170E-005  
  369.50  1.0493E-004  
  370.00  1.2263E-004  
  370.50  1.3514E-004  
  371.00  1.2761E-004  
  371.50  1.4915E-004  
  372.00  1.2497E-004  
  372.50  9.7881E-005  
  373.00  8.8657E-005  
  373.50  5.3351E-005  
  374.00  6.7056E-005  
  374.50  9.1586E-005  
  375.00  1.0378E-004  
  375.50  1.2614E-004  
  376.00  1.0325E-004  
  376.50  3.7948E-005  
  377.00  1.3730E-005  
  377.50  3.2747E-006  
  378.00  2.6025E-005  
  378.50  5.0736E-005  
  379.00  1.4475E-005  
  379.50  2.7707E-007  
  380.00  1.2484E-005  
  380.50  7.6787E-005  
  381.00  1.4099E-004  
  381.50  1.1995E-004  
  382.00  7.4257E-005  
  382.50  5.7026E-005  
  383.00  5.6103E-005  
  383.50  9.4192E-005  
  384.00  1.1433E-004  
  384.50  1.2173E-004  
  385.00  1.3143E-004  
  385.50  1.7126E-004  
  386.00  1.7331E-004  
  386.50  1.6394E-004  
  387.00  1.7173E-004  
  387.50  2.0827E-004  
  388.00  2.5650E-004  
  388.50  3.0596E-004  
  389.00  2.7185E-004  
  389.50  1.6641E-004  
  390.00  1.0207E-004  
  390.50  6.8608E-005  
  391.00  1.5984E-004  
  391.50  2.6040E-004  
  392.00  2.8688E-004  
  392.50  2.6344E-004  
  393.00  2.1981E-004  
  393.50  1.9023E-004  
  394.00  2.0501E-004  
  394.50  1.9163E-004  
  395.00  1.2062E-004  
  395.50  9.5377E-005  
  396.00  6.5790E-005  
  396.50  8.6625E-005  
  397.00  1.4828E-004  
  397.50  1.4381E-004  
  398.00  1.3627E-004  
  398.50  1.3324E-004  
  399.00  1.3183E-004  
  399.50  1.5922E-004  
  400.00  2.1107E-004  
  400.50  2.2178E-004  
  401.00  2.2925E-004  
  401.50  2.5528E-004  
  402.00  2.8019E-004  
  402.50  2.9185E-004  
  403.00  2.8529E-004  
  403.50  2.7051E-004  
  404.00  3.1385E-004  
  404.50  3.5384E-004  
  405.00  4.0030E-004  
  405.50  3.6701E-004  
  406.00  3.1057E-004  
  406.50  3.1445E-004  
  407.00  3.2523E-004  
  407.50  3.5860E-004  
  408.00  3.7614E-004  
  408.50  3.3872E-004  
  409.00  3.2888E-004  
  409.50  3.2830E-004  
  410.00  3.4191E-004  
  410.50  4.1261E-004  
  411.00  4.8184E-004  
  411.50  5.7546E-004  
  412.00  6.4751E-004  
  412.50  6.4638E-004  
  413.00  5.8835E-004  
  413.50  5.7627E-004  
  414.00  5.9797E-004  
  414.50  6.9134E-004  
  415.00  7.7857E-004  
  415.50  8.3533E-004  
  416.00  9.0333E-004  
  416.50  9.3826E-004  
  417.00  1.0263E-003  
  417.50  1.1015E-003  
  418.00  1.2065E-003  
  418.50  1.3088E-003  
  419.00  1.4156E-003  
  419.50  1.5331E-003  
  420.00  1.6634E-003  
  420.50  1.8437E-003  
  421.00  1.9850E-003  
  421.50  2.1148E-003  
  422.00  2.2666E-003  
  422.50  2.4397E-003  
  423.00  2.6175E-003  
  423.50  2.8067E-003  
  424.00  2.9483E-003  
  424.50  3.0781E-003  
  425.00  3.2718E-003  
  425.50  3.5218E-003  
  426.00  3.8260E-003  
  426.50  4.1404E-003  
  427.00  4.4289E-003  
  427.50  4.7074E-003  
  428.00  4.9513E-003  
  428.50  5.2210E-003  
  429.00  5.5240E-003  
  429.50  5.8806E-003  
  430.00  6.2802E-003  
  430.50  6.6566E-003  
  431.00  6.9998E-003  
  431.50  7.3430E-003  
  432.00  7.7431E-003  
  432.50  8.2013E-003  
  433.00  8.6920E-003  
  433.50  9.1492E-003  
  434.00  9.6644E-003  
  434.50  1.0225E-002  
  435.00  1.0853E-002  
  435.50  1.1499E-002  
  436.00  1.2120E-002  
  436.50  1.2711E-002  
  437.00  1.3350E-002  
  437.50  1.3993E-002  
  438.00  1.4688E-002  
  438.50  1.5390E-002  
  439.00  1.6106E-002  
  439.50  1.6909E-002  
  440.00  1.7769E-002  
  440.50  1.8699E-002  
  441.00  1.9596E-002  
  441.50  2.0503E-002  
  442.00  2.1471E-002  
  442.50  2.2490E-002  
  443.00  2.3674E-002  
  443.50  2.4823E-002  
  444.00  2.5975E-002  
  444.50  2.7146E-002  
  445.00  2.8339E-002  
  445.50  2.9642E-002  
  446.00  3.0986E-002  
  446.50  3.2207E-002  
  447.00  3.3423E-002  
  447.50  3.4588E-002  
  448.00  3.5793E-002  
  448.50  3.6977E-002  
  449.00  3.8160E-002  
  449.50  3.9306E-002  
  450.00  4.0358E-002  
  450.50  4.1215E-002  
  451.00  4.1888E-002  
  451.50  4.2383E-002  
  452.00  4.2800E-002  
  452.50  4.3094E-002  
  453.00  4.3201E-002  
  453.50  4.3124E-002  
  454.00  4.2929E-002  
  454.50  4.2594E-002  
  455.00  4.2176E-002  
  455.50  4.1624E-002  
  456.00  4.0967E-002  
  456.50  4.0289E-002  
  457.00  3.9599E-002  
  457.50  3.8924E-002  
  458.00  3.8159E-002  
  458.50  3.7170E-002  
  459.00  3.6187E-002  
  459.50  3.5193E-002  
  460.00  3.4341E-002  
  460.50  3.3602E-002  
  461.00  3.2845E-002  
  461.50  3.2065E-002  
  462.00  3.1276E-002  
  462.50  3.0489E-002  
  463.00  2.9789E-002  
  463.50  2.9113E-002  
  464.00  2.8425E-002  
  464.50  2.7736E-002  
  465.00  2.7073E-002  
  465.50  2.6512E-002  
  466.00  2.5951E-002  
  466.50  2.5454E-002  
  467.00  2.4920E-002  
  467.50  2.4455E-002  
  468.00  2.4049E-002  
  468.50  2.3662E-002  
  469.00  2.3293E-002  
  469.50  2.2904E-002  
  470.00  2.2387E-002  
  470.50  2.1930E-002  
  471.00  2.1420E-002  
  471.50  2.0977E-002  
  472.00  2.0595E-002  
  472.50  2.0248E-002  
  473.00  1.9956E-002  
  473.50  1.9670E-002  
  474.00  1.9354E-002  
  474.50  1.8974E-002  
  475.00  1.8523E-002  
  475.50  1.8078E-002  
  476.00  1.7649E-002  
  476.50  1.7321E-002  
  477.00  1.7040E-002  
  477.50  1.6763E-002  
  478.00  1.6474E-002  
  478.50  1.6210E-002  
  479.00  1.5990E-002  
  479.50  1.5809E-002  
  480.00  1.5666E-002  
  480.50  1.5494E-002  
  481.00  1.5303E-002  
  481.50  1.5138E-002  
  482.00  1.5034E-002  
  482.50  1.4925E-002  
  483.00  1.4814E-002  
  483.50  1.4676E-002  
  484.00  1.4564E-002  
  484.50  1.4483E-002  
  485.00  1.4399E-002  
  485.50  1.4315E-002  
  486.00  1.4240E-002  
  486.50  1.4169E-002  
  487.00  1.4101E-002  
  487.50  1.4035E-002  
  488.00  1.4070E-002  
  488.50  1.4096E-002  
  489.00  1.4147E-002  
  489.50  1.4147E-002  
  490.00  1.4158E-002  
  490.50  1.4223E-002  
  491.00  1.4301E-002  
  491.50  1.4332E-002  
  492.00  1.4390E-002  
  492.50  1.4438E-002  
  493.00  1.4600E-002  
  493.50  1.4792E-002  
  494.00  1.5003E-002  
  494.50  1.5168E-002  
  495.00  1.5273E-002  
  495.50  1.5381E-002  
  496.00  1.5538E-002  
  496.50  1.5781E-002  
  497.00  1.6077E-002  
  497.50  1.6428E-002  
  498.00  1.6775E-002  
  498.50  1.7084E-002  
  499.00  1.7421E-002  
  499.50  1.7691E-002  
  500.00  1.8005E-002  
  500.50  1.8300E-002  
  501.00  1.8658E-002  
  501.50  1.9069E-002  
  502.00  1.9490E-002  
  502.50  1.9948E-002  
  503.00  2.0397E-002  
  503.50  2.0845E-002  
  504.00  2.1252E-002  
  504.50  2.1641E-002  
  505.00  2.2056E-002  
  505.50  2.2509E-002  
  506.00  2.3011E-002  
  506.50  2.3498E-002  
  507.00  2.4050E-002  
  507.50  2.4560E-002  
  508.00  2.5099E-002  
  508.50  2.5629E-002  
  509.00  2.6141E-002  
  509.50  2.6663E-002  
  510.00  2.7172E-002  
  510.50  2.7680E-002  
  511.00  2.8202E-002  
  511.50  2.8736E-002  
  512.00  2.9318E-002  
  512.50  2.9906E-002  
  513.00  3.0479E-002  
  513.50  3.1019E-002  
  514.00  3.1548E-002  
  514.50  3.2105E-002  
  515.00  3.2673E-002  
  515.50  3.3255E-002  
  516.00  3.3784E-002  
  516.50  3.4306E-002  
  517.00  3.4861E-002  
  517.50  3.5426E-002  
  518.00  3.6031E-002  
  518.50  3.6598E-002  
  519.00  3.7133E-002  
  519.50  3.7630E-002  
  520.00  3.8154E-002  
  520.50  3.8692E-002  
  521.00  3.9248E-002  
  521.50  3.9803E-002  
  522.00  4.0248E-002  
  522.50  4.0782E-002  
  523.00  4.1308E-002  
  523.50  4.1867E-002  
  524.00  4.2389E-002  
  524.50  4.2905E-002  
  525.00  4.3414E-002  
  525.50  4.3909E-002  
  526.00  4.4326E-002  
  526.50  4.4793E-002  
  527.00  4.5288E-002  
  527.50  4.5836E-002  
  528.00  4.6299E-002  
  528.50  4.6716E-002  
  529.00  4.7121E-002  
  529.50  4.7532E-002  
  530.00  4.7970E-002  
  530.50  4.8416E-002  
  531.00  4.8939E-002  
  531.50  4.9443E-002  
  532.00  4.9896E-002  
  532.50  5.0332E-002  
  533.00  5.0757E-002  
  533.50  5.1201E-002  
  534.00  5.1529E-002  
  534.50  5.1838E-002  
  535.00  5.2189E-002  
  535.50  5.2647E-002  
  536.00  5.3097E-002  
  536.50  5.3473E-002  
  537.00  5.3865E-002  
  537.50  5.4238E-002  
  538.00  5.4648E-002  
  538.50  5.4990E-002  
  539.00  5.5340E-002  
  539.50  5.5706E-002  
  540.00  5.6200E-002  
  540.50  5.6708E-002  
  541.00  5.7063E-002  
  541.50  5.7365E-002  
  542.00  5.7623E-002  
  542.50  5.8017E-002  
  543.00  5.8447E-002  
  543.50  5.8849E-002  
  544.00  5.9215E-002  
  544.50  5.9557E-002  
  545.00  5.9897E-002  
  545.50  6.0250E-002  
  546.00  6.0621E-002  
  546.50  6.0987E-002  
  547.00  6.1447E-002  
  547.50  6.1911E-002  
  548.00  6.2358E-002  
  548.50  6.2740E-002  
  549.00  6.3058E-002  
  549.50  6.3416E-002  
  550.00  6.3769E-002  
  550.50  6.4056E-002  
  551.00  6.4371E-002  
  551.50  6.4714E-002  
  552.00  6.5132E-002  
  552.50  6.5598E-002  
  553.00  6.6095E-002  
  553.50  6.6523E-002  
  554.00  6.6902E-002  
  554.50  6.7140E-002  
  555.00  6.7396E-002  
  555.50  6.7801E-002  
  556.00  6.8234E-002  
  556.50  6.8695E-002  
  557.00  6.9069E-002  
  557.50  6.9480E-002  
  558.00  6.9866E-002  
  558.50  7.0250E-002  
  559.00  7.0692E-002  
  559.50  7.1125E-002  
  560.00  7.1606E-002  
  560.50  7.1982E-002  
  561.00  7.2388E-002  
  561.50  7.2747E-002  
  562.00  7.3088E-002  
  562.50  7.3397E-002  
  563.00  7.3671E-002  
  563.50  7.3989E-002  
  564.00  7.4332E-002  
  564.50  7.4686E-002  
  565.00  7.5140E-002  
  565.50  7.5583E-002  
  566.00  7.6035E-002  
  566.50  7.6409E-002  
  567.00  7.6678E-002  
  567.50  7.7012E-002  
  568.00  7.7472E-002  
  568.50  7.7940E-002  
  569.00  7.8407E-002  
  569.50  7.8767E-002  
  570.00  7.9071E-002  
  570.50  7.9364E-002  
  571.00  7.9640E-002  
  571.50  7.9983E-002  
  572.00  8.0429E-002  
  572.50  8.0815E-002  
  573.00  8.1234E-002  
  573.50  8.1623E-002  
  574.00  8.2013E-002  
  574.50  8.2359E-002  
  575.00  8.2679E-002  
  575.50  8.3042E-002  
  576.00  8.3448E-002  
  576.50  8.3896E-002  
  577.00  8.4280E-002  
  577.50  8.4635E-002  
  578.00  8.4914E-002  
  578.50  8.5307E-002  
  579.00  8.5561E-002  
  579.50  8.5905E-002  
  580.00  8.6124E-002  
  580.50  8.6513E-002  
  581.00  8.6894E-002  
  581.50  8.7266E-002  
  582.00  8.7568E-002  
  582.50  8.7828E-002  
  583.00  8.8068E-002  
  583.50  8.8399E-002  
  584.00  8.8734E-002  
  584.50  8.9108E-002  
  585.00  8.9324E-002  
  585.50  8.9428E-002  
  586.00  8.9607E-002  
  586.50  8.9887E-002  
  587.00  9.0287E-002  
  587.50  9.0513E-002  
  588.00  9.0705E-002  
  588.50  9.0904E-002  
  589.00  9.1161E-002  
  589.50  9.1380E-002  
  590.00  9.1547E-002  
  590.50  9.1716E-002  
  591.00  9.1879E-002  
  591.50  9.2016E-002  
  592.00  9.2104E-002  
  592.50  9.2244E-002  
  593.00  9.2524E-002  
  593.50  9.2720E-002  
  594.00  9.2905E-002  
  594.50  9.2951E-002  
  595.00  9.3172E-002  
  595.50  9.3229E-002  
  596.00  9.3314E-002  
  596.50  9.3319E-002  
  597.00  9.3354E-002  
  597.50  9.3419E-002  
  598.00  9.3388E-002  
  598.50  9.3393E-002  
  599.00  9.3431E-002  
  599.50  9.3354E-002  
  600.00  9.3279E-002  
  600.50  9.3160E-002  
  601.00  9.3250E-002  
  601.50  9.3441E-002  
  602.00  9.3577E-002  
  602.50  9.3541E-002  
  603.00  9.3409E-002  
  603.50  9.3315E-002  
  604.00  9.3364E-002  
  604.50  9.3278E-002  
  605.00  9.3216E-002  
  605.50  9.3066E-002  
  606.00  9.2917E-002  
  606.50  9.2825E-002  
  607.00  9.2665E-002  
  607.50  9.2634E-002  
  608.00  9.2644E-002  
  608.50  9.2575E-002  
  609.00  9.2448E-002  
  609.50  9.2230E-002  
  610.00  9.2019E-002  
  610.50  9.1826E-002  
  611.00  9.1655E-002  
  611.50  9.1622E-002  
  612.00  9.1669E-002  
  612.50  9.1518E-002  
  613.00  9.1225E-002  
  613.50  9.0809E-002  
  614.00  9.0436E-002  
  614.50  9.0201E-002  
  615.00  8.9965E-002  
  615.50  8.9640E-002  
  616.00  8.9335E-002  
  616.50  8.8976E-002  
  617.00  8.8685E-002  
  617.50  8.8344E-002  
  618.00  8.8031E-002  
  618.50  8.7793E-002  
  619.00  8.7493E-002  
  619.50  8.7294E-002  
  620.00  8.7065E-002  
  620.50  8.6878E-002  
  621.00  8.6614E-002  
  621.50  8.6261E-002  
  622.00  8.5792E-002  
  622.50  8.5228E-002  
  623.00  8.4699E-002  
  623.50  8.4263E-002  
  624.00  8.3960E-002  
  624.50  8.3611E-002  
  625.00  8.3350E-002  
  625.50  8.2969E-002  
  626.00  8.2655E-002  
  626.50  8.2127E-002  
  627.00  8.1620E-002  
  627.50  8.1083E-002  
  628.00  8.0711E-002  
  628.50  8.0265E-002  
  629.00  7.9885E-002  
  629.50  7.9431E-002  
  630.00  7.9084E-002  
  630.50  7.8627E-002  
  631.00  7.8164E-002  
  631.50  7.7745E-002  
  632.00  7.7258E-002  
  632.50  7.6864E-002  
  633.00  7.6434E-002  
  633.50  7.6010E-002  
  634.00  7.5504E-002  
  634.50  7.5062E-002  
  635.00  7.4696E-002  
  635.50  7.4234E-002  
  636.00  7.3630E-002  
  636.50  7.3006E-002  
  637.00  7.2390E-002  
  637.50  7.1898E-002  
  638.00  7.1388E-002  
  638.50  7.0977E-002  
  639.00  7.0476E-002  
  639.50  6.9906E-002  
  640.00  6.9347E-002  
  640.50  6.8762E-002  
  641.00  6.8193E-002  
  641.50  6.7658E-002  
  642.00  6.7154E-002  
  642.50  6.6700E-002  
  643.00  6.6083E-002  
  643.50  6.5397E-002  
  644.00  6.4810E-002  
  644.50  6.4295E-002  
  645.00  6.3856E-002  
  645.50  6.3309E-002  
  646.00  6.2763E-002  
  646.50  6.2126E-002  
  647.00  6.1574E-002  
  647.50  6.1119E-002  
  648.00  6.0655E-002  
  648.50  6.0139E-002  
  649.00  5.9529E-002  
  649.50  5.8992E-002  
  650.00  5.8422E-002  
  650.50  5.7811E-002  
  651.00  5.7229E-002  
  651.50  5.6648E-002  
  652.00  5.6109E-002  
  652.50  5.5608E-002  
  653.00  5.5077E-002  
  653.50  5.4561E-002  
  654.00  5.3887E-002  
  654.50  5.3326E-002  
  655.00  5.2838E-002  
  655.50  5.2538E-002  
  656.00  5.2205E-002  
  656.50  5.1655E-002  
  657.00  5.1003E-002  
  657.50  5.0384E-002  
  658.00  4.9837E-002  
  658.50  4.9292E-002  
  659.00  4.8739E-002  
  659.50  4.8311E-002  
  660.00  4.7849E-002  
  660.50  4.7309E-002  
  661.00  4.6750E-002  
  661.50  4.6263E-002  
  662.00  4.5832E-002  
  662.50  4.5339E-002  
  663.00  4.4894E-002  
  663.50  4.4415E-002  
  664.00  4.3919E-002  
  664.50  4.3303E-002  
  665.00  4.2768E-002  
  665.50  4.2244E-002  
  666.00  4.1829E-002  
  666.50  4.1411E-002  
  667.00  4.0924E-002  
  667.50  4.0318E-002  
  668.00  3.9697E-002  
  668.50  3.9170E-002  
  669.00  3.8751E-002  
  669.50  3.8318E-002  
  670.00  3.7916E-002  
  670.50  3.7475E-002  
  671.00  3.6951E-002  
  671.50  3.6437E-002  
  672.00  3.5935E-002  
  672.50  3.5571E-002  
  673.00  3.5229E-002  
  673.50  3.4848E-002  
  674.00  3.4362E-002  
  674.50  3.3925E-002  
  675.00  3.3508E-002  
  675.50  3.3163E-002  
  676.00  3.2634E-002  
  676.50  3.2186E-002  
  677.00  3.1710E-002  
  677.50  3.1427E-002  
  678.00  3.1031E-002  
  678.50  3.0654E-002  
  679.00  3.0264E-002  
  679.50  2.9960E-002  
  680.00  2.9685E-002  
  680.50  2.9251E-002  
  681.00  2.8772E-002  
  681.50  2.8187E-002  
  682.00  2.7793E-002  
  682.50  2.7503E-002  
  683.00  2.7312E-002  
  683.50  2.7044E-002  
  684.00  2.6640E-002  
  684.50  2.6304E-002  
  685.00  2.5895E-002  
  685.50  2.5601E-002  
  686.00  2.5231E-002  
  686.50  2.4929E-002  
  687.00  2.4540E-002  
  687.50  2.4190E-002  
  688.00  2.3788E-002  
  688.50  2.3486E-002  
  689.00  2.3051E-002  
  689.50  2.2768E-002  
  690.00  2.2474E-002  
  690.50  2.2289E-002  
  691.00  2.2051E-002  
  691.50  2.1810E-002  
  692.00  2.1628E-002  
  692.50  2.1455E-002  
  693.00  2.1184E-002  
  693.50  2.0806E-002  
  694.00  2.0381E-002  
  694.50  1.9995E-002  
  695.00  1.9801E-002  
  695.50  1.9637E-002  
  696.00  1.9395E-002  
  696.50  1.8990E-002  
  697.00  1.8699E-002  
  697.50  1.8482E-002  
  698.00  1.8208E-002  
  698.50  1.7849E-002  
  699.00  1.7587E-002  
  699.50  1.7494E-002  
  700.00  1.7350E-002  
  700.50  1.7116E-002  
  701.00  1.6802E-002  
  701.50  1.6492E-002  
  702.00  1.6243E-002  
  702.50  1.5985E-002  
  703.00  1.5760E-002  
  703.50  1.5553E-002  
  704.00  1.5334E-002  
  704.50  1.5041E-002  
  705.00  1.4776E-002  
  705.50  1.4568E-002  
  706.00  1.4380E-002  
  706.50  1.4166E-002  
  707.00  1.3988E-002  
  707.50  1.3872E-002  
  708.00  1.3626E-002  
  708.50  1.3373E-002  
  709.00  1.3110E-002  
  709.50  1.2976E-002  
  710.00  1.2753E-002  
  710.50  1.2537E-002  
  711.00  1.2350E-002  
  711.50  1.2249E-002  
  712.00  1.2079E-002  
  712.50  1.1919E-002  
  713.00  1.1736E-002  
  713.50  1.1617E-002  
  714.00  1.1474E-002  
  714.50  1.1342E-002  
  715.00  1.1077E-002  
  715.50  1.0794E-002  
  716.00  1.0617E-002  
  716.50  1.0486E-002  
  717.00  1.0346E-002  
  717.50  1.0253E-002  
  718.00  1.0256E-002  
  718.50  1.0254E-002  
  719.00  1.0122E-002  
  719.50  9.9215E-003  
  720.00  9.7833E-003  
  720.50  9.7236E-003  
  721.00  9.6309E-003  
  721.50  9.3562E-003  
  722.00  8.9863E-003  
  722.50  8.7414E-003  
  723.00  8.6859E-003  
  723.50  8.6713E-003  
  724.00  8.5600E-003  
  724.50  8.4430E-003  
  725.00  8.3423E-003  
  725.50  8.2733E-003  
  726.00  8.1015E-003  
  726.50  7.9940E-003  
  727.00  7.9192E-003  
  727.50  7.8722E-003  
  728.00  7.7854E-003  
  728.50  7.6329E-003  
  729.00  7.5359E-003  
  729.50  7.4815E-003  
  730.00  7.4872E-003  
  730.50  7.3625E-003  
  731.00  7.1888E-003  
  731.50  7.0079E-003  
  732.00  6.8531E-003  
  732.50  6.7153E-003  
  733.00  6.6417E-003  
  733.50  6.6604E-003  
  734.00  6.5355E-003  
  734.50  6.4025E-003  
  735.00  6.2997E-003  
  735.50  6.1845E-003  
  736.00  6.0204E-003  
  736.50  5.8482E-003  
  737.00  5.7194E-003  
  737.50  5.6026E-003  
  738.00  5.5597E-003  
  738.50  5.5882E-003  
  739.00  5.6107E-003  
  739.50  5.5928E-003  
  740.00  5.5760E-003  
  740.50  5.5578E-003  
  741.00  5.3802E-003  
  741.50  5.0915E-003  
  742.00  4.9953E-003  
  742.50  4.9733E-003  
  743.00  4.9052E-003  
  743.50  4.7017E-003  
  744.00  4.6831E-003  
  744.50  4.6315E-003  
  745.00  4.5791E-003  
  745.50  4.4541E-003  
  746.00  4.3504E-003  
  746.50  4.3249E-003  
  747.00  4.3282E-003  
  747.50  4.2254E-003  
  748.00  4.0176E-003  
  748.50  3.8930E-003  
  749.00  3.9363E-003  
  749.50  4.0390E-003  
  750.00  3.9639E-003  
  750.50  3.8561E-003  
  751.00  3.7678E-003  
  751.50  3.8209E-003  
  752.00  3.7627E-003  
  752.50  3.7236E-003  
  753.00  3.6783E-003  
  753.50  3.6200E-003  
  754.00  3.6090E-003  
  754.50  3.6650E-003  
  755.00  3.6135E-003  
  755.50  3.3676E-003  
  756.00  3.2010E-003  
  756.50  3.2897E-003  
  757.00  3.3064E-003  
  757.50  3.3030E-003  
  758.00  3.2391E-003  
  758.50  3.2259E-003  
  759.00  3.0898E-003  
  759.50  2.9317E-003  
  760.00  2.7801E-003  
  760.50  2.6505E-003  
  761.00  2.7181E-003  
  761.50  2.8483E-003  
  762.00  2.9578E-003  
  762.50  2.7274E-003  
  763.00  2.7103E-003  
  763.50  2.6587E-003  
  764.00  2.5747E-003  
  764.50  2.3664E-003  
  765.00  2.3615E-003  
  765.50  2.4402E-003  
  766.00  2.5184E-003  
  766.50  2.5152E-003  
  767.00  2.3788E-003  
  767.50  2.2416E-003  
  768.00  2.1029E-003  
  768.50  2.1077E-003  
  769.00  2.0784E-003  
  769.50  1.9601E-003  
  770.00  1.9070E-003  
  770.50  1.9318E-003  
  771.00  2.0967E-003  
  771.50  2.0333E-003  
  772.00  1.9097E-003  
  772.50  1.6982E-003  
  773.00  1.7423E-003  
  773.50  1.8943E-003  
  774.00  2.0711E-003  
  774.50  2.0055E-003  
  775.00  1.9119E-003  
  775.50  1.9318E-003  
  776.00  1.9585E-003  
  776.50  1.8796E-003  
  777.00  1.8205E-003  
  777.50  1.8405E-003  
  778.00  1.8730E-003  
  778.50  1.8315E-003  
  779.00  1.6048E-003  
  779.50  1.5780E-003  
  780.00  1.6202E-003  
  780.50  1.7346E-003  
  781.00  1.7677E-003  
  781.50  1.7771E-003  
  782.00  1.8685E-003  
  782.50  2.0149E-003  
  783.00  1.7620E-003  
  783.50  1.4054E-003  
  784.00  1.1456E-003  
  784.50  1.1889E-003  
  785.00  1.1921E-003  
  785.50  1.3425E-003  
  786.00  1.2906E-003  
  786.50  1.2724E-003  
  787.00  1.4363E-003  
  787.50  1.6315E-003  
  788.00  1.3589E-003  
  788.50  1.1152E-003  
  789.00  1.0439E-003  
  789.50  1.1672E-003  
  790.00  1.1312E-003  
  790.50  1.0654E-003  
  791.00  1.0833E-003  
  791.50  1.1540E-003  
  792.00  1.2141E-003  
  792.50  1.1747E-003  
  793.00  1.1898E-003  
  793.50  9.7436E-004  
  794.00  9.7625E-004  
  794.50  9.0991E-004  
  795.00  8.9614E-004  
  795.50  8.1951E-004  
  796.00  7.7453E-004  
  796.50  7.3079E-004  
  797.00  8.4370E-004  
  797.50  8.7566E-004  
  798.00  8.2593E-004  
  798.50  5.4516E-004  
  799.00  6.4447E-004  
  799.50  9.7355E-004  
  800.00  1.2651E-003  
  800.50  1.1189E-003  
  801.00  7.3402E-004  
  801.50  5.4323E-004  
  802.00  5.5746E-004  
  802.50  6.9946E-004  
  803.00  8.3244E-004  
  803.50  8.0819E-004  
  804.00  6.6183E-004  
  804.50  6.8124E-004  
  805.00  8.7678E-004  
  805.50  9.0105E-004  
  806.00  7.3931E-004  
  806.50  7.1493E-004  
  807.00  6.5583E-004  
  807.50  5.0110E-004  
  808.00  3.5828E-004  
  808.50  4.3985E-004  
  809.00  5.3301E-004  
  809.50  5.3844E-004  
  810.00  4.0060E-004  
  810.50  2.9461E-004  
  811.00  1.5960E-004  
  811.50  3.1923E-004  
  812.00  4.7730E-004  
  812.50  5.5981E-004  
  813.00  4.4653E-004  
  813.50  4.4376E-004  
  814.00  3.3207E-004  
  814.50  2.2947E-004  
  815.00  2.9004E-004  
  815.50  2.5074E-004  
  816.00  2.6802E-004  
  816.50  5.7428E-004  
  817.00  7.5370E-004  
  817.50  5.4227E-004  
  818.00  4.2558E-004  
  818.50  4.4261E-004  
  819.00  6.6428E-004  
  819.50  8.3565E-004  
  820.00  6.1262E-004  
  820.50  2.2088E-004  
  821.00  8.1919E-005  
  821.50  4.6918E-005  
  822.00  2.7304E-004  
  822.50  4.5638E-004  
  823.00  3.0210E-004  
  823.50  1.3060E-004  
  824.00  1.2609E-004  
  824.50  2.7424E-005  
  825.00  6.1153E-005  
  825.50  3.1516E-004  
  826.00  5.5384E-004  
  826.50  2.8396E-004  
  827.00  2.6303E-005  
  827.50  0.0000E+000  
  828.00  0.0000E+000  
  828.50  2.2568E-004  
  829.00  5.0902E-004  
  829.50  4.5988E-004  
  830.00  3.4075E-004  
  830.50  2.5863E-004  
  831.00  3.2263E-004  
  831.50  7.2231E-005  
  832.00  0.0000E+000  
  832.50  0.0000E+000  
  833.00  4.1457E-005  
  833.50  7.8318E-005  
  834.00  1.2267E-004  
  834.50  2.1281E-004  
  835.00  2.7604E-004  
  835.50  2.9495E-004  
  836.00  5.0125E-005  
  836.50  0.0000E+000  
  837.00  0.0000E+000  
  837.50  0.0000E+000  
  838.00  0.0000E+000  
  838.50  0.0000E+000  
  839.00  0.0000E+000  
  839.50  0.0000E+000  
  840.00  0.0000E+000  
  840.50  2.4598E-004  
  841.00  4.8035E-004  
  841.50  1.4258E-005  
  842.00  0.0000E+000  
  842.50  0.0000E+000  
  843.00  3.7072E-005  
  843.50  2.0646E-004  
  844.00  3.8384E-005  
  844.50  0.0000E+000  
  845.00  0.0000E+000  
  845.50  0.0000E+000  
  846.00  3.0045E-005  
  846.50  3.9979E-004  
  847.00  6.0494E-004  
  847.50  4.0158E-004  
  848.00  5.5645E-005  
  848.50  0.0000E+000  
  849.00  0.0000E+000  
  849.50  0.0000E+000  
  850.00  0.0000E+000  
  850.50  7.4184E-005  
  851.00  4.2846E-004  
  851.50  3.2805E-004  
  852.00  3.1056E-005  
  852.50  0.0000E+000  
  853.00  9.4602E-005  
  853.50  3.7220E-005  
  854.00  0.0000E+000  
  854.50  0.0000E+000  
  855.00  0.0000E+000  
  855.50  0.0000E+000  
  856.00  1.3947E-004  
  856.50  4.9714E-004  
  857.00  4.8314E-004  
  857.50  1.7348E-004  
  858.00  0.0000E+000  
  858.50  0.0000E+000  
  859.00  8.9423E-005  
  859.50  6.1225E-005  
  860.00  0.0000E+000  
  860.50  0.0000E+000  
  861.00  0.0000E+000  
  861.50  0.0000E+000  
  862.00  0.0000E+000  
  862.50  4.5966E-004  
  863.00  3.4556E-004  
  863.50  0.0000E+000  
  864.00  0.0000E+000  
  864.50  0.0000E+000  
  865.00  0.0000E+000  
  865.50  8.2339E-005  
  866.00  6.6097E-005  
  866.50  0.0000E+000  
  867.00  0.0000E+000  
  867.50  2.8726E-004  
  868.00  7.3257E-004  
  868.50  4.9494E-004  
  869.00  2.7507E-004  
  869.50  2.7384E-004  
  870.00  3.2446E-004  
  870.50  9.0998E-005  
  871.00  0.0000E+000  
  871.50  0.0000E+000  
  872.00  0.0000E+000  
  872.50  0.0000E+000  
  873.00  0.0000E+000  
  873.50  0.0000E+000  
  874.00  0.0000E+000  
  874.50  0.0000E+000  
  875.00  0.0000E+000  
  875.50  0.0000E+000  
  876.00  0.0000E+000  
  876.50  0.0000E+000  
  877.00  1.8938E-004  
  877.50  0.0000E+000  
  878.00  0.0000E+000  
  878.50  0.0000E+000  
  879.00  0.0000E+000  
  879.50  1.2921E-004  
  880.00  1.1156E-004  
  880.50  4.2065E-005  
  881.00  0.0000E+000  
  881.50  5.2193E-005  
  882.00  5.6187E-004  
  882.50  1.0983E-003  
  883.00  1.0739E-003  
  883.50  6.4024E-004  
  884.00  0.0000E+000  
  884.50  0.0000E+000  
  885.00  0.0000E+000  
  885.50  0.0000E+000  
  886.00  0.0000E+000  
  886.50  1.1477E-004  
  887.00  1.6910E-003  
  887.50  1.2731E-003  
  888.00  1.9835E-004  
  888.50  6.3274E-005  
  889.00  7.5148E-005  
  889.50  3.0899E-005  
  890.00  9.2761E-004  
  890.50  9.7274E-004  
  891.00  5.1191E-005  
  891.50  0.0000E+000  
  892.00  0.0000E+000  
  892.50  0.0000E+000  
  893.00  0.0000E+000  
  893.50  7.8893E-005  
  894.00  5.8759E-004  
  894.50  1.3779E-003  
  895.00  1.8466E-003  
  895.50  1.7225E-003  
  896.00  1.0813E-003  
  896.50  6.0364E-005  
  897.00  0.0000E+000  
  897.50  1.6199E-004  
  898.00  3.2767E-004  
  898.50  0.0000E+000  
  899.00  0.0000E+000  
  899.50  0.0000E+000  
