
# From lspdd.org
# 
# Name: Halo Standard PAR30 Accubeam Domestique
# Indice spectral Valeur 
# MSI 0.30 
# SLI 0.51 
# IPI 0.93 
# Pourcentage de bleu 13.0 
# Caractéristique Valeur 
# CCT calculée (K) 2688 
# CCT du fabricant (K) ND 
# Tension (V) 130 
# Puissance (W) 75.0 
# Efficacité lumineuse (Lum/W) ND 
#
# Image: '/app/system/img_2s/2569/medium_image2.JPG?1413486378'
# Image: '/app/system/img_1s/2569/medium_image1.JPG?1413486382'
# 

  273.00  0.0000E+000  
  273.50  0.0000E+000  
  274.00  0.0000E+000  
  274.50  0.0000E+000  
  275.00  0.0000E+000  
  275.50  0.0000E+000  
  276.00  0.0000E+000  
  276.50  0.0000E+000  
  277.00  0.0000E+000  
  277.50  0.0000E+000  
  278.00  0.0000E+000  
  278.50  0.0000E+000  
  279.00  0.0000E+000  
  279.50  0.0000E+000  
  280.00  0.0000E+000  
  280.50  0.0000E+000  
  281.00  0.0000E+000  
  281.50  0.0000E+000  
  282.00  0.0000E+000  
  282.50  0.0000E+000  
  283.00  0.0000E+000  
  283.50  0.0000E+000  
  284.00  0.0000E+000  
  284.50  0.0000E+000  
  285.00  0.0000E+000  
  285.50  0.0000E+000  
  286.00  0.0000E+000  
  286.50  0.0000E+000  
  287.00  0.0000E+000  
  287.50  0.0000E+000  
  288.00  0.0000E+000  
  288.50  0.0000E+000  
  289.00  0.0000E+000  
  289.50  0.0000E+000  
  290.00  0.0000E+000  
  290.50  0.0000E+000  
  291.00  0.0000E+000  
  291.50  0.0000E+000  
  292.00  0.0000E+000  
  292.50  0.0000E+000  
  293.00  0.0000E+000  
  293.50  0.0000E+000  
  294.00  0.0000E+000  
  294.50  0.0000E+000  
  295.00  0.0000E+000  
  295.50  0.0000E+000  
  296.00  0.0000E+000  
  296.50  0.0000E+000  
  297.00  0.0000E+000  
  297.50  0.0000E+000  
  298.00  0.0000E+000  
  298.50  0.0000E+000  
  299.00  0.0000E+000  
  299.50  0.0000E+000  
  300.00  0.0000E+000  
  300.50  0.0000E+000  
  301.00  0.0000E+000  
  301.50  0.0000E+000  
  302.00  0.0000E+000  
  302.50  0.0000E+000  
  303.00  7.4395E-006  
  303.50  5.3806E-005  
  304.00  7.8978E-005  
  304.50  5.6552E-005  
  305.00  1.8808E-005  
  305.50  1.4012E-006  
  306.00  0.0000E+000  
  306.50  0.0000E+000  
  307.00  0.0000E+000  
  307.50  5.8059E-006  
  308.00  1.2072E-005  
  308.50  2.4251E-005  
  309.00  3.5536E-005  
  309.50  1.5849E-005  
  310.00  2.9927E-005  
  310.50  3.3382E-005  
  311.00  3.3194E-005  
  311.50  0.0000E+000  
  312.00  0.0000E+000  
  312.50  0.0000E+000  
  313.00  6.1403E-006  
  313.50  1.9081E-005  
  314.00  1.0534E-006  
  314.50  1.6130E-005  
  315.00  6.8392E-005  
  315.50  1.2542E-004  
  316.00  1.8693E-004  
  316.50  2.0581E-004  
  317.00  1.7098E-004  
  317.50  1.7491E-004  
  318.00  1.5673E-004  
  318.50  1.3199E-004  
  319.00  9.5682E-005  
  319.50  7.6584E-005  
  320.00  1.0322E-004  
  320.50  1.0700E-004  
  321.00  1.4451E-004  
  321.50  1.7425E-004  
  322.00  2.3659E-004  
  322.50  2.2999E-004  
  323.00  2.2528E-004  
  323.50  1.9738E-004  
  324.00  1.3756E-004  
  324.50  1.6525E-004  
  325.00  1.2963E-004  
  325.50  1.2164E-004  
  326.00  1.0511E-004  
  326.50  1.2080E-004  
  327.00  1.4870E-004  
  327.50  1.4336E-004  
  328.00  1.1206E-004  
  328.50  3.3614E-005  
  329.00  2.9570E-005  
  329.50  3.8851E-005  
  330.00  6.7186E-005  
  330.50  1.2525E-004  
  331.00  1.7675E-004  
  331.50  2.3687E-004  
  332.00  2.7780E-004  
  332.50  2.7232E-004  
  333.00  2.5715E-004  
  333.50  2.6721E-004  
  334.00  3.0105E-004  
  334.50  3.2387E-004  
  335.00  3.1619E-004  
  335.50  2.9783E-004  
  336.00  3.1219E-004  
  336.50  3.8722E-004  
  337.00  4.4060E-004  
  337.50  4.6049E-004  
  338.00  4.2493E-004  
  338.50  3.7896E-004  
  339.00  3.6486E-004  
  339.50  4.1326E-004  
  340.00  4.6212E-004  
  340.50  5.4333E-004  
  341.00  5.6400E-004  
  341.50  5.2974E-004  
  342.00  5.2153E-004  
  342.50  4.9982E-004  
  343.00  4.9811E-004  
  343.50  5.3396E-004  
  344.00  5.5414E-004  
  344.50  5.4129E-004  
  345.00  5.5602E-004  
  345.50  5.4675E-004  
  346.00  5.4135E-004  
  346.50  5.8440E-004  
  347.00  6.0046E-004  
  347.50  6.1918E-004  
  348.00  6.7102E-004  
  348.50  7.3430E-004  
  349.00  7.5837E-004  
  349.50  7.0728E-004  
  350.00  6.5353E-004  
  350.50  6.2127E-004  
  351.00  6.1893E-004  
  351.50  6.7022E-004  
  352.00  6.6930E-004  
  352.50  6.8740E-004  
  353.00  7.1946E-004  
  353.50  7.0795E-004  
  354.00  7.3805E-004  
  354.50  6.8226E-004  
  355.00  6.4199E-004  
  355.50  6.6689E-004  
  356.00  6.9550E-004  
  356.50  7.6017E-004  
  357.00  8.2629E-004  
  357.50  8.4551E-004  
  358.00  8.7539E-004  
  358.50  9.0005E-004  
  359.00  9.2227E-004  
  359.50  9.4837E-004  
  360.00  9.5594E-004  
  360.50  1.0100E-003  
  361.00  1.0782E-003  
  361.50  1.1044E-003  
  362.00  1.1452E-003  
  362.50  1.2029E-003  
  363.00  1.2321E-003  
  363.50  1.2698E-003  
  364.00  1.3149E-003  
  364.50  1.2487E-003  
  365.00  1.2007E-003  
  365.50  1.1370E-003  
  366.00  1.0602E-003  
  366.50  1.0650E-003  
  367.00  1.1144E-003  
  367.50  1.1803E-003  
  368.00  1.2615E-003  
  368.50  1.3456E-003  
  369.00  1.3674E-003  
  369.50  1.3776E-003  
  370.00  1.3475E-003  
  370.50  1.3495E-003  
  371.00  1.3572E-003  
  371.50  1.4068E-003  
  372.00  1.4545E-003  
  372.50  1.4851E-003  
  373.00  1.5421E-003  
  373.50  1.5196E-003  
  374.00  1.4995E-003  
  374.50  1.4744E-003  
  375.00  1.4883E-003  
  375.50  1.5585E-003  
  376.00  1.6680E-003  
  376.50  1.7520E-003  
  377.00  1.8386E-003  
  377.50  1.8622E-003  
  378.00  1.8424E-003  
  378.50  1.8361E-003  
  379.00  1.8119E-003  
  379.50  1.8646E-003  
  380.00  1.8821E-003  
  380.50  1.9154E-003  
  381.00  1.9822E-003  
  381.50  1.9814E-003  
  382.00  2.0014E-003  
  382.50  1.9930E-003  
  383.00  1.9675E-003  
  383.50  1.9676E-003  
  384.00  1.9692E-003  
  384.50  2.0114E-003  
  385.00  2.0543E-003  
  385.50  2.1522E-003  
  386.00  2.2163E-003  
  386.50  2.2369E-003  
  387.00  2.2953E-003  
  387.50  2.3126E-003  
  388.00  2.2905E-003  
  388.50  2.3093E-003  
  389.00  2.2594E-003  
  389.50  2.2761E-003  
  390.00  2.3414E-003  
  390.50  2.3789E-003  
  391.00  2.4731E-003  
  391.50  2.4815E-003  
  392.00  2.4800E-003  
  392.50  2.4777E-003  
  393.00  2.4972E-003  
  393.50  2.5586E-003  
  394.00  2.5943E-003  
  394.50  2.6307E-003  
  395.00  2.6425E-003  
  395.50  2.6845E-003  
  396.00  2.6950E-003  
  396.50  2.7321E-003  
  397.00  2.7880E-003  
  397.50  2.8455E-003  
  398.00  2.9024E-003  
  398.50  2.9136E-003  
  399.00  2.8716E-003  
  399.50  2.8666E-003  
  400.00  2.9121E-003  
  400.50  2.9514E-003  
  401.00  3.0065E-003  
  401.50  3.0455E-003  
  402.00  3.0989E-003  
  402.50  3.1709E-003  
  403.00  3.2131E-003  
  403.50  3.2800E-003  
  404.00  3.3249E-003  
  404.50  3.3320E-003  
  405.00  3.3174E-003  
  405.50  3.2778E-003  
  406.00  3.2953E-003  
  406.50  3.3546E-003  
  407.00  3.4502E-003  
  407.50  3.5341E-003  
  408.00  3.5947E-003  
  408.50  3.6215E-003  
  409.00  3.5991E-003  
  409.50  3.5955E-003  
  410.00  3.6041E-003  
  410.50  3.6856E-003  
  411.00  3.7477E-003  
  411.50  3.8204E-003  
  412.00  3.8725E-003  
  412.50  3.8751E-003  
  413.00  3.8765E-003  
  413.50  3.8883E-003  
  414.00  3.9068E-003  
  414.50  3.9427E-003  
  415.00  4.0038E-003  
  415.50  4.0464E-003  
  416.00  4.1492E-003  
  416.50  4.2328E-003  
  417.00  4.2916E-003  
  417.50  4.3252E-003  
  418.00  4.3431E-003  
  418.50  4.3418E-003  
  419.00  4.3842E-003  
  419.50  4.4586E-003  
  420.00  4.5485E-003  
  420.50  4.6699E-003  
  421.00  4.7225E-003  
  421.50  4.7207E-003  
  422.00  4.7360E-003  
  422.50  4.7657E-003  
  423.00  4.7895E-003  
  423.50  4.8606E-003  
  424.00  4.9188E-003  
  424.50  4.9318E-003  
  425.00  5.0024E-003  
  425.50  5.0381E-003  
  426.00  5.0371E-003  
  426.50  5.0526E-003  
  427.00  5.0372E-003  
  427.50  5.0692E-003  
  428.00  5.2024E-003  
  428.50  5.2559E-003  
  429.00  5.3194E-003  
  429.50  5.3743E-003  
  430.00  5.4078E-003  
  430.50  5.4660E-003  
  431.00  5.4749E-003  
  431.50  5.4408E-003  
  432.00  5.4436E-003  
  432.50  5.4842E-003  
  433.00  5.5972E-003  
  433.50  5.6954E-003  
  434.00  5.7591E-003  
  434.50  5.7969E-003  
  435.00  5.8189E-003  
  435.50  5.9034E-003  
  436.00  6.0338E-003  
  436.50  6.1070E-003  
  437.00  6.1572E-003  
  437.50  6.1383E-003  
  438.00  6.1751E-003  
  438.50  6.2383E-003  
  439.00  6.2737E-003  
  439.50  6.3114E-003  
  440.00  6.3068E-003  
  440.50  6.3526E-003  
  441.00  6.4057E-003  
  441.50  6.4545E-003  
  442.00  6.5986E-003  
  442.50  6.6560E-003  
  443.00  6.7106E-003  
  443.50  6.7667E-003  
  444.00  6.8220E-003  
  444.50  6.9309E-003  
  445.00  7.0006E-003  
  445.50  7.0176E-003  
  446.00  7.0618E-003  
  446.50  7.0988E-003  
  447.00  7.0865E-003  
  447.50  7.0669E-003  
  448.00  7.0808E-003  
  448.50  7.1679E-003  
  449.00  7.2824E-003  
  449.50  7.4134E-003  
  450.00  7.4877E-003  
  450.50  7.5739E-003  
  451.00  7.6198E-003  
  451.50  7.6671E-003  
  452.00  7.7413E-003  
  452.50  7.8053E-003  
  453.00  7.8887E-003  
  453.50  7.8875E-003  
  454.00  7.9036E-003  
  454.50  7.8677E-003  
  455.00  7.9009E-003  
  455.50  7.9394E-003  
  456.00  7.9864E-003  
  456.50  8.0797E-003  
  457.00  8.2183E-003  
  457.50  8.3953E-003  
  458.00  8.5183E-003  
  458.50  8.5971E-003  
  459.00  8.6366E-003  
  459.50  8.6927E-003  
  460.00  8.7746E-003  
  460.50  8.8842E-003  
  461.00  8.9953E-003  
  461.50  9.0858E-003  
  462.00  9.1331E-003  
  462.50  9.1467E-003  
  463.00  9.1706E-003  
  463.50  9.2087E-003  
  464.00  9.2307E-003  
  464.50  9.3500E-003  
  465.00  9.4918E-003  
  465.50  9.5700E-003  
  466.00  9.5986E-003  
  466.50  9.5844E-003  
  467.00  9.5944E-003  
  467.50  9.6464E-003  
  468.00  9.7005E-003  
  468.50  9.7174E-003  
  469.00  9.7832E-003  
  469.50  9.8957E-003  
  470.00  9.9727E-003  
  470.50  1.0117E-002  
  471.00  1.0120E-002  
  471.50  1.0118E-002  
  472.00  1.0202E-002  
  472.50  1.0306E-002  
  473.00  1.0425E-002  
  473.50  1.0538E-002  
  474.00  1.0571E-002  
  474.50  1.0671E-002  
  475.00  1.0746E-002  
  475.50  1.0818E-002  
  476.00  1.0871E-002  
  476.50  1.0945E-002  
  477.00  1.1049E-002  
  477.50  1.1152E-002  
  478.00  1.1205E-002  
  478.50  1.1233E-002  
  479.00  1.1284E-002  
  479.50  1.1350E-002  
  480.00  1.1451E-002  
  480.50  1.1544E-002  
  481.00  1.1567E-002  
  481.50  1.1601E-002  
  482.00  1.1655E-002  
  482.50  1.1747E-002  
  483.00  1.1874E-002  
  483.50  1.1966E-002  
  484.00  1.2033E-002  
  484.50  1.2128E-002  
  485.00  1.2217E-002  
  485.50  1.2293E-002  
  486.00  1.2323E-002  
  486.50  1.2353E-002  
  487.00  1.2391E-002  
  487.50  1.2482E-002  
  488.00  1.2585E-002  
  488.50  1.2673E-002  
  489.00  1.2777E-002  
  489.50  1.2828E-002  
  490.00  1.2886E-002  
  490.50  1.2930E-002  
  491.00  1.3008E-002  
  491.50  1.3092E-002  
  492.00  1.3204E-002  
  492.50  1.3315E-002  
  493.00  1.3438E-002  
  493.50  1.3558E-002  
  494.00  1.3605E-002  
  494.50  1.3634E-002  
  495.00  1.3655E-002  
  495.50  1.3746E-002  
  496.00  1.3844E-002  
  496.50  1.3993E-002  
  497.00  1.4126E-002  
  497.50  1.4265E-002  
  498.00  1.4353E-002  
  498.50  1.4396E-002  
  499.00  1.4488E-002  
  499.50  1.4584E-002  
  500.00  1.4724E-002  
  500.50  1.4801E-002  
  501.00  1.4895E-002  
  501.50  1.5002E-002  
  502.00  1.5145E-002  
  502.50  1.5282E-002  
  503.00  1.5386E-002  
  503.50  1.5495E-002  
  504.00  1.5644E-002  
  504.50  1.5772E-002  
  505.00  1.5891E-002  
  505.50  1.5982E-002  
  506.00  1.6113E-002  
  506.50  1.6231E-002  
  507.00  1.6323E-002  
  507.50  1.6375E-002  
  508.00  1.6460E-002  
  508.50  1.6580E-002  
  509.00  1.6702E-002  
  509.50  1.6822E-002  
  510.00  1.6911E-002  
  510.50  1.7048E-002  
  511.00  1.7224E-002  
  511.50  1.7389E-002  
  512.00  1.7563E-002  
  512.50  1.7699E-002  
  513.00  1.7846E-002  
  513.50  1.7997E-002  
  514.00  1.8100E-002  
  514.50  1.8157E-002  
  515.00  1.8217E-002  
  515.50  1.8326E-002  
  516.00  1.8493E-002  
  516.50  1.8703E-002  
  517.00  1.8862E-002  
  517.50  1.9015E-002  
  518.00  1.9146E-002  
  518.50  1.9256E-002  
  519.00  1.9386E-002  
  519.50  1.9499E-002  
  520.00  1.9617E-002  
  520.50  1.9716E-002  
  521.00  1.9857E-002  
  521.50  2.0003E-002  
  522.00  2.0143E-002  
  522.50  2.0324E-002  
  523.00  2.0500E-002  
  523.50  2.0708E-002  
  524.00  2.0843E-002  
  524.50  2.0954E-002  
  525.00  2.1106E-002  
  525.50  2.1275E-002  
  526.00  2.1421E-002  
  526.50  2.1565E-002  
  527.00  2.1715E-002  
  527.50  2.1873E-002  
  528.00  2.2018E-002  
  528.50  2.2153E-002  
  529.00  2.2273E-002  
  529.50  2.2353E-002  
  530.00  2.2440E-002  
  530.50  2.2585E-002  
  531.00  2.2815E-002  
  531.50  2.2998E-002  
  532.00  2.3148E-002  
  532.50  2.3313E-002  
  533.00  2.3478E-002  
  533.50  2.3656E-002  
  534.00  2.3767E-002  
  534.50  2.3869E-002  
  535.00  2.3956E-002  
  535.50  2.4076E-002  
  536.00  2.4247E-002  
  536.50  2.4389E-002  
  537.00  2.4515E-002  
  537.50  2.4563E-002  
  538.00  2.4696E-002  
  538.50  2.4885E-002  
  539.00  2.5120E-002  
  539.50  2.5327E-002  
  540.00  2.5514E-002  
  540.50  2.5686E-002  
  541.00  2.5807E-002  
  541.50  2.5959E-002  
  542.00  2.6072E-002  
  542.50  2.6191E-002  
  543.00  2.6377E-002  
  543.50  2.6507E-002  
  544.00  2.6654E-002  
  544.50  2.6781E-002  
  545.00  2.6941E-002  
  545.50  2.7130E-002  
  546.00  2.7254E-002  
  546.50  2.7339E-002  
  547.00  2.7439E-002  
  547.50  2.7551E-002  
  548.00  2.7703E-002  
  548.50  2.7879E-002  
  549.00  2.8047E-002  
  549.50  2.8209E-002  
  550.00  2.8298E-002  
  550.50  2.8437E-002  
  551.00  2.8579E-002  
  551.50  2.8772E-002  
  552.00  2.8958E-002  
  552.50  2.9112E-002  
  553.00  2.9256E-002  
  553.50  2.9442E-002  
  554.00  2.9612E-002  
  554.50  2.9784E-002  
  555.00  2.9890E-002  
  555.50  2.9988E-002  
  556.00  3.0086E-002  
  556.50  3.0175E-002  
  557.00  3.0320E-002  
  557.50  3.0531E-002  
  558.00  3.0778E-002  
  558.50  3.0969E-002  
  559.00  3.1114E-002  
  559.50  3.1277E-002  
  560.00  3.1475E-002  
  560.50  3.1639E-002  
  561.00  3.1760E-002  
  561.50  3.1872E-002  
  562.00  3.1998E-002  
  562.50  3.2096E-002  
  563.00  3.2187E-002  
  563.50  3.2312E-002  
  564.00  3.2448E-002  
  564.50  3.2591E-002  
  565.00  3.2762E-002  
  565.50  3.2886E-002  
  566.00  3.3080E-002  
  566.50  3.3190E-002  
  567.00  3.3264E-002  
  567.50  3.3273E-002  
  568.00  3.3342E-002  
  568.50  3.3451E-002  
  569.00  3.3593E-002  
  569.50  3.3709E-002  
  570.00  3.3876E-002  
  570.50  3.4115E-002  
  571.00  3.4371E-002  
  571.50  3.4531E-002  
  572.00  3.4607E-002  
  572.50  3.4619E-002  
  573.00  3.4648E-002  
  573.50  3.4715E-002  
  574.00  3.4822E-002  
  574.50  3.5012E-002  
  575.00  3.5215E-002  
  575.50  3.5432E-002  
  576.00  3.5597E-002  
  576.50  3.5713E-002  
  577.00  3.5749E-002  
  577.50  3.5817E-002  
  578.00  3.5942E-002  
  578.50  3.6120E-002  
  579.00  3.6295E-002  
  579.50  3.6371E-002  
  580.00  3.6443E-002  
  580.50  3.6548E-002  
  581.00  3.6664E-002  
  581.50  3.6854E-002  
  582.00  3.6994E-002  
  582.50  3.7118E-002  
  583.00  3.7227E-002  
  583.50  3.7303E-002  
  584.00  3.7413E-002  
  584.50  3.7489E-002  
  585.00  3.7578E-002  
  585.50  3.7741E-002  
  586.00  3.7869E-002  
  586.50  3.8036E-002  
  587.00  3.8168E-002  
  587.50  3.8276E-002  
  588.00  3.8447E-002  
  588.50  3.8555E-002  
  589.00  3.8693E-002  
  589.50  3.8745E-002  
  590.00  3.8824E-002  
  590.50  3.8910E-002  
  591.00  3.9006E-002  
  591.50  3.9060E-002  
  592.00  3.9150E-002  
  592.50  3.9348E-002  
  593.00  3.9583E-002  
  593.50  3.9665E-002  
  594.00  3.9727E-002  
  594.50  3.9761E-002  
  595.00  3.9880E-002  
  595.50  3.9914E-002  
  596.00  3.9974E-002  
  596.50  4.0096E-002  
  597.00  4.0236E-002  
  597.50  4.0337E-002  
  598.00  4.0435E-002  
  598.50  4.0536E-002  
  599.00  4.0664E-002  
  599.50  4.0755E-002  
  600.00  4.0797E-002  
  600.50  4.0828E-002  
  601.00  4.0898E-002  
  601.50  4.1027E-002  
  602.00  4.1221E-002  
  602.50  4.1351E-002  
  603.00  4.1415E-002  
  603.50  4.1483E-002  
  604.00  4.1557E-002  
  604.50  4.1670E-002  
  605.00  4.1756E-002  
  605.50  4.1862E-002  
  606.00  4.1978E-002  
  606.50  4.2127E-002  
  607.00  4.2191E-002  
  607.50  4.2220E-002  
  608.00  4.2253E-002  
  608.50  4.2369E-002  
  609.00  4.2528E-002  
  609.50  4.2664E-002  
  610.00  4.2765E-002  
  610.50  4.2808E-002  
  611.00  4.2891E-002  
  611.50  4.3016E-002  
  612.00  4.3190E-002  
  612.50  4.3318E-002  
  613.00  4.3388E-002  
  613.50  4.3497E-002  
  614.00  4.3598E-002  
  614.50  4.3642E-002  
  615.00  4.3639E-002  
  615.50  4.3601E-002  
  616.00  4.3660E-002  
  616.50  4.3751E-002  
  617.00  4.3917E-002  
  617.50  4.4051E-002  
  618.00  4.4089E-002  
  618.50  4.4154E-002  
  619.00  4.4259E-002  
  619.50  4.4408E-002  
  620.00  4.4497E-002  
  620.50  4.4503E-002  
  621.00  4.4505E-002  
  621.50  4.4524E-002  
  622.00  4.4611E-002  
  622.50  4.4698E-002  
  623.00  4.4707E-002  
  623.50  4.4684E-002  
  624.00  4.4733E-002  
  624.50  4.4897E-002  
  625.00  4.5090E-002  
  625.50  4.5230E-002  
  626.00  4.5342E-002  
  626.50  4.5375E-002  
  627.00  4.5471E-002  
  627.50  4.5548E-002  
  628.00  4.5689E-002  
  628.50  4.5783E-002  
  629.00  4.5905E-002  
  629.50  4.5977E-002  
  630.00  4.6055E-002  
  630.50  4.6144E-002  
  631.00  4.6307E-002  
  631.50  4.6398E-002  
  632.00  4.6438E-002  
  632.50  4.6406E-002  
  633.00  4.6434E-002  
  633.50  4.6528E-002  
  634.00  4.6652E-002  
  634.50  4.6698E-002  
  635.00  4.6714E-002  
  635.50  4.6685E-002  
  636.00  4.6836E-002  
  636.50  4.7003E-002  
  637.00  4.7208E-002  
  637.50  4.7302E-002  
  638.00  4.7368E-002  
  638.50  4.7438E-002  
  639.00  4.7460E-002  
  639.50  4.7473E-002  
  640.00  4.7426E-002  
  640.50  4.7377E-002  
  641.00  4.7387E-002  
  641.50  4.7488E-002  
  642.00  4.7677E-002  
  642.50  4.7828E-002  
  643.00  4.7875E-002  
  643.50  4.7952E-002  
  644.00  4.8016E-002  
  644.50  4.8177E-002  
  645.00  4.8274E-002  
  645.50  4.8334E-002  
  646.00  4.8322E-002  
  646.50  4.8349E-002  
  647.00  4.8385E-002  
  647.50  4.8352E-002  
  648.00  4.8368E-002  
  648.50  4.8497E-002  
  649.00  4.8720E-002  
  649.50  4.8808E-002  
  650.00  4.8870E-002  
  650.50  4.8928E-002  
  651.00  4.9044E-002  
  651.50  4.9097E-002  
  652.00  4.9170E-002  
  652.50  4.9220E-002  
  653.00  4.9293E-002  
  653.50  4.9305E-002  
  654.00  4.9354E-002  
  654.50  4.9335E-002  
  655.00  4.9395E-002  
  655.50  4.9423E-002  
  656.00  4.9522E-002  
  656.50  4.9517E-002  
  657.00  4.9563E-002  
  657.50  4.9616E-002  
  658.00  4.9758E-002  
  658.50  5.0020E-002  
  659.00  5.0203E-002  
  659.50  5.0309E-002  
  660.00  5.0175E-002  
  660.50  5.0106E-002  
  661.00  5.0024E-002  
  661.50  5.0021E-002  
  662.00  5.0079E-002  
  662.50  5.0259E-002  
  663.00  5.0415E-002  
  663.50  5.0473E-002  
  664.00  5.0441E-002  
  664.50  5.0399E-002  
  665.00  5.0452E-002  
  665.50  5.0476E-002  
  666.00  5.0508E-002  
  666.50  5.0617E-002  
  667.00  5.0821E-002  
  667.50  5.0980E-002  
  668.00  5.0943E-002  
  668.50  5.0902E-002  
  669.00  5.0897E-002  
  669.50  5.0895E-002  
  670.00  5.0918E-002  
  670.50  5.1022E-002  
  671.00  5.1137E-002  
  671.50  5.1156E-002  
  672.00  5.1148E-002  
  672.50  5.1189E-002  
  673.00  5.1271E-002  
  673.50  5.1306E-002  
  674.00  5.1206E-002  
  674.50  5.1187E-002  
  675.00  5.1236E-002  
  675.50  5.1391E-002  
  676.00  5.1502E-002  
  676.50  5.1515E-002  
  677.00  5.1571E-002  
  677.50  5.1644E-002  
  678.00  5.1738E-002  
  678.50  5.1760E-002  
  679.00  5.1735E-002  
  679.50  5.1768E-002  
  680.00  5.1810E-002  
  680.50  5.1934E-002  
  681.00  5.1948E-002  
  681.50  5.2018E-002  
  682.00  5.2004E-002  
  682.50  5.2146E-002  
  683.00  5.2340E-002  
  683.50  5.2494E-002  
  684.00  5.2610E-002  
  684.50  5.2573E-002  
  685.00  5.2515E-002  
  685.50  5.2465E-002  
  686.00  5.2652E-002  
  686.50  5.2888E-002  
  687.00  5.3121E-002  
  687.50  5.3195E-002  
  688.00  5.3178E-002  
  688.50  5.3208E-002  
  689.00  5.3101E-002  
  689.50  5.3252E-002  
  690.00  5.3420E-002  
  690.50  5.3608E-002  
  691.00  5.3667E-002  
  691.50  5.3714E-002  
  692.00  5.3851E-002  
  692.50  5.3893E-002  
  693.00  5.3945E-002  
  693.50  5.4052E-002  
  694.00  5.4131E-002  
  694.50  5.4058E-002  
  695.00  5.4012E-002  
  695.50  5.4030E-002  
  696.00  5.4203E-002  
  696.50  5.4373E-002  
  697.00  5.4487E-002  
  697.50  5.4482E-002  
  698.00  5.4563E-002  
  698.50  5.4496E-002  
  699.00  5.4487E-002  
  699.50  5.4435E-002  
  700.00  5.4695E-002  
  700.50  5.4929E-002  
  701.00  5.5129E-002  
  701.50  5.5174E-002  
  702.00  5.5264E-002  
  702.50  5.5429E-002  
  703.00  5.5384E-002  
  703.50  5.5323E-002  
  704.00  5.5254E-002  
  704.50  5.5404E-002  
  705.00  5.5519E-002  
  705.50  5.5601E-002  
  706.00  5.5602E-002  
  706.50  5.5599E-002  
  707.00  5.5557E-002  
  707.50  5.5741E-002  
  708.00  5.5832E-002  
  708.50  5.5947E-002  
  709.00  5.5922E-002  
  709.50  5.5921E-002  
  710.00  5.5875E-002  
  710.50  5.5856E-002  
  711.00  5.6120E-002  
  711.50  5.6328E-002  
  712.00  5.6415E-002  
  712.50  5.6296E-002  
  713.00  5.6371E-002  
  713.50  5.6532E-002  
  714.00  5.6802E-002  
  714.50  5.6894E-002  
  715.00  5.6881E-002  
  715.50  5.6672E-002  
  716.00  5.6692E-002  
  716.50  5.6892E-002  
  717.00  5.7123E-002  
  717.50  5.7321E-002  
  718.00  5.7491E-002  
  718.50  5.7652E-002  
  719.00  5.7711E-002  
  719.50  5.7781E-002  
  720.00  5.7750E-002  
  720.50  5.7788E-002  
  721.00  5.7843E-002  
  721.50  5.7990E-002  
  722.00  5.7928E-002  
  722.50  5.7786E-002  
  723.00  5.7923E-002  
  723.50  5.8171E-002  
  724.00  5.8354E-002  
  724.50  5.8321E-002  
  725.00  5.8420E-002  
  725.50  5.8566E-002  
  726.00  5.8673E-002  
  726.50  5.8619E-002  
  727.00  5.8553E-002  
  727.50  5.8564E-002  
  728.00  5.8706E-002  
  728.50  5.9056E-002  
  729.00  5.9266E-002  
  729.50  5.9326E-002  
  730.00  5.9312E-002  
  730.50  5.9481E-002  
  731.00  5.9426E-002  
  731.50  5.9158E-002  
  732.00  5.9139E-002  
  732.50  5.9383E-002  
  733.00  5.9665E-002  
  733.50  5.9794E-002  
  734.00  5.9971E-002  
  734.50  6.0281E-002  
  735.00  6.0459E-002  
  735.50  6.0554E-002  
  736.00  6.0263E-002  
  736.50  6.0085E-002  
  737.00  5.9977E-002  
  737.50  6.0042E-002  
  738.00  6.0221E-002  
  738.50  6.0423E-002  
  739.00  6.0742E-002  
  739.50  6.0752E-002  
  740.00  6.0633E-002  
  740.50  6.0576E-002  
  741.00  6.0567E-002  
  741.50  6.0643E-002  
  742.00  6.0915E-002  
  742.50  6.1282E-002  
  743.00  6.1436E-002  
  743.50  6.1449E-002  
  744.00  6.1457E-002  
  744.50  6.1186E-002  
  745.00  6.1024E-002  
  745.50  6.1037E-002  
  746.00  6.1322E-002  
  746.50  6.1375E-002  
  747.00  6.1385E-002  
  747.50  6.1423E-002  
  748.00  6.1503E-002  
  748.50  6.1395E-002  
  749.00  6.1287E-002  
  749.50  6.1451E-002  
  750.00  6.1899E-002  
  750.50  6.2150E-002  
  751.00  6.2042E-002  
  751.50  6.1826E-002  
  752.00  6.1709E-002  
  752.50  6.1715E-002  
  753.00  6.1807E-002  
  753.50  6.2012E-002  
  754.00  6.2346E-002  
  754.50  6.2511E-002  
  755.00  6.2472E-002  
  755.50  6.2187E-002  
  756.00  6.2192E-002  
  756.50  6.2329E-002  
  757.00  6.2547E-002  
  757.50  6.2492E-002  
  758.00  6.2657E-002  
  758.50  6.2738E-002  
  759.00  6.2706E-002  
  759.50  6.2494E-002  
  760.00  6.2493E-002  
  760.50  6.2525E-002  
  761.00  6.2751E-002  
  761.50  6.2883E-002  
  762.00  6.3101E-002  
  762.50  6.3246E-002  
  763.00  6.3461E-002  
  763.50  6.3494E-002  
  764.00  6.3400E-002  
  764.50  6.3202E-002  
  765.00  6.3170E-002  
  765.50  6.3298E-002  
  766.00  6.3191E-002  
  766.50  6.3293E-002  
  767.00  6.3160E-002  
  767.50  6.3258E-002  
  768.00  6.3464E-002  
  768.50  6.3824E-002  
  769.00  6.3768E-002  
  769.50  6.3479E-002  
  770.00  6.3409E-002  
  770.50  6.3568E-002  
  771.00  6.3788E-002  
  771.50  6.3881E-002  
  772.00  6.3747E-002  
  772.50  6.3700E-002  
  773.00  6.3886E-002  
  773.50  6.4229E-002  
  774.00  6.4130E-002  
  774.50  6.4064E-002  
  775.00  6.3814E-002  
  775.50  6.3875E-002  
  776.00  6.3874E-002  
  776.50  6.3978E-002  
  777.00  6.4221E-002  
  777.50  6.4468E-002  
  778.00  6.4537E-002  
  778.50  6.4334E-002  
  779.00  6.4049E-002  
  779.50  6.3898E-002  
  780.00  6.4223E-002  
  780.50  6.4295E-002  
  781.00  6.4582E-002  
  781.50  6.4907E-002  
  782.00  6.5098E-002  
  782.50  6.4607E-002  
  783.00  6.4351E-002  
  783.50  6.4520E-002  
  784.00  6.4881E-002  
  784.50  6.5252E-002  
  785.00  6.5383E-002  
  785.50  6.5416E-002  
  786.00  6.5353E-002  
  786.50  6.5460E-002  
  787.00  6.5271E-002  
  787.50  6.5268E-002  
  788.00  6.5194E-002  
  788.50  6.5119E-002  
  789.00  6.5009E-002  
  789.50  6.4985E-002  
  790.00  6.5194E-002  
  790.50  6.5395E-002  
  791.00  6.5344E-002  
  791.50  6.5055E-002  
  792.00  6.5049E-002  
  792.50  6.5202E-002  
  793.00  6.5365E-002  
  793.50  6.5197E-002  
  794.00  6.5240E-002  
  794.50  6.5366E-002  
  795.00  6.5565E-002  
  795.50  6.5398E-002  
  796.00  6.5524E-002  
  796.50  6.5674E-002  
  797.00  6.5878E-002  
  797.50  6.5884E-002  
  798.00  6.6287E-002  
  798.50  6.6589E-002  
  799.00  6.7061E-002  
  799.50  6.7432E-002  
  800.00  6.7160E-002  
  800.50  6.6851E-002  
  801.00  6.6631E-002  
  801.50  6.6786E-002  
  802.00  6.6906E-002  
  802.50  6.7102E-002  
  803.00  6.7233E-002  
  803.50  6.7017E-002  
  804.00  6.6556E-002  
  804.50  6.6517E-002  
  805.00  6.7021E-002  
  805.50  6.7307E-002  
  806.00  6.7191E-002  
  806.50  6.6922E-002  
  807.00  6.6681E-002  
  807.50  6.6739E-002  
  808.00  6.7140E-002  
  808.50  6.7886E-002  
  809.00  6.8464E-002  
  809.50  6.7941E-002  
  810.00  6.7572E-002  
  810.50  6.7329E-002  
  811.00  6.7146E-002  
  811.50  6.6827E-002  
  812.00  6.7068E-002  
  812.50  6.7687E-002  
  813.00  6.7914E-002  
  813.50  6.8254E-002  
  814.00  6.8320E-002  
  814.50  6.8285E-002  
  815.00  6.8202E-002  
  815.50  6.8089E-002  
  816.00  6.8060E-002  
  816.50  6.8616E-002  
  817.00  6.9019E-002  
  817.50  6.8725E-002  
  818.00  6.8169E-002  
  818.50  6.8277E-002  
  819.00  6.8820E-002  
  819.50  6.8730E-002  
  820.00  6.8704E-002  
  820.50  6.8597E-002  
  821.00  6.8664E-002  
  821.50  6.8154E-002  
  822.00  6.8271E-002  
  822.50  6.8467E-002  
  823.00  6.8680E-002  
  823.50  6.8266E-002  
  824.00  6.8135E-002  
  824.50  6.8083E-002  
  825.00  6.8187E-002  
  825.50  6.8164E-002  
  826.00  6.8350E-002  
  826.50  6.8225E-002  
  827.00  6.8052E-002  
  827.50  6.8178E-002  
  828.00  6.8411E-002  
  828.50  6.8907E-002  
  829.00  6.8939E-002  
  829.50  6.8570E-002  
  830.00  6.8581E-002  
  830.50  6.8815E-002  
  831.00  6.8739E-002  
  831.50  6.8724E-002  
  832.00  6.8773E-002  
  832.50  6.9022E-002  
  833.00  6.9418E-002  
  833.50  6.9519E-002  
  834.00  6.9361E-002  
  834.50  6.9580E-002  
  835.00  6.9485E-002  
  835.50  6.9247E-002  
  836.00  6.8831E-002  
  836.50  6.8653E-002  
  837.00  6.8818E-002  
  837.50  6.9107E-002  
  838.00  6.8944E-002  
  838.50  6.8447E-002  
  839.00  6.8496E-002  
  839.50  6.8345E-002  
  840.00  6.8571E-002  
  840.50  6.8751E-002  
  841.00  6.9134E-002  
  841.50  6.9207E-002  
  842.00  6.9089E-002  
  842.50  6.9093E-002  
  843.00  6.9210E-002  
  843.50  6.9547E-002  
  844.00  6.9722E-002  
  844.50  6.9592E-002  
  845.00  7.0059E-002  
  845.50  7.0473E-002  
  846.00  7.0337E-002  
  846.50  7.0358E-002  
  847.00  6.9937E-002  
  847.50  6.9629E-002  
  848.00  7.0016E-002  
  848.50  7.1164E-002  
  849.00  7.1318E-002  
  849.50  7.0667E-002  
  850.00  7.0093E-002  
  850.50  7.0387E-002  
  851.00  7.0892E-002  
  851.50  7.0907E-002  
  852.00  7.1204E-002  
  852.50  7.0745E-002  
  853.00  7.0586E-002  
  853.50  7.0563E-002  
  854.00  7.0921E-002  
  854.50  7.0644E-002  
  855.00  7.0688E-002  
  855.50  7.1276E-002  
  856.00  7.2290E-002  
  856.50  7.2437E-002  
  857.00  7.2084E-002  
  857.50  7.2053E-002  
  858.00  7.1980E-002  
  858.50  7.1935E-002  
  859.00  7.2059E-002  
  859.50  7.2138E-002  
  860.00  7.2408E-002  
  860.50  7.1972E-002  
  861.00  7.1303E-002  
  861.50  7.1196E-002  
  862.00  7.1011E-002  
  862.50  7.1677E-002  
  863.00  7.2535E-002  
  863.50  7.3068E-002  
  864.00  7.1954E-002  
  864.50  7.1669E-002  
  865.00  7.2231E-002  
  865.50  7.3094E-002  
  866.00  7.3568E-002  
  866.50  7.3122E-002  
  867.00  7.2631E-002  
  867.50  7.2370E-002  
  868.00  7.3144E-002  
  868.50  7.3768E-002  
  869.00  7.3133E-002  
  869.50  7.2777E-002  
  870.00  7.2894E-002  
  870.50  7.3416E-002  
  871.00  7.3796E-002  
  871.50  7.4530E-002  
  872.00  7.4592E-002  
  872.50  7.4484E-002  
  873.00  7.3826E-002  
  873.50  7.3299E-002  
  874.00  7.2966E-002  
  874.50  7.3192E-002  
  875.00  7.3880E-002  
  875.50  7.4432E-002  
  876.00  7.4094E-002  
  876.50  7.4265E-002  
  877.00  7.5329E-002  
  877.50  7.5548E-002  
  878.00  7.5261E-002  
  878.50  7.5048E-002  
  879.00  7.5111E-002  
  879.50  7.4907E-002  
  880.00  7.3793E-002  
  880.50  7.3663E-002  
  881.00  7.4383E-002  
  881.50  7.5120E-002  
  882.00  7.5225E-002  
  882.50  7.5573E-002  
  883.00  7.5351E-002  
  883.50  7.4502E-002  
  884.00  7.3795E-002  
  884.50  7.4376E-002  
  885.00  7.5646E-002  
  885.50  7.6018E-002  
  886.00  7.6084E-002  
  886.50  7.6251E-002  
  887.00  7.8002E-002  
  887.50  7.8637E-002  
  888.00  7.7448E-002  
  888.50  7.7073E-002  
  889.00  7.7128E-002  
  889.50  7.6224E-002  
  890.00  7.5933E-002  
  890.50  7.5737E-002  
  891.00  7.5469E-002  
  891.50  7.5139E-002  
  892.00  7.5398E-002  
  892.50  7.6180E-002  
  893.00  7.6113E-002  
  893.50  7.6111E-002  
  894.00  7.6817E-002  
  894.50  7.7815E-002  
  895.00  7.8000E-002  
  895.50  7.8347E-002  
  896.00  7.8058E-002  
  896.50  7.6683E-002  
  897.00  7.6088E-002  
  897.50  7.6199E-002  
  898.00  7.6764E-002  
  898.50  7.7275E-002  
  899.00  7.6896E-002  
  899.50  1.5193E-003  
