
# From lspdd.org
# 
# Name: DEL LightingScience PAR20 Domestique
# Indice spectral Valeur 
# MSI 0.29 
# SLI 0.50 
# IPI 0.68 
# Pourcentage de bleu 17.4 
# Caractéristique Valeur 
# CCT calculée (K) 2977 
# CCT du fabricant (K) 3000 
# Tension (V) 120 
# Puissance (W) 8.0 
# Efficacité lumineuse (Lum/W) 43.8 
#
# Image: '/app/system/img_2s/2570/medium_image2.JPG?1413486385'
# Image: '/app/system/img_1s/2570/medium_image1.JPG?1413486389'
# 

  273.00  0.0000E+000  
  273.50  0.0000E+000  
  274.00  0.0000E+000  
  274.50  0.0000E+000  
  275.00  0.0000E+000  
  275.50  0.0000E+000  
  276.00  0.0000E+000  
  276.50  0.0000E+000  
  277.00  0.0000E+000  
  277.50  0.0000E+000  
  278.00  0.0000E+000  
  278.50  0.0000E+000  
  279.00  0.0000E+000  
  279.50  0.0000E+000  
  280.00  0.0000E+000  
  280.50  0.0000E+000  
  281.00  0.0000E+000  
  281.50  0.0000E+000  
  282.00  0.0000E+000  
  282.50  0.0000E+000  
  283.00  0.0000E+000  
  283.50  0.0000E+000  
  284.00  0.0000E+000  
  284.50  0.0000E+000  
  285.00  0.0000E+000  
  285.50  0.0000E+000  
  286.00  0.0000E+000  
  286.50  0.0000E+000  
  287.00  0.0000E+000  
  287.50  0.0000E+000  
  288.00  0.0000E+000  
  288.50  0.0000E+000  
  289.00  0.0000E+000  
  289.50  0.0000E+000  
  290.00  0.0000E+000  
  290.50  0.0000E+000  
  291.00  0.0000E+000  
  291.50  0.0000E+000  
  292.00  0.0000E+000  
  292.50  0.0000E+000  
  293.00  0.0000E+000  
  293.50  0.0000E+000  
  294.00  0.0000E+000  
  294.50  0.0000E+000  
  295.00  0.0000E+000  
  295.50  0.0000E+000  
  296.00  0.0000E+000  
  296.50  0.0000E+000  
  297.00  0.0000E+000  
  297.50  0.0000E+000  
  298.00  0.0000E+000  
  298.50  0.0000E+000  
  299.00  0.0000E+000  
  299.50  0.0000E+000  
  300.00  0.0000E+000  
  300.50  0.0000E+000  
  301.00  0.0000E+000  
  301.50  0.0000E+000  
  302.00  0.0000E+000  
  302.50  0.0000E+000  
  303.00  0.0000E+000  
  303.50  0.0000E+000  
  304.00  0.0000E+000  
  304.50  0.0000E+000  
  305.00  0.0000E+000  
  305.50  0.0000E+000  
  306.00  0.0000E+000  
  306.50  0.0000E+000  
  307.00  0.0000E+000  
  307.50  0.0000E+000  
  308.00  0.0000E+000  
  308.50  0.0000E+000  
  309.00  0.0000E+000  
  309.50  0.0000E+000  
  310.00  0.0000E+000  
  310.50  0.0000E+000  
  311.00  0.0000E+000  
  311.50  0.0000E+000  
  312.00  0.0000E+000  
  312.50  0.0000E+000  
  313.00  0.0000E+000  
  313.50  0.0000E+000  
  314.00  0.0000E+000  
  314.50  0.0000E+000  
  315.00  0.0000E+000  
  315.50  0.0000E+000  
  316.00  0.0000E+000  
  316.50  0.0000E+000  
  317.00  0.0000E+000  
  317.50  0.0000E+000  
  318.00  0.0000E+000  
  318.50  0.0000E+000  
  319.00  0.0000E+000  
  319.50  0.0000E+000  
  320.00  0.0000E+000  
  320.50  0.0000E+000  
  321.00  0.0000E+000  
  321.50  0.0000E+000  
  322.00  0.0000E+000  
  322.50  0.0000E+000  
  323.00  0.0000E+000  
  323.50  0.0000E+000  
  324.00  0.0000E+000  
  324.50  0.0000E+000  
  325.00  0.0000E+000  
  325.50  0.0000E+000  
  326.00  0.0000E+000  
  326.50  0.0000E+000  
  327.00  0.0000E+000  
  327.50  0.0000E+000  
  328.00  0.0000E+000  
  328.50  0.0000E+000  
  329.00  0.0000E+000  
  329.50  0.0000E+000  
  330.00  0.0000E+000  
  330.50  0.0000E+000  
  331.00  0.0000E+000  
  331.50  0.0000E+000  
  332.00  0.0000E+000  
  332.50  0.0000E+000  
  333.00  0.0000E+000  
  333.50  0.0000E+000  
  334.00  0.0000E+000  
  334.50  0.0000E+000  
  335.00  0.0000E+000  
  335.50  0.0000E+000  
  336.00  0.0000E+000  
  336.50  0.0000E+000  
  337.00  0.0000E+000  
  337.50  0.0000E+000  
  338.00  0.0000E+000  
  338.50  0.0000E+000  
  339.00  0.0000E+000  
  339.50  0.0000E+000  
  340.00  0.0000E+000  
  340.50  0.0000E+000  
  341.00  0.0000E+000  
  341.50  0.0000E+000  
  342.00  0.0000E+000  
  342.50  0.0000E+000  
  343.00  0.0000E+000  
  343.50  0.0000E+000  
  344.00  0.0000E+000  
  344.50  0.0000E+000  
  345.00  0.0000E+000  
  345.50  0.0000E+000  
  346.00  0.0000E+000  
  346.50  0.0000E+000  
  347.00  0.0000E+000  
  347.50  0.0000E+000  
  348.00  0.0000E+000  
  348.50  0.0000E+000  
  349.00  0.0000E+000  
  349.50  0.0000E+000  
  350.00  0.0000E+000  
  350.50  0.0000E+000  
  351.00  0.0000E+000  
  351.50  0.0000E+000  
  352.00  0.0000E+000  
  352.50  0.0000E+000  
  353.00  0.0000E+000  
  353.50  0.0000E+000  
  354.00  0.0000E+000  
  354.50  0.0000E+000  
  355.00  0.0000E+000  
  355.50  0.0000E+000  
  356.00  0.0000E+000  
  356.50  0.0000E+000  
  357.00  0.0000E+000  
  357.50  0.0000E+000  
  358.00  0.0000E+000  
  358.50  0.0000E+000  
  359.00  0.0000E+000  
  359.50  0.0000E+000  
  360.00  0.0000E+000  
  360.50  0.0000E+000  
  361.00  0.0000E+000  
  361.50  0.0000E+000  
  362.00  0.0000E+000  
  362.50  0.0000E+000  
  363.00  0.0000E+000  
  363.50  0.0000E+000  
  364.00  0.0000E+000  
  364.50  0.0000E+000  
  365.00  0.0000E+000  
  365.50  0.0000E+000  
  366.00  0.0000E+000  
  366.50  0.0000E+000  
  367.00  0.0000E+000  
  367.50  0.0000E+000  
  368.00  0.0000E+000  
  368.50  0.0000E+000  
  369.00  0.0000E+000  
  369.50  0.0000E+000  
  370.00  0.0000E+000  
  370.50  0.0000E+000  
  371.00  0.0000E+000  
  371.50  0.0000E+000  
  372.00  0.0000E+000  
  372.50  0.0000E+000  
  373.00  0.0000E+000  
  373.50  0.0000E+000  
  374.00  0.0000E+000  
  374.50  0.0000E+000  
  375.00  0.0000E+000  
  375.50  0.0000E+000  
  376.00  0.0000E+000  
  376.50  0.0000E+000  
  377.00  0.0000E+000  
  377.50  0.0000E+000  
  378.00  0.0000E+000  
  378.50  0.0000E+000  
  379.00  0.0000E+000  
  379.50  0.0000E+000  
  380.00  0.0000E+000  
  380.50  0.0000E+000  
  381.00  2.5185E-005  
  381.50  1.6562E-005  
  382.00  0.0000E+000  
  382.50  0.0000E+000  
  383.00  0.0000E+000  
  383.50  0.0000E+000  
  384.00  0.0000E+000  
  384.50  0.0000E+000  
  385.00  0.0000E+000  
  385.50  4.2872E-005  
  386.00  5.6947E-005  
  386.50  4.9971E-005  
  387.00  2.4809E-005  
  387.50  1.9476E-006  
  388.00  0.0000E+000  
  388.50  0.0000E+000  
  389.00  0.0000E+000  
  389.50  0.0000E+000  
  390.00  0.0000E+000  
  390.50  7.5587E-007  
  391.00  4.6899E-005  
  391.50  9.0081E-005  
  392.00  9.1617E-005  
  392.50  7.5932E-005  
  393.00  4.2877E-005  
  393.50  8.7031E-006  
  394.00  0.0000E+000  
  394.50  0.0000E+000  
  395.00  0.0000E+000  
  395.50  0.0000E+000  
  396.00  0.0000E+000  
  396.50  0.0000E+000  
  397.00  1.9950E-005  
  397.50  5.0278E-006  
  398.00  0.0000E+000  
  398.50  0.0000E+000  
  399.00  0.0000E+000  
  399.50  0.0000E+000  
  400.00  2.6900E-005  
  400.50  5.2526E-005  
  401.00  9.1364E-005  
  401.50  1.2513E-004  
  402.00  1.4494E-004  
  402.50  1.4717E-004  
  403.00  1.4079E-004  
  403.50  1.5692E-004  
  404.00  2.2073E-004  
  404.50  2.6439E-004  
  405.00  2.9299E-004  
  405.50  2.6369E-004  
  406.00  2.2143E-004  
  406.50  2.3646E-004  
  407.00  2.8068E-004  
  407.50  3.3283E-004  
  408.00  3.7883E-004  
  408.50  3.3768E-004  
  409.00  3.3204E-004  
  409.50  3.6623E-004  
  410.00  4.5040E-004  
  410.50  5.9916E-004  
  411.00  6.6420E-004  
  411.50  7.4063E-004  
  412.00  8.0883E-004  
  412.50  8.4486E-004  
  413.00  8.8846E-004  
  413.50  9.0897E-004  
  414.00  9.4221E-004  
  414.50  1.0359E-003  
  415.00  1.1340E-003  
  415.50  1.2607E-003  
  416.00  1.4367E-003  
  416.50  1.5746E-003  
  417.00  1.6980E-003  
  417.50  1.8016E-003  
  418.00  1.9268E-003  
  418.50  2.0659E-003  
  419.00  2.2485E-003  
  419.50  2.4258E-003  
  420.00  2.6283E-003  
  420.50  2.8865E-003  
  421.00  3.1150E-003  
  421.50  3.3434E-003  
  422.00  3.6090E-003  
  422.50  3.8659E-003  
  423.00  4.1347E-003  
  423.50  4.4080E-003  
  424.00  4.6655E-003  
  424.50  4.9750E-003  
  425.00  5.3180E-003  
  425.50  5.6412E-003  
  426.00  6.0293E-003  
  426.50  6.3536E-003  
  427.00  6.7248E-003  
  427.50  7.1438E-003  
  428.00  7.6251E-003  
  428.50  8.1268E-003  
  429.00  8.6585E-003  
  429.50  9.2118E-003  
  430.00  9.8141E-003  
  430.50  1.0408E-002  
  431.00  1.0962E-002  
  431.50  1.1475E-002  
  432.00  1.2069E-002  
  432.50  1.2728E-002  
  433.00  1.3421E-002  
  433.50  1.4176E-002  
  434.00  1.4988E-002  
  434.50  1.5866E-002  
  435.00  1.6813E-002  
  435.50  1.7725E-002  
  436.00  1.8618E-002  
  436.50  1.9593E-002  
  437.00  2.0581E-002  
  437.50  2.1580E-002  
  438.00  2.2594E-002  
  438.50  2.3538E-002  
  439.00  2.4603E-002  
  439.50  2.5798E-002  
  440.00  2.7093E-002  
  440.50  2.8602E-002  
  441.00  3.0104E-002  
  441.50  3.1625E-002  
  442.00  3.3157E-002  
  442.50  3.4630E-002  
  443.00  3.6293E-002  
  443.50  3.8016E-002  
  444.00  3.9821E-002  
  444.50  4.1730E-002  
  445.00  4.3567E-002  
  445.50  4.5479E-002  
  446.00  4.7368E-002  
  446.50  4.9122E-002  
  447.00  5.0815E-002  
  447.50  5.2475E-002  
  448.00  5.4108E-002  
  448.50  5.5621E-002  
  449.00  5.7019E-002  
  449.50  5.8112E-002  
  450.00  5.8959E-002  
  450.50  5.9461E-002  
  451.00  5.9713E-002  
  451.50  5.9808E-002  
  452.00  5.9726E-002  
  452.50  5.9285E-002  
  453.00  5.8422E-002  
  453.50  5.7312E-002  
  454.00  5.6102E-002  
  454.50  5.4792E-002  
  455.00  5.3466E-002  
  455.50  5.1943E-002  
  456.00  5.0292E-002  
  456.50  4.8632E-002  
  457.00  4.6968E-002  
  457.50  4.5346E-002  
  458.00  4.3656E-002  
  458.50  4.1876E-002  
  459.00  4.0145E-002  
  459.50  3.8547E-002  
  460.00  3.7201E-002  
  460.50  3.6062E-002  
  461.00  3.4943E-002  
  461.50  3.3784E-002  
  462.00  3.2668E-002  
  462.50  3.1649E-002  
  463.00  3.0764E-002  
  463.50  2.9952E-002  
  464.00  2.9148E-002  
  464.50  2.8366E-002  
  465.00  2.7727E-002  
  465.50  2.7173E-002  
  466.00  2.6567E-002  
  466.50  2.5957E-002  
  467.00  2.5282E-002  
  467.50  2.4702E-002  
  468.00  2.4174E-002  
  468.50  2.3638E-002  
  469.00  2.3073E-002  
  469.50  2.2399E-002  
  470.00  2.1712E-002  
  470.50  2.1157E-002  
  471.00  2.0664E-002  
  471.50  2.0222E-002  
  472.00  1.9777E-002  
  472.50  1.9287E-002  
  473.00  1.8878E-002  
  473.50  1.8463E-002  
  474.00  1.8003E-002  
  474.50  1.7586E-002  
  475.00  1.7154E-002  
  475.50  1.6799E-002  
  476.00  1.6449E-002  
  476.50  1.6180E-002  
  477.00  1.5906E-002  
  477.50  1.5639E-002  
  478.00  1.5366E-002  
  478.50  1.5137E-002  
  479.00  1.4979E-002  
  479.50  1.4889E-002  
  480.00  1.4843E-002  
  480.50  1.4784E-002  
  481.00  1.4704E-002  
  481.50  1.4612E-002  
  482.00  1.4577E-002  
  482.50  1.4601E-002  
  483.00  1.4662E-002  
  483.50  1.4744E-002  
  484.00  1.4814E-002  
  484.50  1.4923E-002  
  485.00  1.5015E-002  
  485.50  1.5117E-002  
  486.00  1.5186E-002  
  486.50  1.5290E-002  
  487.00  1.5386E-002  
  487.50  1.5503E-002  
  488.00  1.5665E-002  
  488.50  1.5886E-002  
  489.00  1.6168E-002  
  489.50  1.6450E-002  
  490.00  1.6757E-002  
  490.50  1.7042E-002  
  491.00  1.7374E-002  
  491.50  1.7694E-002  
  492.00  1.8044E-002  
  492.50  1.8396E-002  
  493.00  1.8783E-002  
  493.50  1.9167E-002  
  494.00  1.9567E-002  
  494.50  2.0031E-002  
  495.00  2.0506E-002  
  495.50  2.1007E-002  
  496.00  2.1558E-002  
  496.50  2.2129E-002  
  497.00  2.2742E-002  
  497.50  2.3364E-002  
  498.00  2.3995E-002  
  498.50  2.4621E-002  
  499.00  2.5296E-002  
  499.50  2.5962E-002  
  500.00  2.6653E-002  
  500.50  2.7293E-002  
  501.00  2.7898E-002  
  501.50  2.8537E-002  
  502.00  2.9261E-002  
  502.50  3.0008E-002  
  503.00  3.0742E-002  
  503.50  3.1525E-002  
  504.00  3.2327E-002  
  504.50  3.3153E-002  
  505.00  3.3924E-002  
  505.50  3.4708E-002  
  506.00  3.5526E-002  
  506.50  3.6310E-002  
  507.00  3.7108E-002  
  507.50  3.7871E-002  
  508.00  3.8743E-002  
  508.50  3.9589E-002  
  509.00  4.0408E-002  
  509.50  4.1222E-002  
  510.00  4.2071E-002  
  510.50  4.2939E-002  
  511.00  4.3808E-002  
  511.50  4.4661E-002  
  512.00  4.5548E-002  
  512.50  4.6440E-002  
  513.00  4.7323E-002  
  513.50  4.8124E-002  
  514.00  4.8920E-002  
  514.50  4.9692E-002  
  515.00  5.0448E-002  
  515.50  5.1228E-002  
  516.00  5.2021E-002  
  516.50  5.2840E-002  
  517.00  5.3690E-002  
  517.50  5.4500E-002  
  518.00  5.5372E-002  
  518.50  5.6261E-002  
  519.00  5.7094E-002  
  519.50  5.7853E-002  
  520.00  5.8565E-002  
  520.50  5.9363E-002  
  521.00  6.0066E-002  
  521.50  6.0812E-002  
  522.00  6.1540E-002  
  522.50  6.2361E-002  
  523.00  6.3185E-002  
  523.50  6.3880E-002  
  524.00  6.4570E-002  
  524.50  6.5254E-002  
  525.00  6.5921E-002  
  525.50  6.6590E-002  
  526.00  6.7220E-002  
  526.50  6.7891E-002  
  527.00  6.8627E-002  
  527.50  6.9337E-002  
  528.00  7.0025E-002  
  528.50  7.0639E-002  
  529.00  7.1222E-002  
  529.50  7.1833E-002  
  530.00  7.2435E-002  
  530.50  7.3080E-002  
  531.00  7.3774E-002  
  531.50  7.4456E-002  
  532.00  7.5090E-002  
  532.50  7.5624E-002  
  533.00  7.6171E-002  
  533.50  7.6694E-002  
  534.00  7.7227E-002  
  534.50  7.7726E-002  
  535.00  7.8234E-002  
  535.50  7.8775E-002  
  536.00  7.9360E-002  
  536.50  7.9927E-002  
  537.00  8.0447E-002  
  537.50  8.0828E-002  
  538.00  8.1201E-002  
  538.50  8.1594E-002  
  539.00  8.2192E-002  
  539.50  8.2721E-002  
  540.00  8.3282E-002  
  540.50  8.3756E-002  
  541.00  8.4194E-002  
  541.50  8.4717E-002  
  542.00  8.5218E-002  
  542.50  8.5697E-002  
  543.00  8.6178E-002  
  543.50  8.6506E-002  
  544.00  8.6926E-002  
  544.50  8.7337E-002  
  545.00  8.7737E-002  
  545.50  8.8160E-002  
  546.00  8.8551E-002  
  546.50  8.8940E-002  
  547.00  8.9340E-002  
  547.50  8.9746E-002  
  548.00  9.0217E-002  
  548.50  9.0740E-002  
  549.00  9.1229E-002  
  549.50  9.1575E-002  
  550.00  9.1878E-002  
  550.50  9.2208E-002  
  551.00  9.2613E-002  
  551.50  9.3010E-002  
  552.00  9.3381E-002  
  552.50  9.3783E-002  
  553.00  9.4208E-002  
  553.50  9.4600E-002  
  554.00  9.4943E-002  
  554.50  9.5308E-002  
  555.00  9.5633E-002  
  555.50  9.5998E-002  
  556.00  9.6316E-002  
  556.50  9.6585E-002  
  557.00  9.6967E-002  
  557.50  9.7450E-002  
  558.00  9.7859E-002  
  558.50  9.8224E-002  
  559.00  9.8485E-002  
  559.50  9.8857E-002  
  560.00  9.9296E-002  
  560.50  9.9575E-002  
  561.00  9.9811E-002  
  561.50  9.9912E-002  
  562.00  1.0023E-001  
  562.50  1.0053E-001  
  563.00  1.0083E-001  
  563.50  1.0102E-001  
  564.00  1.0117E-001  
  564.50  1.0144E-001  
  565.00  1.0175E-001  
  565.50  1.0207E-001  
  566.00  1.0230E-001  
  566.50  1.0263E-001  
  567.00  1.0292E-001  
  567.50  1.0316E-001  
  568.00  1.0337E-001  
  568.50  1.0359E-001  
  569.00  1.0381E-001  
  569.50  1.0411E-001  
  570.00  1.0434E-001  
  570.50  1.0456E-001  
  571.00  1.0479E-001  
  571.50  1.0499E-001  
  572.00  1.0532E-001  
  572.50  1.0565E-001  
  573.00  1.0588E-001  
  573.50  1.0604E-001  
  574.00  1.0615E-001  
  574.50  1.0638E-001  
  575.00  1.0661E-001  
  575.50  1.0689E-001  
  576.00  1.0717E-001  
  576.50  1.0742E-001  
  577.00  1.0769E-001  
  577.50  1.0799E-001  
  578.00  1.0832E-001  
  578.50  1.0859E-001  
  579.00  1.0874E-001  
  579.50  1.0880E-001  
  580.00  1.0895E-001  
  580.50  1.0916E-001  
  581.00  1.0937E-001  
  581.50  1.0954E-001  
  582.00  1.0971E-001  
  582.50  1.0992E-001  
  583.00  1.1025E-001  
  583.50  1.1054E-001  
  584.00  1.1077E-001  
  584.50  1.1094E-001  
  585.00  1.1100E-001  
  585.50  1.1121E-001  
  586.00  1.1145E-001  
  586.50  1.1167E-001  
  587.00  1.1199E-001  
  587.50  1.1220E-001  
  588.00  1.1244E-001  
  588.50  1.1252E-001  
  589.00  1.1270E-001  
  589.50  1.1288E-001  
  590.00  1.1321E-001  
  590.50  1.1341E-001  
  591.00  1.1361E-001  
  591.50  1.1376E-001  
  592.00  1.1396E-001  
  592.50  1.1420E-001  
  593.00  1.1438E-001  
  593.50  1.1439E-001  
  594.00  1.1446E-001  
  594.50  1.1454E-001  
  595.00  1.1475E-001  
  595.50  1.1494E-001  
  596.00  1.1513E-001  
  596.50  1.1532E-001  
  597.00  1.1542E-001  
  597.50  1.1550E-001  
  598.00  1.1561E-001  
  598.50  1.1576E-001  
  599.00  1.1598E-001  
  599.50  1.1608E-001  
  600.00  1.1623E-001  
  600.50  1.1632E-001  
  601.00  1.1650E-001  
  601.50  1.1663E-001  
  602.00  1.1669E-001  
  602.50  1.1674E-001  
  603.00  1.1684E-001  
  603.50  1.1692E-001  
  604.00  1.1697E-001  
  604.50  1.1697E-001  
  605.00  1.1705E-001  
  605.50  1.1709E-001  
  606.00  1.1719E-001  
  606.50  1.1745E-001  
  607.00  1.1769E-001  
  607.50  1.1777E-001  
  608.00  1.1763E-001  
  608.50  1.1760E-001  
  609.00  1.1780E-001  
  609.50  1.1813E-001  
  610.00  1.1825E-001  
  610.50  1.1821E-001  
  611.00  1.1812E-001  
  611.50  1.1819E-001  
  612.00  1.1839E-001  
  612.50  1.1845E-001  
  613.00  1.1845E-001  
  613.50  1.1835E-001  
  614.00  1.1844E-001  
  614.50  1.1851E-001  
  615.00  1.1855E-001  
  615.50  1.1854E-001  
  616.00  1.1847E-001  
  616.50  1.1841E-001  
  617.00  1.1824E-001  
  617.50  1.1796E-001  
  618.00  1.1779E-001  
  618.50  1.1766E-001  
  619.00  1.1761E-001  
  619.50  1.1745E-001  
  620.00  1.1740E-001  
  620.50  1.1736E-001  
  621.00  1.1736E-001  
  621.50  1.1721E-001  
  622.00  1.1710E-001  
  622.50  1.1693E-001  
  623.00  1.1686E-001  
  623.50  1.1676E-001  
  624.00  1.1683E-001  
  624.50  1.1677E-001  
  625.00  1.1655E-001  
  625.50  1.1633E-001  
  626.00  1.1614E-001  
  626.50  1.1600E-001  
  627.00  1.1584E-001  
  627.50  1.1557E-001  
  628.00  1.1529E-001  
  628.50  1.1488E-001  
  629.00  1.1458E-001  
  629.50  1.1439E-001  
  630.00  1.1434E-001  
  630.50  1.1413E-001  
  631.00  1.1389E-001  
  631.50  1.1364E-001  
  632.00  1.1354E-001  
  632.50  1.1341E-001  
  633.00  1.1317E-001  
  633.50  1.1287E-001  
  634.00  1.1257E-001  
  634.50  1.1224E-001  
  635.00  1.1182E-001  
  635.50  1.1141E-001  
  636.00  1.1108E-001  
  636.50  1.1075E-001  
  637.00  1.1035E-001  
  637.50  1.1002E-001  
  638.00  1.0974E-001  
  638.50  1.0942E-001  
  639.00  1.0896E-001  
  639.50  1.0863E-001  
  640.00  1.0839E-001  
  640.50  1.0794E-001  
  641.00  1.0729E-001  
  641.50  1.0670E-001  
  642.00  1.0632E-001  
  642.50  1.0596E-001  
  643.00  1.0543E-001  
  643.50  1.0492E-001  
  644.00  1.0444E-001  
  644.50  1.0410E-001  
  645.00  1.0366E-001  
  645.50  1.0318E-001  
  646.00  1.0272E-001  
  646.50  1.0229E-001  
  647.00  1.0193E-001  
  647.50  1.0160E-001  
  648.00  1.0108E-001  
  648.50  1.0047E-001  
  649.00  9.9789E-002  
  649.50  9.9113E-002  
  650.00  9.8453E-002  
  650.50  9.7738E-002  
  651.00  9.7113E-002  
  651.50  9.6377E-002  
  652.00  9.5635E-002  
  652.50  9.5207E-002  
  653.00  9.4750E-002  
  653.50  9.4219E-002  
  654.00  9.3439E-002  
  654.50  9.2847E-002  
  655.00  9.2359E-002  
  655.50  9.1820E-002  
  656.00  9.1321E-002  
  656.50  9.0669E-002  
  657.00  9.0061E-002  
  657.50  8.9448E-002  
  658.00  8.8879E-002  
  658.50  8.8301E-002  
  659.00  8.7706E-002  
  659.50  8.7082E-002  
  660.00  8.6492E-002  
  660.50  8.5756E-002  
  661.00  8.4996E-002  
  661.50  8.4241E-002  
  662.00  8.3542E-002  
  662.50  8.2871E-002  
  663.00  8.2128E-002  
  663.50  8.1429E-002  
  664.00  8.0726E-002  
  664.50  7.9955E-002  
  665.00  7.9271E-002  
  665.50  7.8616E-002  
  666.00  7.7972E-002  
  666.50  7.7271E-002  
  667.00  7.6542E-002  
  667.50  7.5885E-002  
  668.00  7.5140E-002  
  668.50  7.4398E-002  
  669.00  7.3750E-002  
  669.50  7.3128E-002  
  670.00  7.2515E-002  
  670.50  7.1859E-002  
  671.00  7.1189E-002  
  671.50  7.0455E-002  
  672.00  6.9729E-002  
  672.50  6.8987E-002  
  673.00  6.8264E-002  
  673.50  6.7630E-002  
  674.00  6.7013E-002  
  674.50  6.6513E-002  
  675.00  6.5842E-002  
  675.50  6.5227E-002  
  676.00  6.4561E-002  
  676.50  6.3887E-002  
  677.00  6.3271E-002  
  677.50  6.2583E-002  
  678.00  6.1904E-002  
  678.50  6.1063E-002  
  679.00  6.0418E-002  
  679.50  5.9831E-002  
  680.00  5.9288E-002  
  680.50  5.8636E-002  
  681.00  5.7980E-002  
  681.50  5.7296E-002  
  682.00  5.6749E-002  
  682.50  5.6244E-002  
  683.00  5.5840E-002  
  683.50  5.5270E-002  
  684.00  5.4681E-002  
  684.50  5.3868E-002  
  685.00  5.3110E-002  
  685.50  5.2325E-002  
  686.00  5.1867E-002  
  686.50  5.1409E-002  
  687.00  5.0950E-002  
  687.50  5.0446E-002  
  688.00  4.9912E-002  
  688.50  4.9353E-002  
  689.00  4.8582E-002  
  689.50  4.7838E-002  
  690.00  4.7347E-002  
  690.50  4.6913E-002  
  691.00  4.6493E-002  
  691.50  4.5882E-002  
  692.00  4.5264E-002  
  692.50  4.4696E-002  
  693.00  4.4093E-002  
  693.50  4.3613E-002  
  694.00  4.3136E-002  
  694.50  4.2635E-002  
  695.00  4.2194E-002  
  695.50  4.1663E-002  
  696.00  4.1116E-002  
  696.50  4.0463E-002  
  697.00  3.9898E-002  
  697.50  3.9516E-002  
  698.00  3.9114E-002  
  698.50  3.8669E-002  
  699.00  3.8142E-002  
  699.50  3.7631E-002  
  700.00  3.7112E-002  
  700.50  3.6588E-002  
  701.00  3.6122E-002  
  701.50  3.5667E-002  
  702.00  3.5168E-002  
  702.50  3.4728E-002  
  703.00  3.4283E-002  
  703.50  3.3817E-002  
  704.00  3.3293E-002  
  704.50  3.2804E-002  
  705.00  3.2434E-002  
  705.50  3.1984E-002  
  706.00  3.1625E-002  
  706.50  3.1225E-002  
  707.00  3.0884E-002  
  707.50  3.0416E-002  
  708.00  2.9957E-002  
  708.50  2.9604E-002  
  709.00  2.9191E-002  
  709.50  2.8761E-002  
  710.00  2.8269E-002  
  710.50  2.7883E-002  
  711.00  2.7597E-002  
  711.50  2.7191E-002  
  712.00  2.6816E-002  
  712.50  2.6453E-002  
  713.00  2.6149E-002  
  713.50  2.5870E-002  
  714.00  2.5484E-002  
  714.50  2.5148E-002  
  715.00  2.4700E-002  
  715.50  2.4309E-002  
  716.00  2.3957E-002  
  716.50  2.3649E-002  
  717.00  2.3229E-002  
  717.50  2.2848E-002  
  718.00  2.2565E-002  
  718.50  2.2367E-002  
  719.00  2.2123E-002  
  719.50  2.1866E-002  
  720.00  2.1523E-002  
  720.50  2.1149E-002  
  721.00  2.0772E-002  
  721.50  2.0405E-002  
  722.00  2.0035E-002  
  722.50  1.9690E-002  
  723.00  1.9467E-002  
  723.50  1.9247E-002  
  724.00  1.8981E-002  
  724.50  1.8589E-002  
  725.00  1.8403E-002  
  725.50  1.8232E-002  
  726.00  1.8010E-002  
  726.50  1.7588E-002  
  727.00  1.7160E-002  
  727.50  1.6940E-002  
  728.00  1.6866E-002  
  728.50  1.6726E-002  
  729.00  1.6475E-002  
  729.50  1.6189E-002  
  730.00  1.6058E-002  
  730.50  1.5935E-002  
  731.00  1.5749E-002  
  731.50  1.5459E-002  
  732.00  1.5142E-002  
  732.50  1.4832E-002  
  733.00  1.4654E-002  
  733.50  1.4541E-002  
  734.00  1.4406E-002  
  734.50  1.4073E-002  
  735.00  1.3677E-002  
  735.50  1.3290E-002  
  736.00  1.3059E-002  
  736.50  1.2841E-002  
  737.00  1.2650E-002  
  737.50  1.2386E-002  
  738.00  1.2203E-002  
  738.50  1.2063E-002  
  739.00  1.1974E-002  
  739.50  1.1935E-002  
  740.00  1.1892E-002  
  740.50  1.1818E-002  
  741.00  1.1565E-002  
  741.50  1.1280E-002  
  742.00  1.1141E-002  
  742.50  1.0958E-002  
  743.00  1.0774E-002  
  743.50  1.0493E-002  
  744.00  1.0323E-002  
  744.50  1.0109E-002  
  745.00  9.9212E-003  
  745.50  9.7965E-003  
  746.00  9.6852E-003  
  746.50  9.4672E-003  
  747.00  9.2993E-003  
  747.50  9.1378E-003  
  748.00  8.9583E-003  
  748.50  8.6955E-003  
  749.00  8.6431E-003  
  749.50  8.6489E-003  
  750.00  8.5047E-003  
  750.50  8.3299E-003  
  751.00  8.2691E-003  
  751.50  8.3458E-003  
  752.00  8.2249E-003  
  752.50  8.0790E-003  
  753.00  7.8363E-003  
  753.50  7.6425E-003  
  754.00  7.5262E-003  
  754.50  7.5111E-003  
  755.00  7.4263E-003  
  755.50  7.1893E-003  
  756.00  7.0102E-003  
  756.50  7.0462E-003  
  757.00  7.0749E-003  
  757.50  6.9082E-003  
  758.00  6.7031E-003  
  758.50  6.5654E-003  
  759.00  6.4118E-003  
  759.50  6.2606E-003  
  760.00  6.0360E-003  
  760.50  5.9362E-003  
  761.00  5.9514E-003  
  761.50  6.0254E-003  
  762.00  5.9713E-003  
  762.50  5.7508E-003  
  763.00  5.6222E-003  
  763.50  5.5622E-003  
  764.00  5.4570E-003  
  764.50  5.1462E-003  
  765.00  4.9866E-003  
  765.50  5.0095E-003  
  766.00  5.0032E-003  
  766.50  5.0091E-003  
  767.00  4.8328E-003  
  767.50  4.5827E-003  
  768.00  4.5184E-003  
  768.50  4.5929E-003  
  769.00  4.5218E-003  
  769.50  4.3067E-003  
  770.00  4.2042E-003  
  770.50  4.1029E-003  
  771.00  4.0545E-003  
  771.50  4.0109E-003  
  772.00  3.9716E-003  
  772.50  3.8942E-003  
  773.00  3.7928E-003  
  773.50  3.8657E-003  
  774.00  3.9759E-003  
  774.50  3.8136E-003  
  775.00  3.5831E-003  
  775.50  3.3466E-003  
  776.00  3.2530E-003  
  776.50  3.1187E-003  
  777.00  3.1653E-003  
  777.50  3.1488E-003  
  778.00  2.9840E-003  
  778.50  2.8684E-003  
  779.00  2.9819E-003  
  779.50  3.1203E-003  
  780.00  3.1655E-003  
  780.50  3.1125E-003  
  781.00  2.9670E-003  
  781.50  2.8282E-003  
  782.00  2.8731E-003  
  782.50  2.9310E-003  
  783.00  2.7103E-003  
  783.50  2.4446E-003  
  784.00  2.3059E-003  
  784.50  2.2905E-003  
  785.00  2.3882E-003  
  785.50  2.4864E-003  
  786.00  2.3662E-003  
  786.50  2.2058E-003  
  787.00  1.9664E-003  
  787.50  1.9491E-003  
  788.00  1.7502E-003  
  788.50  1.6697E-003  
  789.00  1.6346E-003  
  789.50  1.8428E-003  
  790.00  1.9579E-003  
  790.50  1.8930E-003  
  791.00  1.8154E-003  
  791.50  1.8188E-003  
  792.00  1.8219E-003  
  792.50  1.6416E-003  
  793.00  1.5767E-003  
  793.50  1.5554E-003  
  794.00  1.6936E-003  
  794.50  1.6516E-003  
  795.00  1.6350E-003  
  795.50  1.5289E-003  
  796.00  1.4066E-003  
  796.50  1.2496E-003  
  797.00  1.1975E-003  
  797.50  1.0880E-003  
  798.00  9.4395E-004  
  798.50  7.9593E-004  
  799.00  1.0307E-003  
  799.50  1.1036E-003  
  800.00  1.1200E-003  
  800.50  1.1127E-003  
  801.00  1.2652E-003  
  801.50  1.1616E-003  
  802.00  9.4123E-004  
  802.50  8.5274E-004  
  803.00  9.1573E-004  
  803.50  8.9675E-004  
  804.00  7.9421E-004  
  804.50  7.6925E-004  
  805.00  7.4024E-004  
  805.50  8.6747E-004  
  806.00  8.4707E-004  
  806.50  7.4301E-004  
  807.00  5.1280E-004  
  807.50  1.6282E-004  
  808.00  3.6352E-005  
  808.50  2.5715E-004  
  809.00  6.6108E-004  
  809.50  5.6954E-004  
  810.00  2.3181E-004  
  810.50  9.0151E-007  
  811.00  0.0000E+000  
  811.50  4.9084E-005  
  812.00  2.3695E-004  
  812.50  4.4364E-004  
  813.00  3.7898E-004  
  813.50  3.6247E-004  
  814.00  3.0425E-004  
  814.50  2.1340E-004  
  815.00  2.8629E-004  
  815.50  2.8688E-004  
  816.00  8.2710E-005  
  816.50  5.2284E-005  
  817.00  3.3902E-004  
  817.50  2.3843E-004  
  818.00  1.6859E-004  
  818.50  5.2015E-005  
  819.00  2.1243E-004  
  819.50  7.3559E-006  
  820.00  0.0000E+000  
  820.50  0.0000E+000  
  821.00  1.9847E-005  
  821.50  0.0000E+000  
  822.00  0.0000E+000  
  822.50  0.0000E+000  
  823.00  6.1123E-005  
  823.50  0.0000E+000  
  824.00  0.0000E+000  
  824.50  0.0000E+000  
  825.00  0.0000E+000  
  825.50  0.0000E+000  
  826.00  0.0000E+000  
  826.50  0.0000E+000  
  827.00  0.0000E+000  
  827.50  0.0000E+000  
  828.00  0.0000E+000  
  828.50  0.0000E+000  
  829.00  0.0000E+000  
  829.50  0.0000E+000  
  830.00  0.0000E+000  
  830.50  0.0000E+000  
  831.00  0.0000E+000  
  831.50  0.0000E+000  
  832.00  0.0000E+000  
  832.50  0.0000E+000  
  833.00  0.0000E+000  
  833.50  0.0000E+000  
  834.00  0.0000E+000  
  834.50  0.0000E+000  
  835.00  0.0000E+000  
  835.50  0.0000E+000  
  836.00  0.0000E+000  
  836.50  0.0000E+000  
  837.00  0.0000E+000  
  837.50  0.0000E+000  
  838.00  0.0000E+000  
  838.50  0.0000E+000  
  839.00  0.0000E+000  
  839.50  0.0000E+000  
  840.00  0.0000E+000  
  840.50  0.0000E+000  
  841.00  0.0000E+000  
  841.50  0.0000E+000  
  842.00  0.0000E+000  
  842.50  0.0000E+000  
  843.00  0.0000E+000  
  843.50  0.0000E+000  
  844.00  0.0000E+000  
  844.50  0.0000E+000  
  845.00  0.0000E+000  
  845.50  0.0000E+000  
  846.00  0.0000E+000  
  846.50  0.0000E+000  
  847.00  0.0000E+000  
  847.50  0.0000E+000  
  848.00  0.0000E+000  
  848.50  0.0000E+000  
  849.00  0.0000E+000  
  849.50  0.0000E+000  
  850.00  0.0000E+000  
  850.50  0.0000E+000  
  851.00  0.0000E+000  
  851.50  0.0000E+000  
  852.00  0.0000E+000  
  852.50  0.0000E+000  
  853.00  0.0000E+000  
  853.50  0.0000E+000  
  854.00  0.0000E+000  
  854.50  0.0000E+000  
  855.00  0.0000E+000  
  855.50  0.0000E+000  
  856.00  0.0000E+000  
  856.50  0.0000E+000  
  857.00  0.0000E+000  
  857.50  0.0000E+000  
  858.00  0.0000E+000  
  858.50  0.0000E+000  
  859.00  0.0000E+000  
  859.50  0.0000E+000  
  860.00  0.0000E+000  
  860.50  0.0000E+000  
  861.00  0.0000E+000  
  861.50  0.0000E+000  
  862.00  0.0000E+000  
  862.50  0.0000E+000  
  863.00  0.0000E+000  
  863.50  0.0000E+000  
  864.00  0.0000E+000  
  864.50  0.0000E+000  
  865.00  0.0000E+000  
  865.50  0.0000E+000  
  866.00  0.0000E+000  
  866.50  0.0000E+000  
  867.00  0.0000E+000  
  867.50  0.0000E+000  
  868.00  0.0000E+000  
  868.50  0.0000E+000  
  869.00  0.0000E+000  
  869.50  0.0000E+000  
  870.00  0.0000E+000  
  870.50  0.0000E+000  
  871.00  0.0000E+000  
  871.50  0.0000E+000  
  872.00  0.0000E+000  
  872.50  0.0000E+000  
  873.00  0.0000E+000  
  873.50  0.0000E+000  
  874.00  0.0000E+000  
  874.50  0.0000E+000  
  875.00  0.0000E+000  
  875.50  0.0000E+000  
  876.00  0.0000E+000  
  876.50  0.0000E+000  
  877.00  0.0000E+000  
  877.50  0.0000E+000  
  878.00  0.0000E+000  
  878.50  0.0000E+000  
  879.00  0.0000E+000  
  879.50  0.0000E+000  
  880.00  0.0000E+000  
  880.50  0.0000E+000  
  881.00  0.0000E+000  
  881.50  0.0000E+000  
  882.00  0.0000E+000  
  882.50  0.0000E+000  
  883.00  0.0000E+000  
  883.50  0.0000E+000  
  884.00  0.0000E+000  
  884.50  0.0000E+000  
  885.00  0.0000E+000  
  885.50  0.0000E+000  
  886.00  0.0000E+000  
  886.50  0.0000E+000  
  887.00  0.0000E+000  
  887.50  0.0000E+000  
  888.00  0.0000E+000  
  888.50  0.0000E+000  
  889.00  0.0000E+000  
  889.50  0.0000E+000  
  890.00  0.0000E+000  
  890.50  0.0000E+000  
  891.00  0.0000E+000  
  891.50  0.0000E+000  
  892.00  0.0000E+000  
  892.50  0.0000E+000  
  893.00  0.0000E+000  
  893.50  0.0000E+000  
  894.00  0.0000E+000  
  894.50  0.0000E+000  
  895.00  0.0000E+000  
  895.50  0.0000E+000  
  896.00  0.0000E+000  
  896.50  0.0000E+000  
  897.00  0.0000E+000  
  897.50  0.0000E+000  
  898.00  0.0000E+000  
  898.50  0.0000E+000  
  899.00  0.0000E+000  
  899.50  0.0000E+000  
