
# From lspdd.org
# 
# Name: DEL LightingScience PAR20 Definity Domestique
# Indice spectral Valeur 
# MSI 0.25 
# SLI 0.47 
# IPI 0.64 
# Pourcentage de bleu 16.6 
# Caractéristique Valeur 
# CCT calculée (K) 2851 
# CCT du fabricant (K) 3000 
# Tension (V) 120 
# Puissance (W) 8.0 
# Efficacité lumineuse (Lum/W) 60.0 
#
# Image: '/app/system/img_2s/2573/medium_image2.JPG?1413486404'
# Image: '/app/system/img_1s/2573/medium_image1.JPG?1413486408'
# 

  273.00  0.0000E+000  
  273.50  0.0000E+000  
  274.00  0.0000E+000  
  274.50  0.0000E+000  
  275.00  0.0000E+000  
  275.50  0.0000E+000  
  276.00  0.0000E+000  
  276.50  0.0000E+000  
  277.00  0.0000E+000  
  277.50  0.0000E+000  
  278.00  0.0000E+000  
  278.50  0.0000E+000  
  279.00  0.0000E+000  
  279.50  0.0000E+000  
  280.00  0.0000E+000  
  280.50  0.0000E+000  
  281.00  0.0000E+000  
  281.50  0.0000E+000  
  282.00  0.0000E+000  
  282.50  0.0000E+000  
  283.00  0.0000E+000  
  283.50  0.0000E+000  
  284.00  0.0000E+000  
  284.50  0.0000E+000  
  285.00  0.0000E+000  
  285.50  0.0000E+000  
  286.00  0.0000E+000  
  286.50  0.0000E+000  
  287.00  0.0000E+000  
  287.50  0.0000E+000  
  288.00  0.0000E+000  
  288.50  0.0000E+000  
  289.00  0.0000E+000  
  289.50  0.0000E+000  
  290.00  0.0000E+000  
  290.50  0.0000E+000  
  291.00  0.0000E+000  
  291.50  0.0000E+000  
  292.00  0.0000E+000  
  292.50  0.0000E+000  
  293.00  0.0000E+000  
  293.50  0.0000E+000  
  294.00  0.0000E+000  
  294.50  0.0000E+000  
  295.00  0.0000E+000  
  295.50  0.0000E+000  
  296.00  0.0000E+000  
  296.50  0.0000E+000  
  297.00  0.0000E+000  
  297.50  0.0000E+000  
  298.00  0.0000E+000  
  298.50  0.0000E+000  
  299.00  0.0000E+000  
  299.50  0.0000E+000  
  300.00  0.0000E+000  
  300.50  0.0000E+000  
  301.00  0.0000E+000  
  301.50  0.0000E+000  
  302.00  0.0000E+000  
  302.50  3.5890E-005  
  303.00  1.3122E-004  
  303.50  2.1661E-004  
  304.00  2.5710E-004  
  304.50  1.8110E-004  
  305.00  1.3879E-004  
  305.50  1.0302E-004  
  306.00  9.3023E-005  
  306.50  9.8734E-005  
  307.00  7.1328E-005  
  307.50  9.5111E-005  
  308.00  1.3206E-004  
  308.50  1.6955E-004  
  309.00  1.7247E-004  
  309.50  1.5783E-004  
  310.00  1.4552E-004  
  310.50  1.2598E-004  
  311.00  1.7199E-004  
  311.50  1.8622E-004  
  312.00  2.1212E-004  
  312.50  2.4964E-004  
  313.00  2.5742E-004  
  313.50  2.0477E-004  
  314.00  9.7469E-005  
  314.50  5.4585E-005  
  315.00  8.0284E-005  
  315.50  1.5715E-004  
  316.00  2.1773E-004  
  316.50  2.0359E-004  
  317.00  1.2965E-004  
  317.50  9.7177E-005  
  318.00  4.9271E-005  
  318.50  4.4895E-005  
  319.00  8.0152E-005  
  319.50  9.1289E-005  
  320.00  1.0699E-004  
  320.50  1.1516E-004  
  321.00  8.9855E-005  
  321.50  1.0530E-004  
  322.00  1.4198E-004  
  322.50  1.0604E-004  
  323.00  1.1577E-004  
  323.50  1.1582E-004  
  324.00  1.3347E-004  
  324.50  1.6245E-004  
  325.00  1.4864E-004  
  325.50  1.1906E-004  
  326.00  8.3593E-005  
  326.50  8.4265E-005  
  327.00  8.0274E-005  
  327.50  7.5431E-005  
  328.00  5.9837E-005  
  328.50  6.2418E-005  
  329.00  1.0316E-004  
  329.50  1.4108E-004  
  330.00  1.8521E-004  
  330.50  1.6798E-004  
  331.00  1.6134E-004  
  331.50  1.9047E-004  
  332.00  2.0666E-004  
  332.50  2.3389E-004  
  333.00  2.3729E-004  
  333.50  2.3777E-004  
  334.00  2.2833E-004  
  334.50  1.8087E-004  
  335.00  1.6390E-004  
  335.50  1.5323E-004  
  336.00  1.6430E-004  
  336.50  2.2284E-004  
  337.00  2.1512E-004  
  337.50  2.3808E-004  
  338.00  2.2080E-004  
  338.50  2.2063E-004  
  339.00  2.4823E-004  
  339.50  2.3405E-004  
  340.00  2.4514E-004  
  340.50  2.6781E-004  
  341.00  2.3618E-004  
  341.50  2.6165E-004  
  342.00  2.8227E-004  
  342.50  2.5545E-004  
  343.00  2.3264E-004  
  343.50  1.8268E-004  
  344.00  1.3350E-004  
  344.50  9.5288E-005  
  345.00  1.2822E-004  
  345.50  1.7056E-004  
  346.00  2.0635E-004  
  346.50  2.3908E-004  
  347.00  2.1127E-004  
  347.50  1.6855E-004  
  348.00  1.9147E-004  
  348.50  2.1298E-004  
  349.00  2.0923E-004  
  349.50  2.2796E-004  
  350.00  2.0038E-004  
  350.50  1.7870E-004  
  351.00  2.1435E-004  
  351.50  1.9041E-004  
  352.00  1.7445E-004  
  352.50  1.8192E-004  
  353.00  1.7912E-004  
  353.50  1.9486E-004  
  354.00  2.1248E-004  
  354.50  2.4941E-004  
  355.00  2.6277E-004  
  355.50  2.6042E-004  
  356.00  1.9658E-004  
  356.50  1.2550E-004  
  357.00  1.2044E-004  
  357.50  1.5511E-004  
  358.00  1.7217E-004  
  358.50  1.8061E-004  
  359.00  1.9752E-004  
  359.50  2.3083E-004  
  360.00  2.7221E-004  
  360.50  2.7730E-004  
  361.00  2.7572E-004  
  361.50  2.2463E-004  
  362.00  2.3115E-004  
  362.50  2.0933E-004  
  363.00  1.9013E-004  
  363.50  2.4873E-004  
  364.00  2.9258E-004  
  364.50  3.1584E-004  
  365.00  2.5933E-004  
  365.50  1.7889E-004  
  366.00  1.0410E-004  
  366.50  7.9741E-005  
  367.00  1.1124E-004  
  367.50  1.1933E-004  
  368.00  1.4776E-004  
  368.50  1.9804E-004  
  369.00  2.2395E-004  
  369.50  2.2862E-004  
  370.00  2.0143E-004  
  370.50  2.3444E-004  
  371.00  2.5730E-004  
  371.50  2.6957E-004  
  372.00  3.0159E-004  
  372.50  2.7973E-004  
  373.00  2.9043E-004  
  373.50  2.7961E-004  
  374.00  2.1925E-004  
  374.50  1.9460E-004  
  375.00  2.1060E-004  
  375.50  2.6334E-004  
  376.00  3.0048E-004  
  376.50  3.1026E-004  
  377.00  2.7399E-004  
  377.50  2.4440E-004  
  378.00  2.2152E-004  
  378.50  2.0260E-004  
  379.00  1.6222E-004  
  379.50  1.6494E-004  
  380.00  2.3131E-004  
  380.50  3.1689E-004  
  381.00  3.9229E-004  
  381.50  3.6134E-004  
  382.00  2.8684E-004  
  382.50  2.3380E-004  
  383.00  2.3587E-004  
  383.50  2.7155E-004  
  384.00  2.8584E-004  
  384.50  3.4002E-004  
  385.00  3.8014E-004  
  385.50  4.3430E-004  
  386.00  4.4097E-004  
  386.50  4.1405E-004  
  387.00  4.0151E-004  
  387.50  3.9044E-004  
  388.00  3.6196E-004  
  388.50  3.7200E-004  
  389.00  3.3431E-004  
  389.50  3.2805E-004  
  390.00  3.6810E-004  
  390.50  3.7307E-004  
  391.00  4.5295E-004  
  391.50  5.2879E-004  
  392.00  5.3220E-004  
  392.50  5.1454E-004  
  393.00  5.0089E-004  
  393.50  4.6653E-004  
  394.00  4.5403E-004  
  394.50  3.9515E-004  
  395.00  3.2695E-004  
  395.50  3.0053E-004  
  396.00  2.9564E-004  
  396.50  3.3013E-004  
  397.00  3.4622E-004  
  397.50  3.3987E-004  
  398.00  3.3233E-004  
  398.50  3.5473E-004  
  399.00  3.7459E-004  
  399.50  4.0657E-004  
  400.00  4.5644E-004  
  400.50  4.6017E-004  
  401.00  5.1048E-004  
  401.50  5.6402E-004  
  402.00  6.0138E-004  
  402.50  6.3102E-004  
  403.00  6.0478E-004  
  403.50  5.8630E-004  
  404.00  6.0015E-004  
  404.50  6.1287E-004  
  405.00  6.3712E-004  
  405.50  6.4536E-004  
  406.00  6.4714E-004  
  406.50  6.9680E-004  
  407.00  7.5248E-004  
  407.50  7.7084E-004  
  408.00  7.6545E-004  
  408.50  6.8884E-004  
  409.00  6.4452E-004  
  409.50  6.4258E-004  
  410.00  6.8180E-004  
  410.50  7.8438E-004  
  411.00  8.8339E-004  
  411.50  9.9638E-004  
  412.00  1.0358E-003  
  412.50  1.0196E-003  
  413.00  9.7646E-004  
  413.50  9.7414E-004  
  414.00  1.0463E-003  
  414.50  1.1452E-003  
  415.00  1.2472E-003  
  415.50  1.3546E-003  
  416.00  1.4846E-003  
  416.50  1.6245E-003  
  417.00  1.7593E-003  
  417.50  1.8662E-003  
  418.00  1.9759E-003  
  418.50  2.0588E-003  
  419.00  2.1612E-003  
  419.50  2.2953E-003  
  420.00  2.5080E-003  
  420.50  2.7777E-003  
  421.00  2.9884E-003  
  421.50  3.1862E-003  
  422.00  3.3504E-003  
  422.50  3.5304E-003  
  423.00  3.7295E-003  
  423.50  3.9612E-003  
  424.00  4.2240E-003  
  424.50  4.5117E-003  
  425.00  4.8349E-003  
  425.50  5.1221E-003  
  426.00  5.4675E-003  
  426.50  5.8362E-003  
  427.00  6.2476E-003  
  427.50  6.6805E-003  
  428.00  7.0761E-003  
  428.50  7.4103E-003  
  429.00  7.8272E-003  
  429.50  8.3088E-003  
  430.00  8.9035E-003  
  430.50  9.4881E-003  
  431.00  1.0017E-002  
  431.50  1.0527E-002  
  432.00  1.1082E-002  
  432.50  1.1691E-002  
  433.00  1.2300E-002  
  433.50  1.2928E-002  
  434.00  1.3622E-002  
  434.50  1.4390E-002  
  435.00  1.5261E-002  
  435.50  1.6091E-002  
  436.00  1.6937E-002  
  436.50  1.7742E-002  
  437.00  1.8558E-002  
  437.50  1.9427E-002  
  438.00  2.0324E-002  
  438.50  2.1197E-002  
  439.00  2.2047E-002  
  439.50  2.2991E-002  
  440.00  2.4033E-002  
  440.50  2.5267E-002  
  441.00  2.6494E-002  
  441.50  2.7676E-002  
  442.00  2.9031E-002  
  442.50  3.0295E-002  
  443.00  3.1745E-002  
  443.50  3.3200E-002  
  444.00  3.4696E-002  
  444.50  3.6382E-002  
  445.00  3.8192E-002  
  445.50  3.9967E-002  
  446.00  4.1810E-002  
  446.50  4.3548E-002  
  447.00  4.5331E-002  
  447.50  4.7336E-002  
  448.00  4.9456E-002  
  448.50  5.1564E-002  
  449.00  5.3698E-002  
  449.50  5.5643E-002  
  450.00  5.7382E-002  
  450.50  5.8935E-002  
  451.00  6.0342E-002  
  451.50  6.1653E-002  
  452.00  6.2825E-002  
  452.50  6.3692E-002  
  453.00  6.4246E-002  
  453.50  6.4643E-002  
  454.00  6.4836E-002  
  454.50  6.4802E-002  
  455.00  6.4688E-002  
  455.50  6.4241E-002  
  456.00  6.3570E-002  
  456.50  6.2665E-002  
  457.00  6.1581E-002  
  457.50  6.0391E-002  
  458.00  5.9121E-002  
  458.50  5.7658E-002  
  459.00  5.6242E-002  
  459.50  5.4708E-002  
  460.00  5.3146E-002  
  460.50  5.1746E-002  
  461.00  5.0362E-002  
  461.50  4.9069E-002  
  462.00  4.7820E-002  
  462.50  4.6578E-002  
  463.00  4.5397E-002  
  463.50  4.4159E-002  
  464.00  4.3020E-002  
  464.50  4.1968E-002  
  465.00  4.1079E-002  
  465.50  4.0288E-002  
  466.00  3.9379E-002  
  466.50  3.8482E-002  
  467.00  3.7595E-002  
  467.50  3.6799E-002  
  468.00  3.6226E-002  
  468.50  3.5778E-002  
  469.00  3.5366E-002  
  469.50  3.4925E-002  
  470.00  3.4322E-002  
  470.50  3.3788E-002  
  471.00  3.3254E-002  
  471.50  3.2656E-002  
  472.00  3.2122E-002  
  472.50  3.1607E-002  
  473.00  3.1229E-002  
  473.50  3.0926E-002  
  474.00  3.0514E-002  
  474.50  3.0023E-002  
  475.00  2.9471E-002  
  475.50  2.8952E-002  
  476.00  2.8453E-002  
  476.50  2.8084E-002  
  477.00  2.7747E-002  
  477.50  2.7411E-002  
  478.00  2.6965E-002  
  478.50  2.6542E-002  
  479.00  2.6257E-002  
  479.50  2.6023E-002  
  480.00  2.5843E-002  
  480.50  2.5557E-002  
  481.00  2.5308E-002  
  481.50  2.5125E-002  
  482.00  2.5005E-002  
  482.50  2.4878E-002  
  483.00  2.4731E-002  
  483.50  2.4624E-002  
  484.00  2.4531E-002  
  484.50  2.4446E-002  
  485.00  2.4370E-002  
  485.50  2.4291E-002  
  486.00  2.4276E-002  
  486.50  2.4303E-002  
  487.00  2.4360E-002  
  487.50  2.4419E-002  
  488.00  2.4501E-002  
  488.50  2.4627E-002  
  489.00  2.4813E-002  
  489.50  2.4945E-002  
  490.00  2.5073E-002  
  490.50  2.5214E-002  
  491.00  2.5437E-002  
  491.50  2.5705E-002  
  492.00  2.5971E-002  
  492.50  2.6252E-002  
  493.00  2.6578E-002  
  493.50  2.6961E-002  
  494.00  2.7366E-002  
  494.50  2.7792E-002  
  495.00  2.8190E-002  
  495.50  2.8651E-002  
  496.00  2.9152E-002  
  496.50  2.9687E-002  
  497.00  3.0269E-002  
  497.50  3.0857E-002  
  498.00  3.1457E-002  
  498.50  3.2070E-002  
  499.00  3.2749E-002  
  499.50  3.3454E-002  
  500.00  3.4222E-002  
  500.50  3.4952E-002  
  501.00  3.5683E-002  
  501.50  3.6565E-002  
  502.00  3.7499E-002  
  502.50  3.8521E-002  
  503.00  3.9427E-002  
  503.50  4.0312E-002  
  504.00  4.1180E-002  
  504.50  4.2111E-002  
  505.00  4.3082E-002  
  505.50  4.4013E-002  
  506.00  4.4991E-002  
  506.50  4.5933E-002  
  507.00  4.7024E-002  
  507.50  4.8162E-002  
  508.00  4.9305E-002  
  508.50  5.0460E-002  
  509.00  5.1563E-002  
  509.50  5.2747E-002  
  510.00  5.3891E-002  
  510.50  5.5051E-002  
  511.00  5.6134E-002  
  511.50  5.7245E-002  
  512.00  5.8370E-002  
  512.50  5.9511E-002  
  513.00  6.0687E-002  
  513.50  6.1830E-002  
  514.00  6.2940E-002  
  514.50  6.4030E-002  
  515.00  6.5095E-002  
  515.50  6.6174E-002  
  516.00  6.7326E-002  
  516.50  6.8500E-002  
  517.00  6.9768E-002  
  517.50  7.0992E-002  
  518.00  7.2152E-002  
  518.50  7.3236E-002  
  519.00  7.4272E-002  
  519.50  7.5306E-002  
  520.00  7.6416E-002  
  520.50  7.7545E-002  
  521.00  7.8629E-002  
  521.50  7.9682E-002  
  522.00  8.0709E-002  
  522.50  8.1819E-002  
  523.00  8.2910E-002  
  523.50  8.3992E-002  
  524.00  8.5052E-002  
  524.50  8.6119E-002  
  525.00  8.7177E-002  
  525.50  8.8167E-002  
  526.00  8.9093E-002  
  526.50  9.0028E-002  
  527.00  9.1003E-002  
  527.50  9.2068E-002  
  528.00  9.3056E-002  
  528.50  9.3987E-002  
  529.00  9.4798E-002  
  529.50  9.5663E-002  
  530.00  9.6533E-002  
  530.50  9.7394E-002  
  531.00  9.8289E-002  
  531.50  9.9130E-002  
  532.00  9.9968E-002  
  532.50  1.0076E-001  
  533.00  1.0155E-001  
  533.50  1.0237E-001  
  534.00  1.0315E-001  
  534.50  1.0399E-001  
  535.00  1.0482E-001  
  535.50  1.0564E-001  
  536.00  1.0637E-001  
  536.50  1.0702E-001  
  537.00  1.0773E-001  
  537.50  1.0849E-001  
  538.00  1.0923E-001  
  538.50  1.0993E-001  
  539.00  1.1063E-001  
  539.50  1.1126E-001  
  540.00  1.1192E-001  
  540.50  1.1262E-001  
  541.00  1.1332E-001  
  541.50  1.1404E-001  
  542.00  1.1468E-001  
  542.50  1.1534E-001  
  543.00  1.1604E-001  
  543.50  1.1669E-001  
  544.00  1.1736E-001  
  544.50  1.1792E-001  
  545.00  1.1850E-001  
  545.50  1.1905E-001  
  546.00  1.1963E-001  
  546.50  1.2027E-001  
  547.00  1.2091E-001  
  547.50  1.2161E-001  
  548.00  1.2231E-001  
  548.50  1.2299E-001  
  549.00  1.2359E-001  
  549.50  1.2412E-001  
  550.00  1.2472E-001  
  550.50  1.2537E-001  
  551.00  1.2603E-001  
  551.50  1.2669E-001  
  552.00  1.2728E-001  
  552.50  1.2792E-001  
  553.00  1.2857E-001  
  553.50  1.2923E-001  
  554.00  1.2977E-001  
  554.50  1.3029E-001  
  555.00  1.3083E-001  
  555.50  1.3154E-001  
  556.00  1.3224E-001  
  556.50  1.3289E-001  
  557.00  1.3352E-001  
  557.50  1.3421E-001  
  558.00  1.3483E-001  
  558.50  1.3549E-001  
  559.00  1.3606E-001  
  559.50  1.3664E-001  
  560.00  1.3723E-001  
  560.50  1.3781E-001  
  561.00  1.3845E-001  
  561.50  1.3903E-001  
  562.00  1.3961E-001  
  562.50  1.4016E-001  
  563.00  1.4072E-001  
  563.50  1.4128E-001  
  564.00  1.4184E-001  
  564.50  1.4241E-001  
  565.00  1.4296E-001  
  565.50  1.4350E-001  
  566.00  1.4404E-001  
  566.50  1.4462E-001  
  567.00  1.4517E-001  
  567.50  1.4573E-001  
  568.00  1.4635E-001  
  568.50  1.4699E-001  
  569.00  1.4753E-001  
  569.50  1.4803E-001  
  570.00  1.4858E-001  
  570.50  1.4925E-001  
  571.00  1.4993E-001  
  571.50  1.5053E-001  
  572.00  1.5101E-001  
  572.50  1.5142E-001  
  573.00  1.5193E-001  
  573.50  1.5246E-001  
  574.00  1.5311E-001  
  574.50  1.5371E-001  
  575.00  1.5425E-001  
  575.50  1.5483E-001  
  576.00  1.5544E-001  
  576.50  1.5602E-001  
  577.00  1.5656E-001  
  577.50  1.5705E-001  
  578.00  1.5753E-001  
  578.50  1.5808E-001  
  579.00  1.5859E-001  
  579.50  1.5915E-001  
  580.00  1.5962E-001  
  580.50  1.6005E-001  
  581.00  1.6046E-001  
  581.50  1.6088E-001  
  582.00  1.6131E-001  
  582.50  1.6178E-001  
  583.00  1.6232E-001  
  583.50  1.6293E-001  
  584.00  1.6347E-001  
  584.50  1.6392E-001  
  585.00  1.6429E-001  
  585.50  1.6471E-001  
  586.00  1.6515E-001  
  586.50  1.6574E-001  
  587.00  1.6628E-001  
  587.50  1.6671E-001  
  588.00  1.6709E-001  
  588.50  1.6749E-001  
  589.00  1.6797E-001  
  589.50  1.6846E-001  
  590.00  1.6894E-001  
  590.50  1.6934E-001  
  591.00  1.6972E-001  
  591.50  1.7000E-001  
  592.00  1.7019E-001  
  592.50  1.7043E-001  
  593.00  1.7077E-001  
  593.50  1.7117E-001  
  594.00  1.7168E-001  
  594.50  1.7208E-001  
  595.00  1.7242E-001  
  595.50  1.7259E-001  
  596.00  1.7284E-001  
  596.50  1.7314E-001  
  597.00  1.7351E-001  
  597.50  1.7381E-001  
  598.00  1.7404E-001  
  598.50  1.7422E-001  
  599.00  1.7437E-001  
  599.50  1.7452E-001  
  600.00  1.7472E-001  
  600.50  1.7498E-001  
  601.00  1.7524E-001  
  601.50  1.7542E-001  
  602.00  1.7559E-001  
  602.50  1.7582E-001  
  603.00  1.7609E-001  
  603.50  1.7628E-001  
  604.00  1.7639E-001  
  604.50  1.7652E-001  
  605.00  1.7657E-001  
  605.50  1.7667E-001  
  606.00  1.7677E-001  
  606.50  1.7707E-001  
  607.00  1.7729E-001  
  607.50  1.7739E-001  
  608.00  1.7744E-001  
  608.50  1.7759E-001  
  609.00  1.7782E-001  
  609.50  1.7795E-001  
  610.00  1.7797E-001  
  610.50  1.7784E-001  
  611.00  1.7773E-001  
  611.50  1.7764E-001  
  612.00  1.7766E-001  
  612.50  1.7777E-001  
  613.00  1.7782E-001  
  613.50  1.7787E-001  
  614.00  1.7790E-001  
  614.50  1.7787E-001  
  615.00  1.7776E-001  
  615.50  1.7748E-001  
  616.00  1.7715E-001  
  616.50  1.7688E-001  
  617.00  1.7659E-001  
  617.50  1.7628E-001  
  618.00  1.7587E-001  
  618.50  1.7554E-001  
  619.00  1.7521E-001  
  619.50  1.7501E-001  
  620.00  1.7472E-001  
  620.50  1.7438E-001  
  621.00  1.7400E-001  
  621.50  1.7352E-001  
  622.00  1.7315E-001  
  622.50  1.7257E-001  
  623.00  1.7198E-001  
  623.50  1.7134E-001  
  624.00  1.7079E-001  
  624.50  1.7030E-001  
  625.00  1.6973E-001  
  625.50  1.6910E-001  
  626.00  1.6837E-001  
  626.50  1.6760E-001  
  627.00  1.6696E-001  
  627.50  1.6627E-001  
  628.00  1.6553E-001  
  628.50  1.6474E-001  
  629.00  1.6408E-001  
  629.50  1.6341E-001  
  630.00  1.6256E-001  
  630.50  1.6162E-001  
  631.00  1.6074E-001  
  631.50  1.5998E-001  
  632.00  1.5896E-001  
  632.50  1.5791E-001  
  633.00  1.5690E-001  
  633.50  1.5610E-001  
  634.00  1.5529E-001  
  634.50  1.5446E-001  
  635.00  1.5348E-001  
  635.50  1.5256E-001  
  636.00  1.5164E-001  
  636.50  1.5076E-001  
  637.00  1.4987E-001  
  637.50  1.4881E-001  
  638.00  1.4771E-001  
  638.50  1.4669E-001  
  639.00  1.4563E-001  
  639.50  1.4459E-001  
  640.00  1.4357E-001  
  640.50  1.4268E-001  
  641.00  1.4167E-001  
  641.50  1.4049E-001  
  642.00  1.3932E-001  
  642.50  1.3830E-001  
  643.00  1.3711E-001  
  643.50  1.3590E-001  
  644.00  1.3471E-001  
  644.50  1.3368E-001  
  645.00  1.3271E-001  
  645.50  1.3166E-001  
  646.00  1.3065E-001  
  646.50  1.2944E-001  
  647.00  1.2827E-001  
  647.50  1.2710E-001  
  648.00  1.2593E-001  
  648.50  1.2482E-001  
  649.00  1.2375E-001  
  649.50  1.2272E-001  
  650.00  1.2162E-001  
  650.50  1.2039E-001  
  651.00  1.1916E-001  
  651.50  1.1800E-001  
  652.00  1.1694E-001  
  652.50  1.1590E-001  
  653.00  1.1467E-001  
  653.50  1.1345E-001  
  654.00  1.1224E-001  
  654.50  1.1116E-001  
  655.00  1.1023E-001  
  655.50  1.0922E-001  
  656.00  1.0827E-001  
  656.50  1.0718E-001  
  657.00  1.0607E-001  
  657.50  1.0496E-001  
  658.00  1.0375E-001  
  658.50  1.0273E-001  
  659.00  1.0176E-001  
  659.50  1.0085E-001  
  660.00  9.9657E-002  
  660.50  9.8355E-002  
  661.00  9.7070E-002  
  661.50  9.6137E-002  
  662.00  9.5182E-002  
  662.50  9.4216E-002  
  663.00  9.3245E-002  
  663.50  9.2302E-002  
  664.00  9.1217E-002  
  664.50  8.9933E-002  
  665.00  8.8618E-002  
  665.50  8.7342E-002  
  666.00  8.6107E-002  
  666.50  8.5234E-002  
  667.00  8.4601E-002  
  667.50  8.3982E-002  
  668.00  8.3000E-002  
  668.50  8.1881E-002  
  669.00  8.0799E-002  
  669.50  7.9806E-002  
  670.00  7.8769E-002  
  670.50  7.7893E-002  
  671.00  7.6993E-002  
  671.50  7.6081E-002  
  672.00  7.4994E-002  
  672.50  7.3966E-002  
  673.00  7.3036E-002  
  673.50  7.2232E-002  
  674.00  7.1298E-002  
  674.50  7.0385E-002  
  675.00  6.9435E-002  
  675.50  6.8747E-002  
  676.00  6.8038E-002  
  676.50  6.7273E-002  
  677.00  6.6490E-002  
  677.50  6.5773E-002  
  678.00  6.4867E-002  
  678.50  6.3807E-002  
  679.00  6.2833E-002  
  679.50  6.2101E-002  
  680.00  6.1484E-002  
  680.50  6.0799E-002  
  681.00  6.0059E-002  
  681.50  5.9157E-002  
  682.00  5.8358E-002  
  682.50  5.7671E-002  
  683.00  5.7108E-002  
  683.50  5.6387E-002  
  684.00  5.5600E-002  
  684.50  5.4831E-002  
  685.00  5.4068E-002  
  685.50  5.3289E-002  
  686.00  5.2614E-002  
  686.50  5.1994E-002  
  687.00  5.1383E-002  
  687.50  5.0697E-002  
  688.00  4.9937E-002  
  688.50  4.9187E-002  
  689.00  4.8376E-002  
  689.50  4.7757E-002  
  690.00  4.7275E-002  
  690.50  4.6721E-002  
  691.00  4.6014E-002  
  691.50  4.5237E-002  
  692.00  4.4566E-002  
  692.50  4.4033E-002  
  693.00  4.3457E-002  
  693.50  4.2829E-002  
  694.00  4.2121E-002  
  694.50  4.1512E-002  
  695.00  4.0987E-002  
  695.50  4.0375E-002  
  696.00  3.9784E-002  
  696.50  3.9210E-002  
  697.00  3.8753E-002  
  697.50  3.8270E-002  
  698.00  3.7745E-002  
  698.50  3.7226E-002  
  699.00  3.6750E-002  
  699.50  3.6363E-002  
  700.00  3.5815E-002  
  700.50  3.5152E-002  
  701.00  3.4560E-002  
  701.50  3.4138E-002  
  702.00  3.3794E-002  
  702.50  3.3349E-002  
  703.00  3.2902E-002  
  703.50  3.2448E-002  
  704.00  3.1912E-002  
  704.50  3.1314E-002  
  705.00  3.0791E-002  
  705.50  3.0373E-002  
  706.00  2.9983E-002  
  706.50  2.9561E-002  
  707.00  2.9093E-002  
  707.50  2.8648E-002  
  708.00  2.8197E-002  
  708.50  2.7783E-002  
  709.00  2.7292E-002  
  709.50  2.6894E-002  
  710.00  2.6419E-002  
  710.50  2.6013E-002  
  711.00  2.5675E-002  
  711.50  2.5462E-002  
  712.00  2.5204E-002  
  712.50  2.4902E-002  
  713.00  2.4572E-002  
  713.50  2.4214E-002  
  714.00  2.3801E-002  
  714.50  2.3391E-002  
  715.00  2.2971E-002  
  715.50  2.2666E-002  
  716.00  2.2428E-002  
  716.50  2.2109E-002  
  717.00  2.1717E-002  
  717.50  2.1481E-002  
  718.00  2.1376E-002  
  718.50  2.1149E-002  
  719.00  2.0829E-002  
  719.50  2.0493E-002  
  720.00  2.0083E-002  
  720.50  1.9680E-002  
  721.00  1.9349E-002  
  721.50  1.9192E-002  
  722.00  1.8962E-002  
  722.50  1.8640E-002  
  723.00  1.8291E-002  
  723.50  1.7992E-002  
  724.00  1.7728E-002  
  724.50  1.7500E-002  
  725.00  1.7292E-002  
  725.50  1.7103E-002  
  726.00  1.6879E-002  
  726.50  1.6561E-002  
  727.00  1.6333E-002  
  727.50  1.6160E-002  
  728.00  1.6016E-002  
  728.50  1.5660E-002  
  729.00  1.5383E-002  
  729.50  1.5207E-002  
  730.00  1.5088E-002  
  730.50  1.4894E-002  
  731.00  1.4679E-002  
  731.50  1.4460E-002  
  732.00  1.4206E-002  
  732.50  1.4019E-002  
  733.00  1.3897E-002  
  733.50  1.3707E-002  
  734.00  1.3507E-002  
  734.50  1.3212E-002  
  735.00  1.2993E-002  
  735.50  1.2743E-002  
  736.00  1.2604E-002  
  736.50  1.2429E-002  
  737.00  1.2231E-002  
  737.50  1.1961E-002  
  738.00  1.1852E-002  
  738.50  1.1839E-002  
  739.00  1.1749E-002  
  739.50  1.1449E-002  
  740.00  1.1135E-002  
  740.50  1.1026E-002  
  741.00  1.0893E-002  
  741.50  1.0744E-002  
  742.00  1.0665E-002  
  742.50  1.0546E-002  
  743.00  1.0347E-002  
  743.50  1.0010E-002  
  744.00  9.8191E-003  
  744.50  9.6674E-003  
  745.00  9.6021E-003  
  745.50  9.4547E-003  
  746.00  9.2761E-003  
  746.50  9.1474E-003  
  747.00  9.0341E-003  
  747.50  8.8231E-003  
  748.00  8.4829E-003  
  748.50  8.2833E-003  
  749.00  8.3156E-003  
  749.50  8.4808E-003  
  750.00  8.5019E-003  
  750.50  8.3517E-003  
  751.00  8.2842E-003  
  751.50  8.2307E-003  
  752.00  8.0839E-003  
  752.50  7.8516E-003  
  753.00  7.6538E-003  
  753.50  7.5132E-003  
  754.00  7.4622E-003  
  754.50  7.4488E-003  
  755.00  7.3825E-003  
  755.50  7.1112E-003  
  756.00  6.9531E-003  
  756.50  6.8517E-003  
  757.00  6.8686E-003  
  757.50  6.8282E-003  
  758.00  6.7537E-003  
  758.50  6.6444E-003  
  759.00  6.4275E-003  
  759.50  6.1584E-003  
  760.00  5.9495E-003  
  760.50  5.8882E-003  
  761.00  5.9539E-003  
  761.50  6.0909E-003  
  762.00  6.1130E-003  
  762.50  5.8816E-003  
  763.00  5.6582E-003  
  763.50  5.4950E-003  
  764.00  5.4496E-003  
  764.50  5.3014E-003  
  765.00  5.2223E-003  
  765.50  5.3024E-003  
  766.00  5.3194E-003  
  766.50  5.2317E-003  
  767.00  5.0689E-003  
  767.50  4.9189E-003  
  768.00  4.7965E-003  
  768.50  4.7349E-003  
  769.00  4.6369E-003  
  769.50  4.5101E-003  
  770.00  4.4379E-003  
  770.50  4.3963E-003  
  771.00  4.4633E-003  
  771.50  4.5418E-003  
  772.00  4.4217E-003  
  772.50  4.1081E-003  
  773.00  4.0303E-003  
  773.50  4.1961E-003  
  774.00  4.4015E-003  
  774.50  4.1624E-003  
  775.00  4.0350E-003  
  775.50  3.9676E-003  
  776.00  4.0258E-003  
  776.50  3.9176E-003  
  777.00  3.9100E-003  
  777.50  3.7837E-003  
  778.00  3.7640E-003  
  778.50  3.8015E-003  
  779.00  3.7846E-003  
  779.50  3.6406E-003  
  780.00  3.4636E-003  
  780.50  3.3918E-003  
  781.00  3.3343E-003  
  781.50  3.4421E-003  
  782.00  3.5078E-003  
  782.50  3.4512E-003  
  783.00  3.2795E-003  
  783.50  3.0346E-003  
  784.00  2.8621E-003  
  784.50  2.7088E-003  
  785.00  2.7808E-003  
  785.50  2.8562E-003  
  786.00  2.8857E-003  
  786.50  2.8069E-003  
  787.00  2.8023E-003  
  787.50  2.8194E-003  
  788.00  2.6318E-003  
  788.50  2.5986E-003  
  789.00  2.6005E-003  
  789.50  2.6016E-003  
  790.00  2.4225E-003  
  790.50  2.2924E-003  
  791.00  2.3613E-003  
  791.50  2.5989E-003  
  792.00  2.7694E-003  
  792.50  2.6950E-003  
  793.00  2.6456E-003  
  793.50  2.3753E-003  
  794.00  2.4664E-003  
  794.50  2.3870E-003  
  795.00  2.2618E-003  
  795.50  2.0960E-003  
  796.00  1.9811E-003  
  796.50  1.9972E-003  
  797.00  2.1447E-003  
  797.50  2.2641E-003  
  798.00  2.1505E-003  
  798.50  1.9483E-003  
  799.00  2.0783E-003  
  799.50  2.1579E-003  
  800.00  2.0909E-003  
  800.50  2.0382E-003  
  801.00  1.9727E-003  
  801.50  2.0249E-003  
  802.00  1.9752E-003  
  802.50  1.8211E-003  
  803.00  1.7751E-003  
  803.50  1.7435E-003  
  804.00  1.5791E-003  
  804.50  1.3691E-003  
  805.00  1.3185E-003  
  805.50  1.4265E-003  
  806.00  1.6053E-003  
  806.50  1.7286E-003  
  807.00  1.7811E-003  
  807.50  1.5937E-003  
  808.00  1.2538E-003  
  808.50  1.2886E-003  
  809.00  1.5909E-003  
  809.50  1.5203E-003  
  810.00  1.2605E-003  
  810.50  1.1051E-003  
  811.00  1.1457E-003  
  811.50  1.3646E-003  
  812.00  1.3994E-003  
  812.50  1.2962E-003  
  813.00  1.2013E-003  
  813.50  1.2388E-003  
  814.00  1.0905E-003  
  814.50  9.7469E-004  
  815.00  1.2082E-003  
  815.50  1.2531E-003  
  816.00  1.2866E-003  
  816.50  1.2043E-003  
  817.00  1.1455E-003  
  817.50  1.0480E-003  
  818.00  1.1358E-003  
  818.50  1.1507E-003  
  819.00  1.1139E-003  
  819.50  1.1209E-003  
  820.00  1.2657E-003  
  820.50  1.2014E-003  
  821.00  1.1308E-003  
  821.50  7.5582E-004  
  822.00  7.3738E-004  
  822.50  9.7813E-004  
  823.00  1.1433E-003  
  823.50  1.0100E-003  
  824.00  6.1539E-004  
  824.50  6.5391E-004  
  825.00  9.7048E-004  
  825.50  1.1834E-003  
  826.00  1.1324E-003  
  826.50  8.0785E-004  
  827.00  7.1681E-004  
  827.50  6.1890E-004  
  828.00  6.8328E-004  
  828.50  1.0110E-003  
  829.00  1.0331E-003  
  829.50  8.9957E-004  
  830.00  7.8261E-004  
  830.50  6.1003E-004  
  831.00  5.5190E-004  
  831.50  8.3288E-004  
  832.00  1.0426E-003  
  832.50  8.5585E-004  
  833.00  6.2060E-004  
  833.50  4.8521E-004  
  834.00  7.1339E-004  
  834.50  1.2062E-003  
  835.00  1.3693E-003  
  835.50  9.4155E-004  
  836.00  5.1162E-004  
  836.50  4.5435E-004  
  837.00  7.7326E-004  
  837.50  9.1164E-004  
  838.00  4.9984E-004  
  838.50  3.2212E-007  
  839.00  1.6183E-005  
  839.50  2.0715E-004  
  840.00  3.5826E-006  
  840.50  9.5068E-005  
  841.00  4.6009E-004  
  841.50  3.4927E-004  
  842.00  1.5234E-004  
  842.50  1.1926E-004  
  843.00  6.6336E-004  
  843.50  9.9232E-004  
  844.00  7.4577E-004  
  844.50  4.0370E-004  
  845.00  2.6952E-004  
  845.50  2.1333E-004  
  846.00  5.0735E-004  
  846.50  6.4463E-004  
  847.00  6.1487E-004  
  847.50  4.9526E-004  
  848.00  4.5309E-004  
  848.50  4.8679E-004  
  849.00  3.6139E-004  
  849.50  3.5986E-004  
  850.00  2.4013E-004  
  850.50  3.6009E-004  
  851.00  5.1116E-004  
  851.50  6.8840E-004  
  852.00  9.8128E-004  
  852.50  4.6326E-004  
  853.00  1.4379E-004  
  853.50  1.1458E-004  
  854.00  6.3908E-004  
  854.50  7.9528E-004  
  855.00  4.5295E-004  
  855.50  4.9837E-004  
  856.00  8.5247E-004  
  856.50  4.9191E-004  
  857.00  7.2205E-005  
  857.50  2.8530E-004  
  858.00  3.1071E-004  
  858.50  0.0000E+000  
  859.00  4.4769E-005  
  859.50  2.2502E-004  
  860.00  7.3809E-005  
  860.50  0.0000E+000  
  861.00  0.0000E+000  
  861.50  0.0000E+000  
  862.00  1.4468E-004  
  862.50  6.8418E-004  
  863.00  5.4950E-004  
  863.50  6.2715E-004  
  864.00  2.4933E-004  
  864.50  2.3380E-004  
  865.00  6.5322E-004  
  865.50  8.9258E-004  
  866.00  1.1699E-003  
  866.50  5.4359E-004  
  867.00  1.9305E-005  
  867.50  3.7910E-004  
  868.00  9.7387E-004  
  868.50  5.3751E-004  
  869.00  3.6309E-004  
  869.50  2.7812E-004  
  870.00  2.8560E-004  
  870.50  6.6037E-004  
  871.00  6.0570E-004  
  871.50  5.4630E-005  
  872.00  0.0000E+000  
  872.50  0.0000E+000  
  873.00  0.0000E+000  
  873.50  0.0000E+000  
  874.00  0.0000E+000  
  874.50  0.0000E+000  
  875.00  0.0000E+000  
  875.50  0.0000E+000  
  876.00  0.0000E+000  
  876.50  0.0000E+000  
  877.00  0.0000E+000  
  877.50  0.0000E+000  
  878.00  0.0000E+000  
  878.50  0.0000E+000  
  879.00  0.0000E+000  
  879.50  1.9036E-005  
  880.00  0.0000E+000  
  880.50  0.0000E+000  
  881.00  0.0000E+000  
  881.50  0.0000E+000  
  882.00  0.0000E+000  
  882.50  5.4210E-004  
  883.00  3.8664E-004  
  883.50  0.0000E+000  
  884.00  0.0000E+000  
  884.50  3.2535E-005  
  885.00  3.6391E-004  
  885.50  2.8122E-005  
  886.00  0.0000E+000  
  886.50  0.0000E+000  
  887.00  1.2505E-004  
  887.50  8.3532E-004  
  888.00  9.9318E-004  
  888.50  1.1822E-003  
  889.00  1.1107E-003  
  889.50  8.7583E-004  
  890.00  1.1797E-003  
  890.50  1.0167E-003  
  891.00  7.0621E-004  
  891.50  1.2352E-004  
  892.00  0.0000E+000  
  892.50  0.0000E+000  
  893.00  3.0415E-004  
  893.50  4.0603E-004  
  894.00  6.3170E-005  
  894.50  1.3954E-003  
  895.00  1.7470E-003  
  895.50  1.1773E-003  
  896.00  5.9802E-004  
  896.50  4.7766E-004  
  897.00  6.6590E-004  
  897.50  8.1595E-004  
  898.00  7.0872E-004  
  898.50  2.8232E-004  
  899.00  5.7500E-005  
  899.50  0.0000E+000  
