
# From lspdd.org
# 
# Name: DEL EnergySmart PAR20 Domestique
# Indice spectral Valeur 
# MSI 0.21 
# SLI 0.42 
# IPI 0.65 
# Pourcentage de bleu 13.6 
# Caractéristique Valeur 
# CCT calculée (K) 2524 
# CCT du fabricant (K) 2700 
# Tension (V) ND 
# Puissance (W) 7.0 
# Efficacité lumineuse (Lum/W) 47.1 
#
# Image: '/app/system/img_2s/2575/medium_image2.JPG?1413486419'
# Image: '/app/system/img_1s/2575/medium_image1.JPG?1413486423'
# 

  273.00  0.0000E+000  
  273.50  0.0000E+000  
  274.00  0.0000E+000  
  274.50  0.0000E+000  
  275.00  0.0000E+000  
  275.50  0.0000E+000  
  276.00  0.0000E+000  
  276.50  0.0000E+000  
  277.00  0.0000E+000  
  277.50  0.0000E+000  
  278.00  0.0000E+000  
  278.50  0.0000E+000  
  279.00  0.0000E+000  
  279.50  0.0000E+000  
  280.00  0.0000E+000  
  280.50  0.0000E+000  
  281.00  0.0000E+000  
  281.50  0.0000E+000  
  282.00  0.0000E+000  
  282.50  0.0000E+000  
  283.00  0.0000E+000  
  283.50  0.0000E+000  
  284.00  0.0000E+000  
  284.50  0.0000E+000  
  285.00  0.0000E+000  
  285.50  0.0000E+000  
  286.00  0.0000E+000  
  286.50  0.0000E+000  
  287.00  0.0000E+000  
  287.50  0.0000E+000  
  288.00  0.0000E+000  
  288.50  0.0000E+000  
  289.00  0.0000E+000  
  289.50  0.0000E+000  
  290.00  0.0000E+000  
  290.50  0.0000E+000  
  291.00  0.0000E+000  
  291.50  0.0000E+000  
  292.00  0.0000E+000  
  292.50  0.0000E+000  
  293.00  0.0000E+000  
  293.50  0.0000E+000  
  294.00  0.0000E+000  
  294.50  0.0000E+000  
  295.00  0.0000E+000  
  295.50  0.0000E+000  
  296.00  0.0000E+000  
  296.50  0.0000E+000  
  297.00  0.0000E+000  
  297.50  0.0000E+000  
  298.00  0.0000E+000  
  298.50  0.0000E+000  
  299.00  0.0000E+000  
  299.50  0.0000E+000  
  300.00  0.0000E+000  
  300.50  0.0000E+000  
  301.00  0.0000E+000  
  301.50  0.0000E+000  
  302.00  0.0000E+000  
  302.50  0.0000E+000  
  303.00  0.0000E+000  
  303.50  0.0000E+000  
  304.00  0.0000E+000  
  304.50  0.0000E+000  
  305.00  0.0000E+000  
  305.50  0.0000E+000  
  306.00  0.0000E+000  
  306.50  0.0000E+000  
  307.00  0.0000E+000  
  307.50  0.0000E+000  
  308.00  0.0000E+000  
  308.50  0.0000E+000  
  309.00  0.0000E+000  
  309.50  0.0000E+000  
  310.00  0.0000E+000  
  310.50  0.0000E+000  
  311.00  0.0000E+000  
  311.50  0.0000E+000  
  312.00  0.0000E+000  
  312.50  0.0000E+000  
  313.00  0.0000E+000  
  313.50  0.0000E+000  
  314.00  0.0000E+000  
  314.50  0.0000E+000  
  315.00  1.5221E-005  
  315.50  3.1963E-006  
  316.00  0.0000E+000  
  316.50  0.0000E+000  
  317.00  0.0000E+000  
  317.50  0.0000E+000  
  318.00  0.0000E+000  
  318.50  0.0000E+000  
  319.00  0.0000E+000  
  319.50  0.0000E+000  
  320.00  0.0000E+000  
  320.50  0.0000E+000  
  321.00  0.0000E+000  
  321.50  1.0622E-005  
  322.00  2.6359E-005  
  322.50  0.0000E+000  
  323.00  0.0000E+000  
  323.50  0.0000E+000  
  324.00  0.0000E+000  
  324.50  0.0000E+000  
  325.00  0.0000E+000  
  325.50  0.0000E+000  
  326.00  0.0000E+000  
  326.50  0.0000E+000  
  327.00  2.4230E-006  
  327.50  2.3794E-005  
  328.00  2.4004E-005  
  328.50  0.0000E+000  
  329.00  0.0000E+000  
  329.50  0.0000E+000  
  330.00  0.0000E+000  
  330.50  0.0000E+000  
  331.00  0.0000E+000  
  331.50  3.1432E-005  
  332.00  8.4017E-005  
  332.50  9.4611E-005  
  333.00  3.2481E-005  
  333.50  0.0000E+000  
  334.00  0.0000E+000  
  334.50  0.0000E+000  
  335.00  0.0000E+000  
  335.50  0.0000E+000  
  336.00  0.0000E+000  
  336.50  5.2399E-006  
  337.00  2.7449E-005  
  337.50  3.8232E-005  
  338.00  1.7131E-005  
  338.50  2.1502E-006  
  339.00  0.0000E+000  
  339.50  0.0000E+000  
  340.00  0.0000E+000  
  340.50  0.0000E+000  
  341.00  0.0000E+000  
  341.50  0.0000E+000  
  342.00  1.7108E-005  
  342.50  3.3245E-006  
  343.00  0.0000E+000  
  343.50  0.0000E+000  
  344.00  0.0000E+000  
  344.50  0.0000E+000  
  345.00  0.0000E+000  
  345.50  0.0000E+000  
  346.00  0.0000E+000  
  346.50  1.5497E-005  
  347.00  2.1473E-005  
  347.50  1.2777E-005  
  348.00  9.3338E-006  
  348.50  2.4805E-005  
  349.00  1.9001E-005  
  349.50  2.7953E-005  
  350.00  3.7445E-005  
  350.50  2.4247E-005  
  351.00  3.1703E-005  
  351.50  0.0000E+000  
  352.00  0.0000E+000  
  352.50  0.0000E+000  
  353.00  0.0000E+000  
  353.50  0.0000E+000  
  354.00  8.6361E-006  
  354.50  1.2681E-006  
  355.00  0.0000E+000  
  355.50  0.0000E+000  
  356.00  0.0000E+000  
  356.50  0.0000E+000  
  357.00  0.0000E+000  
  357.50  0.0000E+000  
  358.00  0.0000E+000  
  358.50  1.8755E-006  
  359.00  2.4747E-005  
  359.50  8.5358E-005  
  360.00  1.1257E-004  
  360.50  1.1930E-004  
  361.00  1.2446E-004  
  361.50  1.0914E-004  
  362.00  1.1399E-004  
  362.50  1.1838E-004  
  363.00  8.8564E-005  
  363.50  6.3128E-005  
  364.00  4.3834E-005  
  364.50  2.7275E-005  
  365.00  1.2800E-005  
  365.50  8.5094E-009  
  366.00  0.0000E+000  
  366.50  0.0000E+000  
  367.00  4.1855E-007  
  367.50  2.0623E-005  
  368.00  5.3243E-005  
  368.50  9.1228E-005  
  369.00  1.2081E-004  
  369.50  1.2915E-004  
  370.00  8.1103E-005  
  370.50  4.1282E-005  
  371.00  2.8008E-006  
  371.50  0.0000E+000  
  372.00  0.0000E+000  
  372.50  6.8810E-006  
  373.00  5.5230E-005  
  373.50  6.8342E-005  
  374.00  5.7835E-005  
  374.50  4.9513E-005  
  375.00  6.2987E-005  
  375.50  1.1669E-004  
  376.00  1.6273E-004  
  376.50  1.7627E-004  
  377.00  1.4835E-004  
  377.50  6.7890E-005  
  378.00  2.1529E-005  
  378.50  2.5328E-005  
  379.00  8.2396E-006  
  379.50  6.1509E-005  
  380.00  1.0537E-004  
  380.50  1.6569E-004  
  381.00  1.9819E-004  
  381.50  1.5324E-004  
  382.00  7.7455E-005  
  382.50  5.2258E-005  
  383.00  2.4562E-005  
  383.50  3.5647E-005  
  384.00  4.3072E-005  
  384.50  4.4149E-005  
  385.00  9.6425E-005  
  385.50  1.1971E-004  
  386.00  1.4725E-004  
  386.50  1.7752E-004  
  387.00  1.9916E-004  
  387.50  2.2121E-004  
  388.00  1.8412E-004  
  388.50  1.4538E-004  
  389.00  1.0364E-004  
  389.50  5.8076E-005  
  390.00  4.0451E-005  
  390.50  4.2743E-005  
  391.00  6.5488E-005  
  391.50  1.1676E-004  
  392.00  1.4636E-004  
  392.50  1.3904E-004  
  393.00  1.4436E-004  
  393.50  1.5717E-004  
  394.00  1.7522E-004  
  394.50  1.8777E-004  
  395.00  1.6016E-004  
  395.50  1.5799E-004  
  396.00  1.6760E-004  
  396.50  2.0451E-004  
  397.00  2.3580E-004  
  397.50  1.5402E-004  
  398.00  9.9710E-005  
  398.50  8.7374E-005  
  399.00  9.5289E-005  
  399.50  1.7563E-004  
  400.00  2.0007E-004  
  400.50  2.0458E-004  
  401.00  2.1299E-004  
  401.50  2.4007E-004  
  402.00  2.6435E-004  
  402.50  2.6298E-004  
  403.00  2.3329E-004  
  403.50  1.7418E-004  
  404.00  1.8194E-004  
  404.50  2.1449E-004  
  405.00  2.8605E-004  
  405.50  2.9110E-004  
  406.00  2.7359E-004  
  406.50  2.8272E-004  
  407.00  2.9573E-004  
  407.50  3.5520E-004  
  408.00  4.0457E-004  
  408.50  3.7351E-004  
  409.00  3.4660E-004  
  409.50  3.2937E-004  
  410.00  3.3442E-004  
  410.50  4.1512E-004  
  411.00  4.3605E-004  
  411.50  4.2288E-004  
  412.00  4.3091E-004  
  412.50  4.1444E-004  
  413.00  4.2710E-004  
  413.50  5.0001E-004  
  414.00  5.3265E-004  
  414.50  5.5536E-004  
  415.00  5.8764E-004  
  415.50  6.1806E-004  
  416.00  7.0945E-004  
  416.50  7.7545E-004  
  417.00  7.9011E-004  
  417.50  7.9398E-004  
  418.00  8.2486E-004  
  418.50  8.5184E-004  
  419.00  9.1576E-004  
  419.50  1.0273E-003  
  420.00  1.1671E-003  
  420.50  1.3437E-003  
  421.00  1.5124E-003  
  421.50  1.6131E-003  
  422.00  1.7134E-003  
  422.50  1.7818E-003  
  423.00  1.8520E-003  
  423.50  1.9730E-003  
  424.00  2.0571E-003  
  424.50  2.1353E-003  
  425.00  2.2446E-003  
  425.50  2.3621E-003  
  426.00  2.5561E-003  
  426.50  2.7374E-003  
  427.00  2.9454E-003  
  427.50  3.1639E-003  
  428.00  3.3960E-003  
  428.50  3.5695E-003  
  429.00  3.7791E-003  
  429.50  3.9868E-003  
  430.00  4.1871E-003  
  430.50  4.4346E-003  
  431.00  4.6628E-003  
  431.50  4.9591E-003  
  432.00  5.3089E-003  
  432.50  5.6338E-003  
  433.00  5.9707E-003  
  433.50  6.2645E-003  
  434.00  6.5992E-003  
  434.50  6.9885E-003  
  435.00  7.3766E-003  
  435.50  7.8121E-003  
  436.00  8.2268E-003  
  436.50  8.6923E-003  
  437.00  9.1356E-003  
  437.50  9.5329E-003  
  438.00  9.9389E-003  
  438.50  1.0321E-002  
  439.00  1.0736E-002  
  439.50  1.1272E-002  
  440.00  1.1809E-002  
  440.50  1.2456E-002  
  441.00  1.3105E-002  
  441.50  1.3693E-002  
  442.00  1.4384E-002  
  442.50  1.5021E-002  
  443.00  1.5757E-002  
  443.50  1.6515E-002  
  444.00  1.7337E-002  
  444.50  1.8237E-002  
  445.00  1.9163E-002  
  445.50  2.0141E-002  
  446.00  2.1089E-002  
  446.50  2.1996E-002  
  447.00  2.2850E-002  
  447.50  2.3804E-002  
  448.00  2.4877E-002  
  448.50  2.5996E-002  
  449.00  2.7159E-002  
  449.50  2.8288E-002  
  450.00  2.9350E-002  
  450.50  3.0390E-002  
  451.00  3.1394E-002  
  451.50  3.2406E-002  
  452.00  3.3477E-002  
  452.50  3.4402E-002  
  453.00  3.5143E-002  
  453.50  3.5752E-002  
  454.00  3.6393E-002  
  454.50  3.6939E-002  
  455.00  3.7448E-002  
  455.50  3.7811E-002  
  456.00  3.8038E-002  
  456.50  3.8334E-002  
  457.00  3.8493E-002  
  457.50  3.8508E-002  
  458.00  3.8299E-002  
  458.50  3.7848E-002  
  459.00  3.7330E-002  
  459.50  3.6862E-002  
  460.00  3.6437E-002  
  460.50  3.6080E-002  
  461.00  3.5649E-002  
  461.50  3.5009E-002  
  462.00  3.4338E-002  
  462.50  3.3517E-002  
  463.00  3.2722E-002  
  463.50  3.1947E-002  
  464.00  3.1272E-002  
  464.50  3.0677E-002  
  465.00  3.0139E-002  
  465.50  2.9448E-002  
  466.00  2.8687E-002  
  466.50  2.7960E-002  
  467.00  2.7393E-002  
  467.50  2.7023E-002  
  468.00  2.6601E-002  
  468.50  2.6173E-002  
  469.00  2.5707E-002  
  469.50  2.5268E-002  
  470.00  2.4946E-002  
  470.50  2.4666E-002  
  471.00  2.4331E-002  
  471.50  2.3969E-002  
  472.00  2.3561E-002  
  472.50  2.3269E-002  
  473.00  2.3105E-002  
  473.50  2.3000E-002  
  474.00  2.2820E-002  
  474.50  2.2535E-002  
  475.00  2.2164E-002  
  475.50  2.1802E-002  
  476.00  2.1450E-002  
  476.50  2.1205E-002  
  477.00  2.0923E-002  
  477.50  2.0609E-002  
  478.00  2.0252E-002  
  478.50  1.9947E-002  
  479.00  1.9766E-002  
  479.50  1.9655E-002  
  480.00  1.9536E-002  
  480.50  1.9331E-002  
  481.00  1.9028E-002  
  481.50  1.8669E-002  
  482.00  1.8411E-002  
  482.50  1.8225E-002  
  483.00  1.8046E-002  
  483.50  1.7897E-002  
  484.00  1.7710E-002  
  484.50  1.7580E-002  
  485.00  1.7481E-002  
  485.50  1.7391E-002  
  486.00  1.7297E-002  
  486.50  1.7266E-002  
  487.00  1.7204E-002  
  487.50  1.7146E-002  
  488.00  1.7107E-002  
  488.50  1.7066E-002  
  489.00  1.7097E-002  
  489.50  1.7096E-002  
  490.00  1.7141E-002  
  490.50  1.7220E-002  
  491.00  1.7350E-002  
  491.50  1.7451E-002  
  492.00  1.7564E-002  
  492.50  1.7654E-002  
  493.00  1.7796E-002  
  493.50  1.7976E-002  
  494.00  1.8140E-002  
  494.50  1.8294E-002  
  495.00  1.8411E-002  
  495.50  1.8547E-002  
  496.00  1.8723E-002  
  496.50  1.8978E-002  
  497.00  1.9279E-002  
  497.50  1.9613E-002  
  498.00  1.9937E-002  
  498.50  2.0210E-002  
  499.00  2.0507E-002  
  499.50  2.0825E-002  
  500.00  2.1190E-002  
  500.50  2.1531E-002  
  501.00  2.1933E-002  
  501.50  2.2365E-002  
  502.00  2.2826E-002  
  502.50  2.3252E-002  
  503.00  2.3653E-002  
  503.50  2.4131E-002  
  504.00  2.4702E-002  
  504.50  2.5276E-002  
  505.00  2.5798E-002  
  505.50  2.6277E-002  
  506.00  2.6766E-002  
  506.50  2.7294E-002  
  507.00  2.7798E-002  
  507.50  2.8364E-002  
  508.00  2.8891E-002  
  508.50  2.9443E-002  
  509.00  3.0022E-002  
  509.50  3.0675E-002  
  510.00  3.1408E-002  
  510.50  3.2093E-002  
  511.00  3.2722E-002  
  511.50  3.3325E-002  
  512.00  3.3987E-002  
  512.50  3.4686E-002  
  513.00  3.5395E-002  
  513.50  3.6033E-002  
  514.00  3.6675E-002  
  514.50  3.7342E-002  
  515.00  3.7999E-002  
  515.50  3.8673E-002  
  516.00  3.9259E-002  
  516.50  3.9866E-002  
  517.00  4.0524E-002  
  517.50  4.1283E-002  
  518.00  4.2069E-002  
  518.50  4.2770E-002  
  519.00  4.3455E-002  
  519.50  4.4047E-002  
  520.00  4.4704E-002  
  520.50  4.5374E-002  
  521.00  4.6103E-002  
  521.50  4.6860E-002  
  522.00  4.7532E-002  
  522.50  4.8187E-002  
  523.00  4.8803E-002  
  523.50  4.9507E-002  
  524.00  5.0213E-002  
  524.50  5.0865E-002  
  525.00  5.1472E-002  
  525.50  5.2087E-002  
  526.00  5.2775E-002  
  526.50  5.3512E-002  
  527.00  5.4185E-002  
  527.50  5.4802E-002  
  528.00  5.5394E-002  
  528.50  5.6032E-002  
  529.00  5.6725E-002  
  529.50  5.7367E-002  
  530.00  5.7994E-002  
  530.50  5.8587E-002  
  531.00  5.9197E-002  
  531.50  5.9788E-002  
  532.00  6.0414E-002  
  532.50  6.1000E-002  
  533.00  6.1621E-002  
  533.50  6.2278E-002  
  534.00  6.2916E-002  
  534.50  6.3647E-002  
  535.00  6.4299E-002  
  535.50  6.4786E-002  
  536.00  6.5278E-002  
  536.50  6.5714E-002  
  537.00  6.6394E-002  
  537.50  6.7043E-002  
  538.00  6.7744E-002  
  538.50  6.8382E-002  
  539.00  6.9002E-002  
  539.50  6.9657E-002  
  540.00  7.0314E-002  
  540.50  7.0969E-002  
  541.00  7.1553E-002  
  541.50  7.2122E-002  
  542.00  7.2656E-002  
  542.50  7.3214E-002  
  543.00  7.3799E-002  
  543.50  7.4313E-002  
  544.00  7.4995E-002  
  544.50  7.5673E-002  
  545.00  7.6355E-002  
  545.50  7.7003E-002  
  546.00  7.7532E-002  
  546.50  7.8097E-002  
  547.00  7.8724E-002  
  547.50  7.9304E-002  
  548.00  7.9925E-002  
  548.50  8.0529E-002  
  549.00  8.1158E-002  
  549.50  8.1739E-002  
  550.00  8.2250E-002  
  550.50  8.2921E-002  
  551.00  8.3621E-002  
  551.50  8.4417E-002  
  552.00  8.5172E-002  
  552.50  8.5866E-002  
  553.00  8.6641E-002  
  553.50  8.7408E-002  
  554.00  8.8176E-002  
  554.50  8.8844E-002  
  555.00  8.9333E-002  
  555.50  8.9880E-002  
  556.00  9.0539E-002  
  556.50  9.1269E-002  
  557.00  9.1971E-002  
  557.50  9.2757E-002  
  558.00  9.3486E-002  
  558.50  9.4406E-002  
  559.00  9.5142E-002  
  559.50  9.5859E-002  
  560.00  9.6489E-002  
  560.50  9.7134E-002  
  561.00  9.7892E-002  
  561.50  9.8695E-002  
  562.00  9.9576E-002  
  562.50  1.0037E-001  
  563.00  1.0103E-001  
  563.50  1.0161E-001  
  564.00  1.0218E-001  
  564.50  1.0283E-001  
  565.00  1.0351E-001  
  565.50  1.0426E-001  
  566.00  1.0506E-001  
  566.50  1.0583E-001  
  567.00  1.0648E-001  
  567.50  1.0720E-001  
  568.00  1.0800E-001  
  568.50  1.0888E-001  
  569.00  1.0964E-001  
  569.50  1.1028E-001  
  570.00  1.1085E-001  
  570.50  1.1159E-001  
  571.00  1.1237E-001  
  571.50  1.1314E-001  
  572.00  1.1389E-001  
  572.50  1.1456E-001  
  573.00  1.1530E-001  
  573.50  1.1604E-001  
  574.00  1.1681E-001  
  574.50  1.1755E-001  
  575.00  1.1832E-001  
  575.50  1.1898E-001  
  576.00  1.1966E-001  
  576.50  1.2034E-001  
  577.00  1.2109E-001  
  577.50  1.2192E-001  
  578.00  1.2264E-001  
  578.50  1.2342E-001  
  579.00  1.2413E-001  
  579.50  1.2486E-001  
  580.00  1.2547E-001  
  580.50  1.2608E-001  
  581.00  1.2673E-001  
  581.50  1.2739E-001  
  582.00  1.2794E-001  
  582.50  1.2859E-001  
  583.00  1.2921E-001  
  583.50  1.2998E-001  
  584.00  1.3060E-001  
  584.50  1.3109E-001  
  585.00  1.3151E-001  
  585.50  1.3203E-001  
  586.00  1.3272E-001  
  586.50  1.3344E-001  
  587.00  1.3408E-001  
  587.50  1.3458E-001  
  588.00  1.3509E-001  
  588.50  1.3553E-001  
  589.00  1.3612E-001  
  589.50  1.3663E-001  
  590.00  1.3714E-001  
  590.50  1.3762E-001  
  591.00  1.3815E-001  
  591.50  1.3865E-001  
  592.00  1.3901E-001  
  592.50  1.3921E-001  
  593.00  1.3953E-001  
  593.50  1.3978E-001  
  594.00  1.4028E-001  
  594.50  1.4077E-001  
  595.00  1.4128E-001  
  595.50  1.4143E-001  
  596.00  1.4150E-001  
  596.50  1.4172E-001  
  597.00  1.4219E-001  
  597.50  1.4260E-001  
  598.00  1.4281E-001  
  598.50  1.4303E-001  
  599.00  1.4330E-001  
  599.50  1.4354E-001  
  600.00  1.4373E-001  
  600.50  1.4392E-001  
  601.00  1.4415E-001  
  601.50  1.4426E-001  
  602.00  1.4430E-001  
  602.50  1.4438E-001  
  603.00  1.4449E-001  
  603.50  1.4455E-001  
  604.00  1.4464E-001  
  604.50  1.4485E-001  
  605.00  1.4502E-001  
  605.50  1.4507E-001  
  606.00  1.4499E-001  
  606.50  1.4515E-001  
  607.00  1.4523E-001  
  607.50  1.4525E-001  
  608.00  1.4507E-001  
  608.50  1.4510E-001  
  609.00  1.4514E-001  
  609.50  1.4532E-001  
  610.00  1.4536E-001  
  610.50  1.4517E-001  
  611.00  1.4483E-001  
  611.50  1.4445E-001  
  612.00  1.4426E-001  
  612.50  1.4429E-001  
  613.00  1.4417E-001  
  613.50  1.4409E-001  
  614.00  1.4391E-001  
  614.50  1.4374E-001  
  615.00  1.4347E-001  
  615.50  1.4306E-001  
  616.00  1.4283E-001  
  616.50  1.4259E-001  
  617.00  1.4229E-001  
  617.50  1.4179E-001  
  618.00  1.4132E-001  
  618.50  1.4084E-001  
  619.00  1.4035E-001  
  619.50  1.3992E-001  
  620.00  1.3967E-001  
  620.50  1.3944E-001  
  621.00  1.3921E-001  
  621.50  1.3871E-001  
  622.00  1.3829E-001  
  622.50  1.3765E-001  
  623.00  1.3707E-001  
  623.50  1.3643E-001  
  624.00  1.3568E-001  
  624.50  1.3498E-001  
  625.00  1.3444E-001  
  625.50  1.3412E-001  
  626.00  1.3367E-001  
  626.50  1.3309E-001  
  627.00  1.3246E-001  
  627.50  1.3198E-001  
  628.00  1.3144E-001  
  628.50  1.3084E-001  
  629.00  1.3019E-001  
  629.50  1.2936E-001  
  630.00  1.2861E-001  
  630.50  1.2794E-001  
  631.00  1.2729E-001  
  631.50  1.2655E-001  
  632.00  1.2563E-001  
  632.50  1.2491E-001  
  633.00  1.2423E-001  
  633.50  1.2365E-001  
  634.00  1.2299E-001  
  634.50  1.2238E-001  
  635.00  1.2166E-001  
  635.50  1.2071E-001  
  636.00  1.1974E-001  
  636.50  1.1895E-001  
  637.00  1.1827E-001  
  637.50  1.1757E-001  
  638.00  1.1669E-001  
  638.50  1.1601E-001  
  639.00  1.1533E-001  
  639.50  1.1468E-001  
  640.00  1.1385E-001  
  640.50  1.1279E-001  
  641.00  1.1174E-001  
  641.50  1.1073E-001  
  642.00  1.0990E-001  
  642.50  1.0909E-001  
  643.00  1.0829E-001  
  643.50  1.0747E-001  
  644.00  1.0666E-001  
  644.50  1.0589E-001  
  645.00  1.0513E-001  
  645.50  1.0423E-001  
  646.00  1.0319E-001  
  646.50  1.0212E-001  
  647.00  1.0131E-001  
  647.50  1.0060E-001  
  648.00  9.9875E-002  
  648.50  9.8986E-002  
  649.00  9.8002E-002  
  649.50  9.7023E-002  
  650.00  9.6071E-002  
  650.50  9.5178E-002  
  651.00  9.4432E-002  
  651.50  9.3509E-002  
  652.00  9.2468E-002  
  652.50  9.1442E-002  
  653.00  9.0590E-002  
  653.50  8.9816E-002  
  654.00  8.8974E-002  
  654.50  8.8011E-002  
  655.00  8.7116E-002  
  655.50  8.6189E-002  
  656.00  8.5407E-002  
  656.50  8.4569E-002  
  657.00  8.3700E-002  
  657.50  8.2922E-002  
  658.00  8.2046E-002  
  658.50  8.1217E-002  
  659.00  8.0433E-002  
  659.50  7.9802E-002  
  660.00  7.9079E-002  
  660.50  7.8205E-002  
  661.00  7.7167E-002  
  661.50  7.6228E-002  
  662.00  7.5283E-002  
  662.50  7.4464E-002  
  663.00  7.3563E-002  
  663.50  7.2630E-002  
  664.00  7.1708E-002  
  664.50  7.0839E-002  
  665.00  7.0032E-002  
  665.50  6.9264E-002  
  666.00  6.8455E-002  
  666.50  6.7748E-002  
  667.00  6.7017E-002  
  667.50  6.6378E-002  
  668.00  6.5595E-002  
  668.50  6.4759E-002  
  669.00  6.3922E-002  
  669.50  6.3075E-002  
  670.00  6.2240E-002  
  670.50  6.1473E-002  
  671.00  6.0788E-002  
  671.50  6.0153E-002  
  672.00  5.9326E-002  
  672.50  5.8519E-002  
  673.00  5.7858E-002  
  673.50  5.7291E-002  
  674.00  5.6519E-002  
  674.50  5.5714E-002  
  675.00  5.4920E-002  
  675.50  5.4275E-002  
  676.00  5.3638E-002  
  676.50  5.3063E-002  
  677.00  5.2363E-002  
  677.50  5.1623E-002  
  678.00  5.0928E-002  
  678.50  5.0249E-002  
  679.00  4.9550E-002  
  679.50  4.8952E-002  
  680.00  4.8411E-002  
  680.50  4.7789E-002  
  681.00  4.7126E-002  
  681.50  4.6520E-002  
  682.00  4.5973E-002  
  682.50  4.5444E-002  
  683.00  4.4928E-002  
  683.50  4.4424E-002  
  684.00  4.3714E-002  
  684.50  4.2989E-002  
  685.00  4.2266E-002  
  685.50  4.1702E-002  
  686.00  4.1120E-002  
  686.50  4.0661E-002  
  687.00  4.0221E-002  
  687.50  3.9782E-002  
  688.00  3.9134E-002  
  688.50  3.8507E-002  
  689.00  3.7767E-002  
  689.50  3.7230E-002  
  690.00  3.6843E-002  
  690.50  3.6483E-002  
  691.00  3.6032E-002  
  691.50  3.5452E-002  
  692.00  3.4999E-002  
  692.50  3.4459E-002  
  693.00  3.3919E-002  
  693.50  3.3503E-002  
  694.00  3.3094E-002  
  694.50  3.2628E-002  
  695.00  3.2041E-002  
  695.50  3.1502E-002  
  696.00  3.1011E-002  
  696.50  3.0595E-002  
  697.00  3.0274E-002  
  697.50  2.9972E-002  
  698.00  2.9668E-002  
  698.50  2.9369E-002  
  699.00  2.9017E-002  
  699.50  2.8597E-002  
  700.00  2.7990E-002  
  700.50  2.7470E-002  
  701.00  2.6964E-002  
  701.50  2.6551E-002  
  702.00  2.6094E-002  
  702.50  2.5724E-002  
  703.00  2.5350E-002  
  703.50  2.5098E-002  
  704.00  2.4769E-002  
  704.50  2.4394E-002  
  705.00  2.3959E-002  
  705.50  2.3551E-002  
  706.00  2.3214E-002  
  706.50  2.2856E-002  
  707.00  2.2508E-002  
  707.50  2.2267E-002  
  708.00  2.1992E-002  
  708.50  2.1753E-002  
  709.00  2.1301E-002  
  709.50  2.0999E-002  
  710.00  2.0667E-002  
  710.50  2.0371E-002  
  711.00  2.0031E-002  
  711.50  1.9708E-002  
  712.00  1.9395E-002  
  712.50  1.9059E-002  
  713.00  1.8861E-002  
  713.50  1.8644E-002  
  714.00  1.8392E-002  
  714.50  1.8110E-002  
  715.00  1.7822E-002  
  715.50  1.7482E-002  
  716.00  1.7234E-002  
  716.50  1.7039E-002  
  717.00  1.6811E-002  
  717.50  1.6633E-002  
  718.00  1.6423E-002  
  718.50  1.6213E-002  
  719.00  1.5930E-002  
  719.50  1.5826E-002  
  720.00  1.5598E-002  
  720.50  1.5275E-002  
  721.00  1.4916E-002  
  721.50  1.4632E-002  
  722.00  1.4375E-002  
  722.50  1.4182E-002  
  723.00  1.4066E-002  
  723.50  1.3823E-002  
  724.00  1.3506E-002  
  724.50  1.3292E-002  
  725.00  1.3265E-002  
  725.50  1.3228E-002  
  726.00  1.3105E-002  
  726.50  1.2807E-002  
  727.00  1.2511E-002  
  727.50  1.2317E-002  
  728.00  1.2232E-002  
  728.50  1.1948E-002  
  729.00  1.1743E-002  
  729.50  1.1684E-002  
  730.00  1.1752E-002  
  730.50  1.1565E-002  
  731.00  1.1224E-002  
  731.50  1.0874E-002  
  732.00  1.0601E-002  
  732.50  1.0369E-002  
  733.00  1.0274E-002  
  733.50  1.0172E-002  
  734.00  1.0034E-002  
  734.50  9.9226E-003  
  735.00  9.8206E-003  
  735.50  9.6459E-003  
  736.00  9.4141E-003  
  736.50  9.2678E-003  
  737.00  9.1743E-003  
  737.50  9.0019E-003  
  738.00  8.8743E-003  
  738.50  8.8333E-003  
  739.00  8.7220E-003  
  739.50  8.5192E-003  
  740.00  8.5111E-003  
  740.50  8.6200E-003  
  741.00  8.4963E-003  
  741.50  8.1289E-003  
  742.00  7.8493E-003  
  742.50  7.7493E-003  
  743.00  7.6415E-003  
  743.50  7.4892E-003  
  744.00  7.3560E-003  
  744.50  7.2104E-003  
  745.00  7.0853E-003  
  745.50  6.9836E-003  
  746.00  6.8762E-003  
  746.50  6.7061E-003  
  747.00  6.5883E-003  
  747.50  6.5199E-003  
  748.00  6.3683E-003  
  748.50  6.2117E-003  
  749.00  6.2608E-003  
  749.50  6.3675E-003  
  750.00  6.2616E-003  
  750.50  6.0017E-003  
  751.00  5.8583E-003  
  751.50  5.9039E-003  
  752.00  5.8197E-003  
  752.50  5.6713E-003  
  753.00  5.5096E-003  
  753.50  5.4673E-003  
  754.00  5.3860E-003  
  754.50  5.4289E-003  
  755.00  5.4633E-003  
  755.50  5.2919E-003  
  756.00  5.1449E-003  
  756.50  5.1819E-003  
  757.00  5.1594E-003  
  757.50  4.9246E-003  
  758.00  4.6963E-003  
  758.50  4.6784E-003  
  759.00  4.6660E-003  
  759.50  4.5535E-003  
  760.00  4.3775E-003  
  760.50  4.2854E-003  
  761.00  4.3307E-003  
  761.50  4.4958E-003  
  762.00  4.5839E-003  
  762.50  4.3932E-003  
  763.00  4.0646E-003  
  763.50  3.9907E-003  
  764.00  3.9581E-003  
  764.50  3.7252E-003  
  765.00  3.6274E-003  
  765.50  3.7071E-003  
  766.00  3.7607E-003  
  766.50  3.6520E-003  
  767.00  3.5979E-003  
  767.50  3.4245E-003  
  768.00  3.3593E-003  
  768.50  3.2089E-003  
  769.00  3.0611E-003  
  769.50  2.9474E-003  
  770.00  3.1352E-003  
  770.50  3.2350E-003  
  771.00  3.2245E-003  
  771.50  3.0145E-003  
  772.00  2.8912E-003  
  772.50  2.8096E-003  
  773.00  2.8336E-003  
  773.50  2.8302E-003  
  774.00  2.9348E-003  
  774.50  2.8326E-003  
  775.00  2.7397E-003  
  775.50  2.7094E-003  
  776.00  2.8560E-003  
  776.50  2.7683E-003  
  777.00  2.6281E-003  
  777.50  2.4067E-003  
  778.00  2.1791E-003  
  778.50  2.2414E-003  
  779.00  2.3547E-003  
  779.50  2.2553E-003  
  780.00  2.1296E-003  
  780.50  2.2058E-003  
  781.00  2.4258E-003  
  781.50  2.4130E-003  
  782.00  2.4198E-003  
  782.50  2.2883E-003  
  783.00  2.2706E-003  
  783.50  1.9157E-003  
  784.00  1.7070E-003  
  784.50  1.5790E-003  
  785.00  1.8051E-003  
  785.50  1.9681E-003  
  786.00  2.0107E-003  
  786.50  1.8773E-003  
  787.00  1.8494E-003  
  787.50  1.8595E-003  
  788.00  1.6175E-003  
  788.50  1.4052E-003  
  789.00  1.4417E-003  
  789.50  1.5667E-003  
  790.00  1.5937E-003  
  790.50  1.4402E-003  
  791.00  1.4530E-003  
  791.50  1.4643E-003  
  792.00  1.4507E-003  
  792.50  1.3731E-003  
  793.00  1.4301E-003  
  793.50  1.4317E-003  
  794.00  1.5994E-003  
  794.50  1.5160E-003  
  795.00  1.4694E-003  
  795.50  1.4302E-003  
  796.00  1.4681E-003  
  796.50  1.3474E-003  
  797.00  1.2673E-003  
  797.50  1.0919E-003  
  798.00  1.1196E-003  
  798.50  1.2672E-003  
  799.00  1.4700E-003  
  799.50  1.4020E-003  
  800.00  1.2908E-003  
  800.50  1.3821E-003  
  801.00  1.3194E-003  
  801.50  1.2707E-003  
  802.00  1.0007E-003  
  802.50  8.5540E-004  
  803.00  7.8946E-004  
  803.50  7.6499E-004  
  804.00  6.2133E-004  
  804.50  6.3291E-004  
  805.00  7.2863E-004  
  805.50  8.1770E-004  
  806.00  9.1204E-004  
  806.50  9.7218E-004  
  807.00  7.8682E-004  
  807.50  3.3466E-004  
  808.00  5.0940E-005  
  808.50  1.8946E-004  
  809.00  6.6300E-004  
  809.50  6.6962E-004  
  810.00  2.3338E-004  
  810.50  0.0000E+000  
  811.00  2.6015E-005  
  811.50  2.6425E-004  
  812.00  5.4894E-004  
  812.50  7.9829E-004  
  813.00  7.8833E-004  
  813.50  5.8994E-004  
  814.00  3.2380E-004  
  814.50  1.8336E-004  
  815.00  4.2247E-004  
  815.50  5.7899E-004  
  816.00  6.1866E-004  
  816.50  4.4832E-004  
  817.00  4.5912E-004  
  817.50  4.4626E-004  
  818.00  4.4557E-004  
  818.50  3.3092E-004  
  819.00  3.8308E-004  
  819.50  5.6298E-004  
  820.00  3.1470E-004  
  820.50  2.0335E-004  
  821.00  4.5113E-004  
  821.50  3.7177E-004  
  822.00  2.7539E-004  
  822.50  3.5436E-004  
  823.00  4.0206E-004  
  823.50  1.8743E-004  
  824.00  2.9963E-005  
  824.50  8.2482E-005  
  825.00  3.4799E-004  
  825.50  5.3487E-004  
  826.00  6.6213E-004  
  826.50  4.3308E-004  
  827.00  1.7123E-004  
  827.50  7.3540E-006  
  828.00  0.0000E+000  
  828.50  1.7095E-004  
  829.00  4.4990E-004  
  829.50  1.5429E-004  
  830.00  0.0000E+000  
  830.50  0.0000E+000  
  831.00  0.0000E+000  
  831.50  0.0000E+000  
  832.00  0.0000E+000  
  832.50  0.0000E+000  
  833.00  1.3474E-004  
  833.50  3.5583E-004  
  834.00  1.8851E-004  
  834.50  4.0879E-006  
  835.00  0.0000E+000  
  835.50  0.0000E+000  
  836.00  6.6242E-006  
  836.50  6.5387E-005  
  837.00  3.2220E-006  
  837.50  0.0000E+000  
  838.00  0.0000E+000  
  838.50  0.0000E+000  
  839.00  0.0000E+000  
  839.50  0.0000E+000  
  840.00  0.0000E+000  
  840.50  0.0000E+000  
  841.00  0.0000E+000  
  841.50  0.0000E+000  
  842.00  0.0000E+000  
  842.50  0.0000E+000  
  843.00  0.0000E+000  
  843.50  0.0000E+000  
  844.00  0.0000E+000  
  844.50  0.0000E+000  
  845.00  0.0000E+000  
  845.50  0.0000E+000  
  846.00  0.0000E+000  
  846.50  4.2879E-004  
  847.00  8.4744E-004  
  847.50  7.4599E-004  
  848.00  3.7515E-004  
  848.50  1.8108E-004  
  849.00  0.0000E+000  
  849.50  0.0000E+000  
  850.00  0.0000E+000  
  850.50  0.0000E+000  
  851.00  0.0000E+000  
  851.50  0.0000E+000  
  852.00  0.0000E+000  
  852.50  0.0000E+000  
  853.00  3.1535E-005  
  853.50  0.0000E+000  
  854.00  0.0000E+000  
  854.50  0.0000E+000  
  855.00  0.0000E+000  
  855.50  0.0000E+000  
  856.00  0.0000E+000  
  856.50  6.0080E-005  
  857.00  0.0000E+000  
  857.50  0.0000E+000  
  858.00  0.0000E+000  
  858.50  0.0000E+000  
  859.00  0.0000E+000  
  859.50  0.0000E+000  
  860.00  0.0000E+000  
  860.50  0.0000E+000  
  861.00  0.0000E+000  
  861.50  0.0000E+000  
  862.00  0.0000E+000  
  862.50  0.0000E+000  
  863.00  0.0000E+000  
  863.50  0.0000E+000  
  864.00  0.0000E+000  
  864.50  0.0000E+000  
  865.00  0.0000E+000  
  865.50  0.0000E+000  
  866.00  8.6421E-005  
  866.50  0.0000E+000  
  867.00  0.0000E+000  
  867.50  0.0000E+000  
  868.00  0.0000E+000  
  868.50  0.0000E+000  
  869.00  0.0000E+000  
  869.50  0.0000E+000  
  870.00  0.0000E+000  
  870.50  0.0000E+000  
  871.00  0.0000E+000  
  871.50  0.0000E+000  
  872.00  0.0000E+000  
  872.50  0.0000E+000  
  873.00  0.0000E+000  
  873.50  0.0000E+000  
  874.00  0.0000E+000  
  874.50  0.0000E+000  
  875.00  0.0000E+000  
  875.50  0.0000E+000  
  876.00  0.0000E+000  
  876.50  0.0000E+000  
  877.00  0.0000E+000  
  877.50  0.0000E+000  
  878.00  0.0000E+000  
  878.50  0.0000E+000  
  879.00  0.0000E+000  
  879.50  0.0000E+000  
  880.00  0.0000E+000  
  880.50  0.0000E+000  
  881.00  0.0000E+000  
  881.50  0.0000E+000  
  882.00  0.0000E+000  
  882.50  0.0000E+000  
  883.00  0.0000E+000  
  883.50  0.0000E+000  
  884.00  0.0000E+000  
  884.50  0.0000E+000  
  885.00  0.0000E+000  
  885.50  0.0000E+000  
  886.00  0.0000E+000  
  886.50  0.0000E+000  
  887.00  0.0000E+000  
  887.50  0.0000E+000  
  888.00  0.0000E+000  
  888.50  0.0000E+000  
  889.00  0.0000E+000  
  889.50  0.0000E+000  
  890.00  0.0000E+000  
  890.50  0.0000E+000  
  891.00  0.0000E+000  
  891.50  0.0000E+000  
  892.00  0.0000E+000  
  892.50  0.0000E+000  
  893.00  0.0000E+000  
  893.50  0.0000E+000  
  894.00  0.0000E+000  
  894.50  0.0000E+000  
  895.00  0.0000E+000  
  895.50  0.0000E+000  
  896.00  0.0000E+000  
  896.50  0.0000E+000  
  897.00  0.0000E+000  
  897.50  0.0000E+000  
  898.00  0.0000E+000  
  898.50  0.0000E+000  
  899.00  0.0000E+000  
  899.50  0.0000E+000  
