
# From lspdd.org
# 
# Name: INC Globe A19 Domestique
# Indice spectral Valeur 
# MSI 0.25 
# SLI 0.46 
# IPI 0.99 
# Pourcentage de bleu 10.1 
# Caractéristique Valeur 
# CCT calculée (K) 2440 
# CCT du fabricant (K) 2445 
# Tension (V) 120 
# Puissance (W) 100.0 
# Efficacité lumineuse (Lum/W) 11.3 
#
# Image: '/app/system/img_2s/2578/medium_image2.jpg?1413486461'
# Image: '/app/system/img_1s/2578/medium_image1.JPG?1413486462'
# 

  273.00  0.0000E+000  
  273.50  0.0000E+000  
  274.00  0.0000E+000  
  274.50  0.0000E+000  
  275.00  0.0000E+000  
  275.50  0.0000E+000  
  276.00  0.0000E+000  
  276.50  0.0000E+000  
  277.00  0.0000E+000  
  277.50  0.0000E+000  
  278.00  0.0000E+000  
  278.50  0.0000E+000  
  279.00  0.0000E+000  
  279.50  0.0000E+000  
  280.00  0.0000E+000  
  280.50  0.0000E+000  
  281.00  0.0000E+000  
  281.50  0.0000E+000  
  282.00  0.0000E+000  
  282.50  0.0000E+000  
  283.00  0.0000E+000  
  283.50  0.0000E+000  
  284.00  0.0000E+000  
  284.50  0.0000E+000  
  285.00  0.0000E+000  
  285.50  0.0000E+000  
  286.00  0.0000E+000  
  286.50  0.0000E+000  
  287.00  0.0000E+000  
  287.50  0.0000E+000  
  288.00  0.0000E+000  
  288.50  0.0000E+000  
  289.00  0.0000E+000  
  289.50  0.0000E+000  
  290.00  0.0000E+000  
  290.50  0.0000E+000  
  291.00  0.0000E+000  
  291.50  0.0000E+000  
  292.00  0.0000E+000  
  292.50  0.0000E+000  
  293.00  0.0000E+000  
  293.50  0.0000E+000  
  294.00  0.0000E+000  
  294.50  0.0000E+000  
  295.00  0.0000E+000  
  295.50  0.0000E+000  
  296.00  0.0000E+000  
  296.50  0.0000E+000  
  297.00  0.0000E+000  
  297.50  0.0000E+000  
  298.00  0.0000E+000  
  298.50  0.0000E+000  
  299.00  0.0000E+000  
  299.50  0.0000E+000  
  300.00  6.4097E-006  
  300.50  3.0008E-005  
  301.00  5.2853E-005  
  301.50  1.0253E-004  
  302.00  1.6962E-004  
  302.50  1.5482E-004  
  303.00  1.0216E-004  
  303.50  3.2389E-005  
  304.00  0.0000E+000  
  304.50  0.0000E+000  
  305.00  0.0000E+000  
  305.50  0.0000E+000  
  306.00  5.3564E-007  
  306.50  7.1966E-005  
  307.00  1.3499E-004  
  307.50  1.8279E-004  
  308.00  1.3060E-004  
  308.50  1.0346E-004  
  309.00  1.2832E-004  
  309.50  1.3829E-004  
  310.00  1.6359E-004  
  310.50  1.8479E-004  
  311.00  1.7514E-004  
  311.50  1.5230E-004  
  312.00  9.1868E-005  
  312.50  5.6690E-005  
  313.00  5.5754E-005  
  313.50  4.9664E-005  
  314.00  1.0145E-004  
  314.50  8.1958E-005  
  315.00  9.1760E-005  
  315.50  9.3724E-005  
  316.00  5.5877E-005  
  316.50  2.7210E-005  
  317.00  1.6147E-006  
  317.50  4.0288E-005  
  318.00  6.4063E-005  
  318.50  7.7287E-005  
  319.00  7.8820E-005  
  319.50  1.0007E-004  
  320.00  1.3031E-004  
  320.50  1.3089E-004  
  321.00  1.4507E-004  
  321.50  1.3803E-004  
  322.00  1.1328E-004  
  322.50  1.1564E-004  
  323.00  1.0082E-004  
  323.50  9.6848E-005  
  324.00  1.0913E-004  
  324.50  1.3765E-004  
  325.00  1.4154E-004  
  325.50  1.2188E-004  
  326.00  1.1553E-004  
  326.50  1.0195E-004  
  327.00  9.9437E-005  
  327.50  8.4268E-005  
  328.00  9.2436E-005  
  328.50  8.8744E-005  
  329.00  8.7640E-005  
  329.50  8.0009E-005  
  330.00  7.7101E-005  
  330.50  8.0385E-005  
  331.00  1.0988E-004  
  331.50  1.6088E-004  
  332.00  1.6168E-004  
  332.50  1.7608E-004  
  333.00  1.7456E-004  
  333.50  1.5405E-004  
  334.00  1.5277E-004  
  334.50  1.2057E-004  
  335.00  1.2324E-004  
  335.50  1.5046E-004  
  336.00  1.6754E-004  
  336.50  1.9664E-004  
  337.00  1.9354E-004  
  337.50  1.8015E-004  
  338.00  1.6138E-004  
  338.50  1.6678E-004  
  339.00  2.2180E-004  
  339.50  2.0027E-004  
  340.00  2.1566E-004  
  340.50  2.0786E-004  
  341.00  2.1093E-004  
  341.50  2.9932E-004  
  342.00  3.4457E-004  
  342.50  3.3012E-004  
  343.00  3.0456E-004  
  343.50  2.9816E-004  
  344.00  3.0094E-004  
  344.50  3.2336E-004  
  345.00  3.5895E-004  
  345.50  3.3403E-004  
  346.00  3.3425E-004  
  346.50  3.3027E-004  
  347.00  3.0147E-004  
  347.50  3.1441E-004  
  348.00  3.8100E-004  
  348.50  4.5569E-004  
  349.00  4.9017E-004  
  349.50  4.9689E-004  
  350.00  4.4568E-004  
  350.50  4.3504E-004  
  351.00  4.4207E-004  
  351.50  4.7436E-004  
  352.00  5.0216E-004  
  352.50  5.3820E-004  
  353.00  5.7539E-004  
  353.50  5.5576E-004  
  354.00  5.4783E-004  
  354.50  5.0912E-004  
  355.00  4.7125E-004  
  355.50  4.7014E-004  
  356.00  4.3486E-004  
  356.50  4.2141E-004  
  357.00  4.2520E-004  
  357.50  4.4975E-004  
  358.00  5.0561E-004  
  358.50  5.6485E-004  
  359.00  5.9633E-004  
  359.50  6.0271E-004  
  360.00  5.8640E-004  
  360.50  5.6711E-004  
  361.00  5.7675E-004  
  361.50  5.8167E-004  
  362.00  5.9495E-004  
  362.50  6.2794E-004  
  363.00  6.7137E-004  
  363.50  6.9218E-004  
  364.00  7.0564E-004  
  364.50  7.1737E-004  
  365.00  7.3713E-004  
  365.50  8.1683E-004  
  366.00  8.3770E-004  
  366.50  8.2451E-004  
  367.00  7.9582E-004  
  367.50  7.1532E-004  
  368.00  7.1290E-004  
  368.50  7.2080E-004  
  369.00  7.2049E-004  
  369.50  7.8396E-004  
  370.00  8.1487E-004  
  370.50  8.7985E-004  
  371.00  9.5013E-004  
  371.50  9.1339E-004  
  372.00  9.0158E-004  
  372.50  9.0080E-004  
  373.00  8.8416E-004  
  373.50  9.1842E-004  
  374.00  9.0141E-004  
  374.50  9.3990E-004  
  375.00  9.9403E-004  
  375.50  9.7924E-004  
  376.00  9.5566E-004  
  376.50  9.4606E-004  
  377.00  9.6401E-004  
  377.50  1.0349E-003  
  378.00  1.0521E-003  
  378.50  1.0258E-003  
  379.00  9.8441E-004  
  379.50  1.0195E-003  
  380.00  1.0904E-003  
  380.50  1.1428E-003  
  381.00  1.1787E-003  
  381.50  1.1632E-003  
  382.00  1.1393E-003  
  382.50  1.1274E-003  
  383.00  1.1300E-003  
  383.50  1.1964E-003  
  384.00  1.2431E-003  
  384.50  1.3021E-003  
  385.00  1.3325E-003  
  385.50  1.3266E-003  
  386.00  1.3424E-003  
  386.50  1.3285E-003  
  387.00  1.2617E-003  
  387.50  1.2080E-003  
  388.00  1.2305E-003  
  388.50  1.3166E-003  
  389.00  1.4334E-003  
  389.50  1.4881E-003  
  390.00  1.4830E-003  
  390.50  1.4816E-003  
  391.00  1.4793E-003  
  391.50  1.5274E-003  
  392.00  1.5504E-003  
  392.50  1.5638E-003  
  393.00  1.5874E-003  
  393.50  1.5744E-003  
  394.00  1.6021E-003  
  394.50  1.6035E-003  
  395.00  1.6049E-003  
  395.50  1.6135E-003  
  396.00  1.6020E-003  
  396.50  1.6339E-003  
  397.00  1.6359E-003  
  397.50  1.6566E-003  
  398.00  1.7333E-003  
  398.50  1.7912E-003  
  399.00  1.8977E-003  
  399.50  1.9378E-003  
  400.00  1.8962E-003  
  400.50  1.8507E-003  
  401.00  1.8414E-003  
  401.50  1.8717E-003  
  402.00  1.9599E-003  
  402.50  2.0108E-003  
  403.00  2.0255E-003  
  403.50  1.9955E-003  
  404.00  1.9848E-003  
  404.50  2.0403E-003  
  405.00  2.0961E-003  
  405.50  2.1656E-003  
  406.00  2.1675E-003  
  406.50  2.0928E-003  
  407.00  2.0968E-003  
  407.50  2.0792E-003  
  408.00  2.0950E-003  
  408.50  2.0852E-003  
  409.00  2.0871E-003  
  409.50  2.1554E-003  
  410.00  2.2005E-003  
  410.50  2.2622E-003  
  411.00  2.2948E-003  
  411.50  2.3309E-003  
  412.00  2.3623E-003  
  412.50  2.3788E-003  
  413.00  2.3611E-003  
  413.50  2.3614E-003  
  414.00  2.3933E-003  
  414.50  2.4191E-003  
  415.00  2.5084E-003  
  415.50  2.5715E-003  
  416.00  2.6529E-003  
  416.50  2.6887E-003  
  417.00  2.7094E-003  
  417.50  2.6819E-003  
  418.00  2.6802E-003  
  418.50  2.6753E-003  
  419.00  2.7089E-003  
  419.50  2.7899E-003  
  420.00  2.8432E-003  
  420.50  2.8983E-003  
  421.00  2.8969E-003  
  421.50  2.8695E-003  
  422.00  2.8811E-003  
  422.50  2.9693E-003  
  423.00  3.0712E-003  
  423.50  3.1515E-003  
  424.00  3.1524E-003  
  424.50  3.0761E-003  
  425.00  3.0929E-003  
  425.50  3.1110E-003  
  426.00  3.1725E-003  
  426.50  3.2467E-003  
  427.00  3.2923E-003  
  427.50  3.3530E-003  
  428.00  3.3951E-003  
  428.50  3.4441E-003  
  429.00  3.4990E-003  
  429.50  3.5170E-003  
  430.00  3.4792E-003  
  430.50  3.4579E-003  
  431.00  3.4839E-003  
  431.50  3.5169E-003  
  432.00  3.5893E-003  
  432.50  3.5913E-003  
  433.00  3.6314E-003  
  433.50  3.6982E-003  
  434.00  3.7871E-003  
  434.50  3.8522E-003  
  435.00  3.8815E-003  
  435.50  3.9182E-003  
  436.00  3.9187E-003  
  436.50  3.9821E-003  
  437.00  4.0118E-003  
  437.50  4.0517E-003  
  438.00  4.1312E-003  
  438.50  4.1969E-003  
  439.00  4.2655E-003  
  439.50  4.3010E-003  
  440.00  4.3010E-003  
  440.50  4.3358E-003  
  441.00  4.3584E-003  
  441.50  4.3818E-003  
  442.00  4.3359E-003  
  442.50  4.3138E-003  
  443.00  4.3277E-003  
  443.50  4.3704E-003  
  444.00  4.4532E-003  
  444.50  4.5050E-003  
  445.00  4.5618E-003  
  445.50  4.5950E-003  
  446.00  4.6269E-003  
  446.50  4.6926E-003  
  447.00  4.7939E-003  
  447.50  4.8932E-003  
  448.00  4.9648E-003  
  448.50  5.0061E-003  
  449.00  4.9981E-003  
  449.50  5.0038E-003  
  450.00  5.0173E-003  
  450.50  5.0458E-003  
  451.00  5.0948E-003  
  451.50  5.1357E-003  
  452.00  5.1863E-003  
  452.50  5.2600E-003  
  453.00  5.3494E-003  
  453.50  5.4264E-003  
  454.00  5.4958E-003  
  454.50  5.5590E-003  
  455.00  5.5929E-003  
  455.50  5.6231E-003  
  456.00  5.6433E-003  
  456.50  5.7128E-003  
  457.00  5.7690E-003  
  457.50  5.8280E-003  
  458.00  5.8449E-003  
  458.50  5.8680E-003  
  459.00  5.9184E-003  
  459.50  5.9939E-003  
  460.00  6.0689E-003  
  460.50  6.1253E-003  
  461.00  6.2007E-003  
  461.50  6.2567E-003  
  462.00  6.2707E-003  
  462.50  6.3059E-003  
  463.00  6.3451E-003  
  463.50  6.4228E-003  
  464.00  6.5492E-003  
  464.50  6.6149E-003  
  465.00  6.6465E-003  
  465.50  6.7147E-003  
  466.00  6.7153E-003  
  466.50  6.7690E-003  
  467.00  6.7503E-003  
  467.50  6.7767E-003  
  468.00  6.8577E-003  
  468.50  6.9466E-003  
  469.00  7.0261E-003  
  469.50  7.0792E-003  
  470.00  7.1418E-003  
  470.50  7.2069E-003  
  471.00  7.2318E-003  
  471.50  7.3055E-003  
  472.00  7.4007E-003  
  472.50  7.5283E-003  
  473.00  7.5716E-003  
  473.50  7.5959E-003  
  474.00  7.6127E-003  
  474.50  7.6692E-003  
  475.00  7.7574E-003  
  475.50  7.8381E-003  
  476.00  7.9162E-003  
  476.50  8.0053E-003  
  477.00  8.0681E-003  
  477.50  8.0935E-003  
  478.00  8.1221E-003  
  478.50  8.1955E-003  
  479.00  8.2970E-003  
  479.50  8.3756E-003  
  480.00  8.4365E-003  
  480.50  8.4644E-003  
  481.00  8.4986E-003  
  481.50  8.5282E-003  
  482.00  8.5209E-003  
  482.50  8.5552E-003  
  483.00  8.6051E-003  
  483.50  8.6877E-003  
  484.00  8.7681E-003  
  484.50  8.8636E-003  
  485.00  8.9449E-003  
  485.50  9.0258E-003  
  486.00  9.0884E-003  
  486.50  9.1225E-003  
  487.00  9.1571E-003  
  487.50  9.2351E-003  
  488.00  9.3363E-003  
  488.50  9.4589E-003  
  489.00  9.5556E-003  
  489.50  9.5943E-003  
  490.00  9.6089E-003  
  490.50  9.6176E-003  
  491.00  9.7117E-003  
  491.50  9.7951E-003  
  492.00  9.8906E-003  
  492.50  9.9694E-003  
  493.00  1.0077E-002  
  493.50  1.0202E-002  
  494.00  1.0296E-002  
  494.50  1.0396E-002  
  495.00  1.0471E-002  
  495.50  1.0539E-002  
  496.00  1.0577E-002  
  496.50  1.0641E-002  
  497.00  1.0724E-002  
  497.50  1.0822E-002  
  498.00  1.0923E-002  
  498.50  1.1045E-002  
  499.00  1.1193E-002  
  499.50  1.1304E-002  
  500.00  1.1369E-002  
  500.50  1.1422E-002  
  501.00  1.1482E-002  
  501.50  1.1567E-002  
  502.00  1.1667E-002  
  502.50  1.1732E-002  
  503.00  1.1807E-002  
  503.50  1.1884E-002  
  504.00  1.2017E-002  
  504.50  1.2138E-002  
  505.00  1.2270E-002  
  505.50  1.2402E-002  
  506.00  1.2507E-002  
  506.50  1.2609E-002  
  507.00  1.2682E-002  
  507.50  1.2773E-002  
  508.00  1.2889E-002  
  508.50  1.3016E-002  
  509.00  1.3164E-002  
  509.50  1.3282E-002  
  510.00  1.3386E-002  
  510.50  1.3455E-002  
  511.00  1.3557E-002  
  511.50  1.3681E-002  
  512.00  1.3839E-002  
  512.50  1.3982E-002  
  513.00  1.4122E-002  
  513.50  1.4269E-002  
  514.00  1.4382E-002  
  514.50  1.4477E-002  
  515.00  1.4557E-002  
  515.50  1.4661E-002  
  516.00  1.4808E-002  
  516.50  1.4942E-002  
  517.00  1.5052E-002  
  517.50  1.5142E-002  
  518.00  1.5237E-002  
  518.50  1.5365E-002  
  519.00  1.5521E-002  
  519.50  1.5628E-002  
  520.00  1.5770E-002  
  520.50  1.5911E-002  
  521.00  1.6049E-002  
  521.50  1.6193E-002  
  522.00  1.6300E-002  
  522.50  1.6454E-002  
  523.00  1.6582E-002  
  523.50  1.6669E-002  
  524.00  1.6779E-002  
  524.50  1.6925E-002  
  525.00  1.7091E-002  
  525.50  1.7227E-002  
  526.00  1.7330E-002  
  526.50  1.7491E-002  
  527.00  1.7663E-002  
  527.50  1.7831E-002  
  528.00  1.7973E-002  
  528.50  1.8112E-002  
  529.00  1.8270E-002  
  529.50  1.8400E-002  
  530.00  1.8497E-002  
  530.50  1.8628E-002  
  531.00  1.8779E-002  
  531.50  1.8933E-002  
  532.00  1.9077E-002  
  532.50  1.9210E-002  
  533.00  1.9340E-002  
  533.50  1.9461E-002  
  534.00  1.9542E-002  
  534.50  1.9672E-002  
  535.00  1.9832E-002  
  535.50  1.9997E-002  
  536.00  2.0163E-002  
  536.50  2.0301E-002  
  537.00  2.0433E-002  
  537.50  2.0565E-002  
  538.00  2.0685E-002  
  538.50  2.0825E-002  
  539.00  2.1035E-002  
  539.50  2.1197E-002  
  540.00  2.1343E-002  
  540.50  2.1445E-002  
  541.00  2.1591E-002  
  541.50  2.1767E-002  
  542.00  2.1897E-002  
  542.50  2.1980E-002  
  543.00  2.2098E-002  
  543.50  2.2283E-002  
  544.00  2.2503E-002  
  544.50  2.2650E-002  
  545.00  2.2737E-002  
  545.50  2.2833E-002  
  546.00  2.2974E-002  
  546.50  2.3162E-002  
  547.00  2.3344E-002  
  547.50  2.3478E-002  
  548.00  2.3642E-002  
  548.50  2.3751E-002  
  549.00  2.3930E-002  
  549.50  2.4059E-002  
  550.00  2.4233E-002  
  550.50  2.4407E-002  
  551.00  2.4568E-002  
  551.50  2.4737E-002  
  552.00  2.4853E-002  
  552.50  2.4977E-002  
  553.00  2.5087E-002  
  553.50  2.5230E-002  
  554.00  2.5449E-002  
  554.50  2.5647E-002  
  555.00  2.5784E-002  
  555.50  2.5927E-002  
  556.00  2.6089E-002  
  556.50  2.6247E-002  
  557.00  2.6423E-002  
  557.50  2.6575E-002  
  558.00  2.6801E-002  
  558.50  2.6988E-002  
  559.00  2.7106E-002  
  559.50  2.7213E-002  
  560.00  2.7378E-002  
  560.50  2.7523E-002  
  561.00  2.7650E-002  
  561.50  2.7706E-002  
  562.00  2.7832E-002  
  562.50  2.8016E-002  
  563.00  2.8222E-002  
  563.50  2.8402E-002  
  564.00  2.8527E-002  
  564.50  2.8615E-002  
  565.00  2.8747E-002  
  565.50  2.8927E-002  
  566.00  2.9186E-002  
  566.50  2.9321E-002  
  567.00  2.9404E-002  
  567.50  2.9446E-002  
  568.00  2.9565E-002  
  568.50  2.9749E-002  
  569.00  2.9934E-002  
  569.50  3.0067E-002  
  570.00  3.0160E-002  
  570.50  3.0213E-002  
  571.00  3.0361E-002  
  571.50  3.0531E-002  
  572.00  3.0686E-002  
  572.50  3.0739E-002  
  573.00  3.0807E-002  
  573.50  3.0912E-002  
  574.00  3.1104E-002  
  574.50  3.1337E-002  
  575.00  3.1527E-002  
  575.50  3.1695E-002  
  576.00  3.1815E-002  
  576.50  3.1932E-002  
  577.00  3.2137E-002  
  577.50  3.2264E-002  
  578.00  3.2369E-002  
  578.50  3.2470E-002  
  579.00  3.2599E-002  
  579.50  3.2828E-002  
  580.00  3.3015E-002  
  580.50  3.3189E-002  
  581.00  3.3294E-002  
  581.50  3.3389E-002  
  582.00  3.3496E-002  
  582.50  3.3580E-002  
  583.00  3.3694E-002  
  583.50  3.3867E-002  
  584.00  3.4009E-002  
  584.50  3.4113E-002  
  585.00  3.4142E-002  
  585.50  3.4289E-002  
  586.00  3.4493E-002  
  586.50  3.4652E-002  
  587.00  3.4762E-002  
  587.50  3.4822E-002  
  588.00  3.4919E-002  
  588.50  3.5011E-002  
  589.00  3.5153E-002  
  589.50  3.5416E-002  
  590.00  3.5716E-002  
  590.50  3.5966E-002  
  591.00  3.6047E-002  
  591.50  3.6137E-002  
  592.00  3.6216E-002  
  592.50  3.6337E-002  
  593.00  3.6426E-002  
  593.50  3.6531E-002  
  594.00  3.6657E-002  
  594.50  3.6779E-002  
  595.00  3.6828E-002  
  595.50  3.6872E-002  
  596.00  3.6958E-002  
  596.50  3.7083E-002  
  597.00  3.7287E-002  
  597.50  3.7477E-002  
  598.00  3.7619E-002  
  598.50  3.7764E-002  
  599.00  3.7867E-002  
  599.50  3.8063E-002  
  600.00  3.8231E-002  
  600.50  3.8349E-002  
  601.00  3.8466E-002  
  601.50  3.8567E-002  
  602.00  3.8679E-002  
  602.50  3.8790E-002  
  603.00  3.8873E-002  
  603.50  3.9005E-002  
  604.00  3.9108E-002  
  604.50  3.9181E-002  
  605.00  3.9292E-002  
  605.50  3.9442E-002  
  606.00  3.9594E-002  
  606.50  3.9679E-002  
  607.00  3.9773E-002  
  607.50  3.9902E-002  
  608.00  4.0083E-002  
  608.50  4.0280E-002  
  609.00  4.0453E-002  
  609.50  4.0558E-002  
  610.00  4.0593E-002  
  610.50  4.0615E-002  
  611.00  4.0669E-002  
  611.50  4.0687E-002  
  612.00  4.0772E-002  
  612.50  4.0914E-002  
  613.00  4.1135E-002  
  613.50  4.1381E-002  
  614.00  4.1567E-002  
  614.50  4.1745E-002  
  615.00  4.1840E-002  
  615.50  4.1917E-002  
  616.00  4.1940E-002  
  616.50  4.2025E-002  
  617.00  4.2113E-002  
  617.50  4.2228E-002  
  618.00  4.2307E-002  
  618.50  4.2342E-002  
  619.00  4.2421E-002  
  619.50  4.2490E-002  
  620.00  4.2680E-002  
  620.50  4.2808E-002  
  621.00  4.2983E-002  
  621.50  4.3042E-002  
  622.00  4.3133E-002  
  622.50  4.3224E-002  
  623.00  4.3373E-002  
  623.50  4.3533E-002  
  624.00  4.3702E-002  
  624.50  4.3868E-002  
  625.00  4.4022E-002  
  625.50  4.4125E-002  
  626.00  4.4179E-002  
  626.50  4.4197E-002  
  627.00  4.4245E-002  
  627.50  4.4343E-002  
  628.00  4.4507E-002  
  628.50  4.4610E-002  
  629.00  4.4747E-002  
  629.50  4.4856E-002  
  630.00  4.5047E-002  
  630.50  4.5198E-002  
  631.00  4.5294E-002  
  631.50  4.5349E-002  
  632.00  4.5368E-002  
  632.50  4.5482E-002  
  633.00  4.5607E-002  
  633.50  4.5829E-002  
  634.00  4.6007E-002  
  634.50  4.6238E-002  
  635.00  4.6327E-002  
  635.50  4.6370E-002  
  636.00  4.6295E-002  
  636.50  4.6282E-002  
  637.00  4.6409E-002  
  637.50  4.6550E-002  
  638.00  4.6688E-002  
  638.50  4.6738E-002  
  639.00  4.6886E-002  
  639.50  4.7008E-002  
  640.00  4.7122E-002  
  640.50  4.7226E-002  
  641.00  4.7288E-002  
  641.50  4.7338E-002  
  642.00  4.7369E-002  
  642.50  4.7462E-002  
  643.00  4.7601E-002  
  643.50  4.7735E-002  
  644.00  4.7905E-002  
  644.50  4.8049E-002  
  645.00  4.8182E-002  
  645.50  4.8254E-002  
  646.00  4.8394E-002  
  646.50  4.8446E-002  
  647.00  4.8553E-002  
  647.50  4.8615E-002  
  648.00  4.8762E-002  
  648.50  4.8872E-002  
  649.00  4.9006E-002  
  649.50  4.9166E-002  
  650.00  4.9367E-002  
  650.50  4.9486E-002  
  651.00  4.9518E-002  
  651.50  4.9530E-002  
  652.00  4.9543E-002  
  652.50  4.9732E-002  
  653.00  4.9826E-002  
  653.50  4.9926E-002  
  654.00  4.9982E-002  
  654.50  5.0114E-002  
  655.00  5.0211E-002  
  655.50  5.0297E-002  
  656.00  5.0347E-002  
  656.50  5.0404E-002  
  657.00  5.0400E-002  
  657.50  5.0442E-002  
  658.00  5.0504E-002  
  658.50  5.0670E-002  
  659.00  5.0764E-002  
  659.50  5.0962E-002  
  660.00  5.1006E-002  
  660.50  5.1147E-002  
  661.00  5.1202E-002  
  661.50  5.1282E-002  
  662.00  5.1324E-002  
  662.50  5.1389E-002  
  663.00  5.1460E-002  
  663.50  5.1574E-002  
  664.00  5.1733E-002  
  664.50  5.1940E-002  
  665.00  5.1960E-002  
  665.50  5.1932E-002  
  666.00  5.1946E-002  
  666.50  5.2123E-002  
  667.00  5.2289E-002  
  667.50  5.2349E-002  
  668.00  5.2321E-002  
  668.50  5.2428E-002  
  669.00  5.2472E-002  
  669.50  5.2595E-002  
  670.00  5.2641E-002  
  670.50  5.2783E-002  
  671.00  5.2996E-002  
  671.50  5.3009E-002  
  672.00  5.2982E-002  
  672.50  5.2933E-002  
  673.00  5.3009E-002  
  673.50  5.3221E-002  
  674.00  5.3368E-002  
  674.50  5.3540E-002  
  675.00  5.3691E-002  
  675.50  5.3808E-002  
  676.00  5.3843E-002  
  676.50  5.3864E-002  
  677.00  5.3839E-002  
  677.50  5.3953E-002  
  678.00  5.4067E-002  
  678.50  5.4307E-002  
  679.00  5.4494E-002  
  679.50  5.4515E-002  
  680.00  5.4447E-002  
  680.50  5.4323E-002  
  681.00  5.4467E-002  
  681.50  5.4710E-002  
  682.00  5.4894E-002  
  682.50  5.4988E-002  
  683.00  5.5116E-002  
  683.50  5.5325E-002  
  684.00  5.5336E-002  
  684.50  5.5210E-002  
  685.00  5.5140E-002  
  685.50  5.5361E-002  
  686.00  5.5765E-002  
  686.50  5.6068E-002  
  687.00  5.6231E-002  
  687.50  5.6289E-002  
  688.00  5.6356E-002  
  688.50  5.6426E-002  
  689.00  5.6560E-002  
  689.50  5.6726E-002  
  690.00  5.6825E-002  
  690.50  5.6939E-002  
  691.00  5.7008E-002  
  691.50  5.7038E-002  
  692.00  5.6970E-002  
  692.50  5.7030E-002  
  693.00  5.7251E-002  
  693.50  5.7506E-002  
  694.00  5.7607E-002  
  694.50  5.7628E-002  
  695.00  5.7654E-002  
  695.50  5.7758E-002  
  696.00  5.7916E-002  
  696.50  5.8173E-002  
  697.00  5.8404E-002  
  697.50  5.8619E-002  
  698.00  5.8609E-002  
  698.50  5.8722E-002  
  699.00  5.8799E-002  
  699.50  5.9003E-002  
  700.00  5.9117E-002  
  700.50  5.9240E-002  
  701.00  5.9365E-002  
  701.50  5.9436E-002  
  702.00  5.9459E-002  
  702.50  5.9556E-002  
  703.00  5.9731E-002  
  703.50  5.9931E-002  
  704.00  6.0084E-002  
  704.50  6.0306E-002  
  705.00  6.0579E-002  
  705.50  6.0668E-002  
  706.00  6.0651E-002  
  706.50  6.0682E-002  
  707.00  6.0718E-002  
  707.50  6.0810E-002  
  708.00  6.0848E-002  
  708.50  6.0950E-002  
  709.00  6.1165E-002  
  709.50  6.1417E-002  
  710.00  6.1479E-002  
  710.50  6.1360E-002  
  711.00  6.1390E-002  
  711.50  6.1513E-002  
  712.00  6.1661E-002  
  712.50  6.1811E-002  
  713.00  6.1912E-002  
  713.50  6.2023E-002  
  714.00  6.2063E-002  
  714.50  6.2165E-002  
  715.00  6.2317E-002  
  715.50  6.2607E-002  
  716.00  6.2882E-002  
  716.50  6.3005E-002  
  717.00  6.3048E-002  
  717.50  6.2990E-002  
  718.00  6.3089E-002  
  718.50  6.3236E-002  
  719.00  6.3495E-002  
  719.50  6.3687E-002  
  720.00  6.3735E-002  
  720.50  6.3868E-002  
  721.00  6.4031E-002  
  721.50  6.4079E-002  
  722.00  6.3888E-002  
  722.50  6.4003E-002  
  723.00  6.4490E-002  
  723.50  6.4858E-002  
  724.00  6.4814E-002  
  724.50  6.4670E-002  
  725.00  6.5012E-002  
  725.50  6.5487E-002  
  726.00  6.5659E-002  
  726.50  6.5549E-002  
  727.00  6.5577E-002  
  727.50  6.5737E-002  
  728.00  6.5736E-002  
  728.50  6.5983E-002  
  729.00  6.6283E-002  
  729.50  6.6428E-002  
  730.00  6.6436E-002  
  730.50  6.6553E-002  
  731.00  6.6735E-002  
  731.50  6.6819E-002  
  732.00  6.7051E-002  
  732.50  6.7032E-002  
  733.00  6.6959E-002  
  733.50  6.6857E-002  
  734.00  6.6995E-002  
  734.50  6.7388E-002  
  735.00  6.7761E-002  
  735.50  6.8104E-002  
  736.00  6.7977E-002  
  736.50  6.7887E-002  
  737.00  6.7765E-002  
  737.50  6.7867E-002  
  738.00  6.8074E-002  
  738.50  6.8368E-002  
  739.00  6.8689E-002  
  739.50  6.8875E-002  
  740.00  6.8922E-002  
  740.50  6.8729E-002  
  741.00  6.8863E-002  
  741.50  6.9311E-002  
  742.00  6.9640E-002  
  742.50  6.9728E-002  
  743.00  6.9602E-002  
  743.50  6.9637E-002  
  744.00  6.9763E-002  
  744.50  6.9863E-002  
  745.00  7.0071E-002  
  745.50  7.0152E-002  
  746.00  7.0328E-002  
  746.50  7.0250E-002  
  747.00  7.0338E-002  
  747.50  7.0482E-002  
  748.00  7.0691E-002  
  748.50  7.0807E-002  
  749.00  7.0985E-002  
  749.50  7.1267E-002  
  750.00  7.1404E-002  
  750.50  7.1202E-002  
  751.00  7.1185E-002  
  751.50  7.1184E-002  
  752.00  7.1159E-002  
  752.50  7.1066E-002  
  753.00  7.1289E-002  
  753.50  7.1603E-002  
  754.00  7.1824E-002  
  754.50  7.1979E-002  
  755.00  7.2257E-002  
  755.50  7.2506E-002  
  756.00  7.2885E-002  
  756.50  7.2920E-002  
  757.00  7.2711E-002  
  757.50  7.2507E-002  
  758.00  7.2549E-002  
  758.50  7.2715E-002  
  759.00  7.2741E-002  
  759.50  7.2667E-002  
  760.00  7.2947E-002  
  760.50  7.3103E-002  
  761.00  7.3395E-002  
  761.50  7.3483E-002  
  762.00  7.3779E-002  
  762.50  7.4178E-002  
  763.00  7.4250E-002  
  763.50  7.4338E-002  
  764.00  7.4060E-002  
  764.50  7.4020E-002  
  765.00  7.4094E-002  
  765.50  7.4188E-002  
  766.00  7.4268E-002  
  766.50  7.4335E-002  
  767.00  7.4492E-002  
  767.50  7.4649E-002  
  768.00  7.4958E-002  
  768.50  7.4929E-002  
  769.00  7.4687E-002  
  769.50  7.4598E-002  
  770.00  7.5020E-002  
  770.50  7.5499E-002  
  771.00  7.5838E-002  
  771.50  7.5767E-002  
  772.00  7.5530E-002  
  772.50  7.5415E-002  
  773.00  7.5365E-002  
  773.50  7.5652E-002  
  774.00  7.5851E-002  
  774.50  7.6280E-002  
  775.00  7.6434E-002  
  775.50  7.6780E-002  
  776.00  7.7087E-002  
  776.50  7.7335E-002  
  777.00  7.7376E-002  
  777.50  7.7304E-002  
  778.00  7.7067E-002  
  778.50  7.6823E-002  
  779.00  7.6511E-002  
  779.50  7.6514E-002  
  780.00  7.6645E-002  
  780.50  7.6827E-002  
  781.00  7.7038E-002  
  781.50  7.7367E-002  
  782.00  7.7589E-002  
  782.50  7.7517E-002  
  783.00  7.7433E-002  
  783.50  7.7646E-002  
  784.00  7.7951E-002  
  784.50  7.8281E-002  
  785.00  7.8712E-002  
  785.50  7.8827E-002  
  786.00  7.8856E-002  
  786.50  7.8708E-002  
  787.00  7.8593E-002  
  787.50  7.8492E-002  
  788.00  7.8644E-002  
  788.50  7.8971E-002  
  789.00  7.9431E-002  
  789.50  7.9874E-002  
  790.00  7.9911E-002  
  790.50  7.9465E-002  
  791.00  7.9139E-002  
  791.50  7.9080E-002  
  792.00  7.9421E-002  
  792.50  7.9646E-002  
  793.00  8.0133E-002  
  793.50  8.0082E-002  
  794.00  7.9749E-002  
  794.50  7.9693E-002  
  795.00  8.0127E-002  
  795.50  8.0134E-002  
  796.00  7.9877E-002  
  796.50  7.9961E-002  
  797.00  8.0234E-002  
  797.50  8.0704E-002  
  798.00  8.1335E-002  
  798.50  8.1746E-002  
  799.00  8.1895E-002  
  799.50  8.1772E-002  
  800.00  8.1496E-002  
  800.50  8.1447E-002  
  801.00  8.1754E-002  
  801.50  8.2237E-002  
  802.00  8.2513E-002  
  802.50  8.2788E-002  
  803.00  8.2819E-002  
  803.50  8.2433E-002  
  804.00  8.2164E-002  
  804.50  8.2118E-002  
  805.00  8.2442E-002  
  805.50  8.2762E-002  
  806.00  8.3192E-002  
  806.50  8.3437E-002  
  807.00  8.3097E-002  
  807.50  8.2808E-002  
  808.00  8.2660E-002  
  808.50  8.3111E-002  
  809.00  8.3533E-002  
  809.50  8.3798E-002  
  810.00  8.3418E-002  
  810.50  8.3281E-002  
  811.00  8.3095E-002  
  811.50  8.3476E-002  
  812.00  8.4026E-002  
  812.50  8.3900E-002  
  813.00  8.3466E-002  
  813.50  8.3595E-002  
  814.00  8.4309E-002  
  814.50  8.4944E-002  
  815.00  8.5230E-002  
  815.50  8.5105E-002  
  816.00  8.5238E-002  
  816.50  8.5407E-002  
  817.00  8.5137E-002  
  817.50  8.4549E-002  
  818.00  8.4987E-002  
  818.50  8.5808E-002  
  819.00  8.5184E-002  
  819.50  8.4529E-002  
  820.00  8.5001E-002  
  820.50  8.5447E-002  
  821.00  8.5793E-002  
  821.50  8.5553E-002  
  822.00  8.5430E-002  
  822.50  8.5733E-002  
  823.00  8.6367E-002  
  823.50  8.6524E-002  
  824.00  8.6283E-002  
  824.50  8.5917E-002  
  825.00  8.6074E-002  
  825.50  8.6114E-002  
  826.00  8.6076E-002  
  826.50  8.5758E-002  
  827.00  8.5748E-002  
  827.50  8.6038E-002  
  828.00  8.6617E-002  
  828.50  8.6682E-002  
  829.00  8.6516E-002  
  829.50  8.6711E-002  
  830.00  8.6745E-002  
  830.50  8.6609E-002  
  831.00  8.6191E-002  
  831.50  8.6492E-002  
  832.00  8.7011E-002  
  832.50  8.7505E-002  
  833.00  8.7346E-002  
  833.50  8.7056E-002  
  834.00  8.6933E-002  
  834.50  8.7407E-002  
  835.00  8.7914E-002  
  835.50  8.8057E-002  
  836.00  8.7911E-002  
  836.50  8.7532E-002  
  837.00  8.6844E-002  
  837.50  8.6597E-002  
  838.00  8.7594E-002  
  838.50  8.9218E-002  
  839.00  8.8861E-002  
  839.50  8.8129E-002  
  840.00  8.8260E-002  
  840.50  8.8684E-002  
  841.00  8.8689E-002  
  841.50  8.8425E-002  
  842.00  8.8556E-002  
  842.50  8.8580E-002  
  843.00  8.8897E-002  
  843.50  8.9129E-002  
  844.00  8.8995E-002  
  844.50  8.9068E-002  
  845.00  8.9425E-002  
  845.50  8.9462E-002  
  846.00  8.9091E-002  
  846.50  8.8870E-002  
  847.00  8.9043E-002  
  847.50  8.9221E-002  
  848.00  8.9297E-002  
  848.50  8.9315E-002  
  849.00  8.9939E-002  
  849.50  9.0608E-002  
  850.00  9.0517E-002  
  850.50  9.0711E-002  
  851.00  9.0746E-002  
  851.50  9.0169E-002  
  852.00  8.9493E-002  
  852.50  8.9100E-002  
  853.00  8.9266E-002  
  853.50  8.9550E-002  
  854.00  9.0136E-002  
  854.50  9.0395E-002  
  855.00  9.0696E-002  
  855.50  9.1155E-002  
  856.00  9.1734E-002  
  856.50  9.1488E-002  
  857.00  9.0574E-002  
  857.50  9.0311E-002  
  858.00  9.1455E-002  
  858.50  9.2472E-002  
  859.00  9.2089E-002  
  859.50  9.1849E-002  
  860.00  9.1916E-002  
  860.50  9.1917E-002  
  861.00  9.1200E-002  
  861.50  9.0796E-002  
  862.00  9.1173E-002  
  862.50  9.1498E-002  
  863.00  9.2470E-002  
  863.50  9.3114E-002  
  864.00  9.2529E-002  
  864.50  9.1764E-002  
  865.00  9.1563E-002  
  865.50  9.1762E-002  
  866.00  9.2716E-002  
  866.50  9.3205E-002  
  867.00  9.3201E-002  
  867.50  9.2462E-002  
  868.00  9.2127E-002  
  868.50  9.3163E-002  
  869.00  9.3717E-002  
  869.50  9.3504E-002  
  870.00  9.3749E-002  
  870.50  9.3879E-002  
  871.00  9.3283E-002  
  871.50  9.3575E-002  
  872.00  9.3765E-002  
  872.50  9.2547E-002  
  873.00  9.2333E-002  
  873.50  9.3117E-002  
  874.00  9.3913E-002  
  874.50  9.3960E-002  
  875.00  9.4343E-002  
  875.50  9.4568E-002  
  876.00  9.4564E-002  
  876.50  9.3950E-002  
  877.00  9.5140E-002  
  877.50  9.4992E-002  
  878.00  9.4765E-002  
  878.50  9.5014E-002  
  879.00  9.5441E-002  
  879.50  9.5545E-002  
  880.00  9.5351E-002  
  880.50  9.5550E-002  
  881.00  9.5657E-002  
  881.50  9.5778E-002  
  882.00  9.5774E-002  
  882.50  9.5672E-002  
  883.00  9.5599E-002  
  883.50  9.5960E-002  
  884.00  9.7195E-002  
  884.50  9.8690E-002  
  885.00  9.8178E-002  
  885.50  9.7026E-002  
  886.00  9.6993E-002  
  886.50  9.7194E-002  
  887.00  9.6716E-002  
  887.50  9.6888E-002  
  888.00  9.6703E-002  
  888.50  9.7108E-002  
  889.00  9.6504E-002  
  889.50  9.5800E-002  
  890.00  9.5272E-002  
  890.50  9.6137E-002  
  891.00  9.6881E-002  
  891.50  9.7013E-002  
  892.00  9.8093E-002  
  892.50  9.8181E-002  
  893.00  9.7236E-002  
  893.50  9.6711E-002  
  894.00  9.6287E-002  
  894.50  9.7166E-002  
  895.00  9.7746E-002  
  895.50  9.7258E-002  
  896.00  9.6999E-002  
  896.50  9.7357E-002  
  897.00  9.6183E-002  
  897.50  9.5801E-002  
  898.00  9.6499E-002  
  898.50  9.6631E-002  
  899.00  9.6314E-002  
  899.50  1.9035E-003  
