
# From lspdd.org
# 
# Name: DEL Ledtech Bridgelux-2760K-filtered Lampadaire
# Indice spectral Valeur 
# MSI 0.09 
# SLI 0.24 
# IPI 0.44 
# Pourcentage de bleu 4.4 
# Caractéristique Valeur 
# CCT calculée (K) 2308 
# CCT du fabricant (K) 2260 
# Tension (V) ND 
# Puissance (W) 56.0 
# Efficacité lumineuse (Lum/W) 61.0 
#
# Image: '/app/system/img_1s/2579/medium_image1.JPG?1413486465'
# 

  273.00  0.0000E+000  
  273.50  0.0000E+000  
  274.00  0.0000E+000  
  274.50  0.0000E+000  
  275.00  0.0000E+000  
  275.50  0.0000E+000  
  276.00  0.0000E+000  
  276.50  0.0000E+000  
  277.00  0.0000E+000  
  277.50  0.0000E+000  
  278.00  0.0000E+000  
  278.50  0.0000E+000  
  279.00  0.0000E+000  
  279.50  0.0000E+000  
  280.00  0.0000E+000  
  280.50  0.0000E+000  
  281.00  0.0000E+000  
  281.50  0.0000E+000  
  282.00  0.0000E+000  
  282.50  0.0000E+000  
  283.00  0.0000E+000  
  283.50  0.0000E+000  
  284.00  0.0000E+000  
  284.50  0.0000E+000  
  285.00  0.0000E+000  
  285.50  0.0000E+000  
  286.00  0.0000E+000  
  286.50  0.0000E+000  
  287.00  0.0000E+000  
  287.50  0.0000E+000  
  288.00  0.0000E+000  
  288.50  0.0000E+000  
  289.00  0.0000E+000  
  289.50  0.0000E+000  
  290.00  0.0000E+000  
  290.50  0.0000E+000  
  291.00  0.0000E+000  
  291.50  0.0000E+000  
  292.00  0.0000E+000  
  292.50  0.0000E+000  
  293.00  0.0000E+000  
  293.50  0.0000E+000  
  294.00  0.0000E+000  
  294.50  0.0000E+000  
  295.00  0.0000E+000  
  295.50  0.0000E+000  
  296.00  0.0000E+000  
  296.50  0.0000E+000  
  297.00  0.0000E+000  
  297.50  0.0000E+000  
  298.00  0.0000E+000  
  298.50  0.0000E+000  
  299.00  0.0000E+000  
  299.50  0.0000E+000  
  300.00  5.5282E-006  
  300.50  1.5832E-005  
  301.00  1.3056E-005  
  301.50  6.8340E-006  
  302.00  4.8012E-006  
  302.50  1.2630E-006  
  303.00  0.0000E+000  
  303.50  0.0000E+000  
  304.00  0.0000E+000  
  304.50  2.2000E-007  
  305.00  3.7285E-006  
  305.50  7.0345E-006  
  306.00  7.8650E-006  
  306.50  4.4632E-006  
  307.00  5.8068E-007  
  307.50  9.5795E-007  
  308.00  1.9753E-006  
  308.50  6.0932E-006  
  309.00  7.9154E-006  
  309.50  1.0093E-005  
  310.00  1.0552E-005  
  310.50  1.0807E-005  
  311.00  1.0922E-005  
  311.50  4.0869E-006  
  312.00  3.2423E-006  
  312.50  3.3687E-006  
  313.00  1.5580E-006  
  313.50  6.5541E-006  
  314.00  6.2365E-006  
  314.50  2.4568E-006  
  315.00  5.3340E-007  
  315.50  0.0000E+000  
  316.00  4.8529E-006  
  316.50  9.9333E-006  
  317.00  1.3810E-005  
  317.50  1.0786E-005  
  318.00  8.8603E-006  
  318.50  7.8476E-006  
  319.00  2.3177E-006  
  319.50  0.0000E+000  
  320.00  0.0000E+000  
  320.50  0.0000E+000  
  321.00  0.0000E+000  
  321.50  0.0000E+000  
  322.00  0.0000E+000  
  322.50  0.0000E+000  
  323.00  0.0000E+000  
  323.50  0.0000E+000  
  324.00  0.0000E+000  
  324.50  0.0000E+000  
  325.00  0.0000E+000  
  325.50  0.0000E+000  
  326.00  0.0000E+000  
  326.50  0.0000E+000  
  327.00  0.0000E+000  
  327.50  0.0000E+000  
  328.00  0.0000E+000  
  328.50  8.4120E-007  
  329.00  8.4856E-006  
  329.50  1.0192E-005  
  330.00  1.0638E-005  
  330.50  4.1279E-006  
  331.00  4.7182E-007  
  331.50  0.0000E+000  
  332.00  0.0000E+000  
  332.50  0.0000E+000  
  333.00  0.0000E+000  
  333.50  0.0000E+000  
  334.00  0.0000E+000  
  334.50  0.0000E+000  
  335.00  0.0000E+000  
  335.50  0.0000E+000  
  336.00  0.0000E+000  
  336.50  0.0000E+000  
  337.00  0.0000E+000  
  337.50  0.0000E+000  
  338.00  0.0000E+000  
  338.50  0.0000E+000  
  339.00  0.0000E+000  
  339.50  1.5783E-006  
  340.00  5.4322E-006  
  340.50  4.8236E-006  
  341.00  5.6261E-006  
  341.50  4.2780E-006  
  342.00  4.5600E-006  
  342.50  1.2110E-006  
  343.00  8.9325E-007  
  343.50  5.4875E-006  
  344.00  8.2883E-006  
  344.50  1.0451E-005  
  345.00  1.1919E-005  
  345.50  6.8384E-006  
  346.00  8.1687E-007  
  346.50  0.0000E+000  
  347.00  0.0000E+000  
  347.50  0.0000E+000  
  348.00  0.0000E+000  
  348.50  0.0000E+000  
  349.00  0.0000E+000  
  349.50  0.0000E+000  
  350.00  0.0000E+000  
  350.50  0.0000E+000  
  351.00  5.5455E-007  
  351.50  8.7185E-006  
  352.00  1.3283E-005  
  352.50  1.0606E-005  
  353.00  3.2621E-006  
  353.50  0.0000E+000  
  354.00  1.0603E-007  
  354.50  3.4725E-006  
  355.00  5.1531E-006  
  355.50  3.8604E-007  
  356.00  0.0000E+000  
  356.50  0.0000E+000  
  357.00  0.0000E+000  
  357.50  0.0000E+000  
  358.00  0.0000E+000  
  358.50  0.0000E+000  
  359.00  0.0000E+000  
  359.50  0.0000E+000  
  360.00  0.0000E+000  
  360.50  0.0000E+000  
  361.00  0.0000E+000  
  361.50  0.0000E+000  
  362.00  2.8570E-007  
  362.50  2.5176E-006  
  363.00  2.5973E-006  
  363.50  1.3192E-006  
  364.00  1.1966E-008  
  364.50  0.0000E+000  
  365.00  0.0000E+000  
  365.50  0.0000E+000  
  366.00  0.0000E+000  
  366.50  0.0000E+000  
  367.00  0.0000E+000  
  367.50  0.0000E+000  
  368.00  0.0000E+000  
  368.50  0.0000E+000  
  369.00  0.0000E+000  
  369.50  0.0000E+000  
  370.00  0.0000E+000  
  370.50  0.0000E+000  
  371.00  0.0000E+000  
  371.50  0.0000E+000  
  372.00  0.0000E+000  
  372.50  0.0000E+000  
  373.00  0.0000E+000  
  373.50  0.0000E+000  
  374.00  0.0000E+000  
  374.50  0.0000E+000  
  375.00  0.0000E+000  
  375.50  0.0000E+000  
  376.00  0.0000E+000  
  376.50  0.0000E+000  
  377.00  1.8938E-007  
  377.50  3.0207E-006  
  378.00  7.1931E-006  
  378.50  1.1519E-005  
  379.00  8.0929E-006  
  379.50  2.5744E-006  
  380.00  0.0000E+000  
  380.50  0.0000E+000  
  381.00  3.0346E-008  
  381.50  3.1995E-007  
  382.00  0.0000E+000  
  382.50  0.0000E+000  
  383.00  0.0000E+000  
  383.50  1.6522E-006  
  384.00  1.2454E-005  
  384.50  1.8201E-005  
  385.00  1.8419E-005  
  385.50  1.4353E-005  
  386.00  9.2131E-006  
  386.50  4.8746E-006  
  387.00  2.9087E-006  
  387.50  2.1800E-006  
  388.00  1.9332E-006  
  388.50  2.6943E-006  
  389.00  1.6805E-006  
  389.50  0.0000E+000  
  390.00  0.0000E+000  
  390.50  0.0000E+000  
  391.00  0.0000E+000  
  391.50  0.0000E+000  
  392.00  0.0000E+000  
  392.50  0.0000E+000  
  393.00  0.0000E+000  
  393.50  6.4597E-007  
  394.00  4.1234E-006  
  394.50  8.1224E-006  
  395.00  8.5952E-006  
  395.50  3.8589E-006  
  396.00  2.9696E-006  
  396.50  9.1501E-007  
  397.00  0.0000E+000  
  397.50  0.0000E+000  
  398.00  0.0000E+000  
  398.50  0.0000E+000  
  399.00  7.4943E-007  
  399.50  2.9728E-006  
  400.00  5.1264E-006  
  400.50  1.1904E-006  
  401.00  0.0000E+000  
  401.50  0.0000E+000  
  402.00  0.0000E+000  
  402.50  0.0000E+000  
  403.00  0.0000E+000  
  403.50  0.0000E+000  
  404.00  0.0000E+000  
  404.50  8.6296E-008  
  405.00  1.3634E-006  
  405.50  1.1495E-006  
  406.00  0.0000E+000  
  406.50  0.0000E+000  
  407.00  0.0000E+000  
  407.50  0.0000E+000  
  408.00  0.0000E+000  
  408.50  0.0000E+000  
  409.00  0.0000E+000  
  409.50  1.9788E-006  
  410.00  1.2037E-005  
  410.50  2.0467E-005  
  411.00  2.5135E-005  
  411.50  2.5681E-005  
  412.00  1.9833E-005  
  412.50  1.3447E-005  
  413.00  8.3805E-006  
  413.50  5.0460E-006  
  414.00  1.3338E-006  
  414.50  1.3060E-006  
  415.00  3.7077E-006  
  415.50  6.7892E-006  
  416.00  9.6880E-006  
  416.50  7.6722E-006  
  417.00  3.0927E-006  
  417.50  6.8158E-007  
  418.00  0.0000E+000  
  418.50  0.0000E+000  
  419.00  0.0000E+000  
  419.50  6.8138E-006  
  420.00  1.4013E-005  
  420.50  1.6158E-005  
  421.00  1.2350E-005  
  421.50  1.0985E-005  
  422.00  1.3389E-005  
  422.50  1.5571E-005  
  423.00  1.2667E-005  
  423.50  1.0086E-005  
  424.00  1.0118E-005  
  424.50  1.3650E-005  
  425.00  1.7616E-005  
  425.50  1.2468E-005  
  426.00  1.3597E-005  
  426.50  1.8125E-005  
  427.00  2.4851E-005  
  427.50  3.6838E-005  
  428.00  3.9970E-005  
  428.50  3.8873E-005  
  429.00  3.4644E-005  
  429.50  3.0656E-005  
  430.00  2.8101E-005  
  430.50  2.7808E-005  
  431.00  2.6126E-005  
  431.50  2.6774E-005  
  432.00  2.6047E-005  
  432.50  2.9755E-005  
  433.00  3.5760E-005  
  433.50  4.2793E-005  
  434.00  5.1087E-005  
  434.50  5.1316E-005  
  435.00  5.4447E-005  
  435.50  5.3501E-005  
  436.00  5.3799E-005  
  436.50  5.3484E-005  
  437.00  5.3966E-005  
  437.50  5.3832E-005  
  438.00  5.6844E-005  
  438.50  5.8606E-005  
  439.00  6.2743E-005  
  439.50  7.2895E-005  
  440.00  8.7171E-005  
  440.50  1.0105E-004  
  441.00  1.1279E-004  
  441.50  1.1584E-004  
  442.00  1.1472E-004  
  442.50  1.1227E-004  
  443.00  1.1826E-004  
  443.50  1.2197E-004  
  444.00  1.2835E-004  
  444.50  1.3227E-004  
  445.00  1.3629E-004  
  445.50  1.4630E-004  
  446.00  1.5013E-004  
  446.50  1.5194E-004  
  447.00  1.5164E-004  
  447.50  1.5309E-004  
  448.00  1.5538E-004  
  448.50  1.5720E-004  
  449.00  1.5887E-004  
  449.50  1.5861E-004  
  450.00  1.5721E-004  
  450.50  1.4993E-004  
  451.00  1.4080E-004  
  451.50  1.3613E-004  
  452.00  1.3149E-004  
  452.50  1.3141E-004  
  453.00  1.3307E-004  
  453.50  1.2971E-004  
  454.00  1.2666E-004  
  454.50  1.1701E-004  
  455.00  1.0620E-004  
  455.50  1.0222E-004  
  456.00  1.0175E-004  
  456.50  1.0447E-004  
  457.00  1.0480E-004  
  457.50  1.0626E-004  
  458.00  1.0622E-004  
  458.50  1.0408E-004  
  459.00  9.9859E-005  
  459.50  9.4268E-005  
  460.00  9.4836E-005  
  460.50  9.4663E-005  
  461.00  9.3096E-005  
  461.50  9.2325E-005  
  462.00  8.6220E-005  
  462.50  8.5802E-005  
  463.00  8.5265E-005  
  463.50  8.1097E-005  
  464.00  7.6859E-005  
  464.50  7.1803E-005  
  465.00  7.3095E-005  
  465.50  7.4992E-005  
  466.00  7.5996E-005  
  466.50  7.5022E-005  
  467.00  7.1164E-005  
  467.50  7.1647E-005  
  468.00  7.0233E-005  
  468.50  6.8981E-005  
  469.00  6.7223E-005  
  469.50  6.7593E-005  
  470.00  6.4820E-005  
  470.50  6.7311E-005  
  471.00  6.5904E-005  
  471.50  6.7866E-005  
  472.00  6.6215E-005  
  472.50  6.4694E-005  
  473.00  6.1867E-005  
  473.50  6.0059E-005  
  474.00  6.0382E-005  
  474.50  5.9699E-005  
  475.00  6.0098E-005  
  475.50  6.2007E-005  
  476.00  6.2957E-005  
  476.50  6.5135E-005  
  477.00  6.2095E-005  
  477.50  5.6400E-005  
  478.00  5.2010E-005  
  478.50  5.2046E-005  
  479.00  5.3509E-005  
  479.50  5.3977E-005  
  480.00  5.1835E-005  
  480.50  5.1466E-005  
  481.00  5.1873E-005  
  481.50  5.1715E-005  
  482.00  4.7923E-005  
  482.50  4.6475E-005  
  483.00  4.5854E-005  
  483.50  4.4953E-005  
  484.00  4.3300E-005  
  484.50  4.0957E-005  
  485.00  3.8231E-005  
  485.50  3.8625E-005  
  486.00  3.6145E-005  
  486.50  3.3765E-005  
  487.00  3.3238E-005  
  487.50  3.1836E-005  
  488.00  3.1742E-005  
  488.50  3.0255E-005  
  489.00  2.8800E-005  
  489.50  2.6269E-005  
  490.00  2.5896E-005  
  490.50  2.7049E-005  
  491.00  2.9992E-005  
  491.50  3.2215E-005  
  492.00  2.9551E-005  
  492.50  2.5608E-005  
  493.00  2.3826E-005  
  493.50  2.3463E-005  
  494.00  2.3667E-005  
  494.50  2.0692E-005  
  495.00  1.7854E-005  
  495.50  1.6575E-005  
  496.00  1.7587E-005  
  496.50  1.9569E-005  
  497.00  1.8813E-005  
  497.50  1.7288E-005  
  498.00  1.7905E-005  
  498.50  1.9027E-005  
  499.00  2.2180E-005  
  499.50  2.1154E-005  
  500.00  1.9745E-005  
  500.50  1.8504E-005  
  501.00  2.0365E-005  
  501.50  1.9836E-005  
  502.00  1.8337E-005  
  502.50  1.5421E-005  
  503.00  1.3344E-005  
  503.50  1.4458E-005  
  504.00  1.7272E-005  
  504.50  1.9970E-005  
  505.00  2.1139E-005  
  505.50  2.2803E-005  
  506.00  2.1727E-005  
  506.50  1.9903E-005  
  507.00  1.6545E-005  
  507.50  1.3848E-005  
  508.00  1.6004E-005  
  508.50  1.6505E-005  
  509.00  1.8560E-005  
  509.50  1.7105E-005  
  510.00  1.6690E-005  
  510.50  1.7393E-005  
  511.00  1.8199E-005  
  511.50  2.0535E-005  
  512.00  2.2965E-005  
  512.50  2.4792E-005  
  513.00  2.5281E-005  
  513.50  2.5604E-005  
  514.00  2.6765E-005  
  514.50  2.8011E-005  
  515.00  3.0438E-005  
  515.50  3.3469E-005  
  516.00  3.5864E-005  
  516.50  3.9150E-005  
  517.00  4.1321E-005  
  517.50  4.4983E-005  
  518.00  4.6232E-005  
  518.50  4.5527E-005  
  519.00  4.5781E-005  
  519.50  4.7296E-005  
  520.00  5.1715E-005  
  520.50  5.6102E-005  
  521.00  5.8472E-005  
  521.50  6.1538E-005  
  522.00  6.3504E-005  
  522.50  6.7723E-005  
  523.00  7.1888E-005  
  523.50  7.5216E-005  
  524.00  7.7104E-005  
  524.50  8.1279E-005  
  525.00  8.7001E-005  
  525.50  9.1980E-005  
  526.00  9.9017E-005  
  526.50  1.0409E-004  
  527.00  1.1186E-004  
  527.50  1.1952E-004  
  528.00  1.2560E-004  
  528.50  1.3421E-004  
  529.00  1.4420E-004  
  529.50  1.5262E-004  
  530.00  1.6057E-004  
  530.50  1.6652E-004  
  531.00  1.7306E-004  
  531.50  1.8341E-004  
  532.00  1.9649E-004  
  532.50  2.1014E-004  
  533.00  2.2172E-004  
  533.50  2.3098E-004  
  534.00  2.4108E-004  
  534.50  2.5357E-004  
  535.00  2.6952E-004  
  535.50  2.8177E-004  
  536.00  2.9583E-004  
  536.50  3.1141E-004  
  537.00  3.2947E-004  
  537.50  3.4757E-004  
  538.00  3.6408E-004  
  538.50  3.8054E-004  
  539.00  3.9379E-004  
  539.50  4.0835E-004  
  540.00  4.2484E-004  
  540.50  4.4459E-004  
  541.00  4.6760E-004  
  541.50  4.8753E-004  
  542.00  5.0416E-004  
  542.50  5.2232E-004  
  543.00  5.4062E-004  
  543.50  5.6218E-004  
  544.00  5.8288E-004  
  544.50  6.0254E-004  
  545.00  6.2833E-004  
  545.50  6.5351E-004  
  546.00  6.7786E-004  
  546.50  6.9686E-004  
  547.00  7.1469E-004  
  547.50  7.3886E-004  
  548.00  7.6395E-004  
  548.50  7.8862E-004  
  549.00  8.1020E-004  
  549.50  8.3076E-004  
  550.00  8.5296E-004  
  550.50  8.7549E-004  
  551.00  8.9633E-004  
  551.50  9.2087E-004  
  552.00  9.4347E-004  
  552.50  9.6616E-004  
  553.00  9.8881E-004  
  553.50  1.0122E-003  
  554.00  1.0372E-003  
  554.50  1.0626E-003  
  555.00  1.0865E-003  
  555.50  1.1155E-003  
  556.00  1.1413E-003  
  556.50  1.1636E-003  
  557.00  1.1829E-003  
  557.50  1.2026E-003  
  558.00  1.2262E-003  
  558.50  1.2511E-003  
  559.00  1.2782E-003  
  559.50  1.3031E-003  
  560.00  1.3290E-003  
  560.50  1.3497E-003  
  561.00  1.3701E-003  
  561.50  1.3953E-003  
  562.00  1.4194E-003  
  562.50  1.4477E-003  
  563.00  1.4657E-003  
  563.50  1.4834E-003  
  564.00  1.5019E-003  
  564.50  1.5234E-003  
  565.00  1.5444E-003  
  565.50  1.5645E-003  
  566.00  1.5807E-003  
  566.50  1.5958E-003  
  567.00  1.6098E-003  
  567.50  1.6320E-003  
  568.00  1.6548E-003  
  568.50  1.6787E-003  
  569.00  1.6964E-003  
  569.50  1.7173E-003  
  570.00  1.7367E-003  
  570.50  1.7546E-003  
  571.00  1.7672E-003  
  571.50  1.7780E-003  
  572.00  1.7922E-003  
  572.50  1.8053E-003  
  573.00  1.8191E-003  
  573.50  1.8348E-003  
  574.00  1.8490E-003  
  574.50  1.8633E-003  
  575.00  1.8722E-003  
  575.50  1.8828E-003  
  576.00  1.8917E-003  
  576.50  1.8997E-003  
  577.00  1.9073E-003  
  577.50  1.9163E-003  
  578.00  1.9248E-003  
  578.50  1.9321E-003  
  579.00  1.9348E-003  
  579.50  1.9374E-003  
  580.00  1.9370E-003  
  580.50  1.9417E-003  
  581.00  1.9447E-003  
  581.50  1.9484E-003  
  582.00  1.9502E-003  
  582.50  1.9556E-003  
  583.00  1.9613E-003  
  583.50  1.9663E-003  
  584.00  1.9674E-003  
  584.50  1.9620E-003  
  585.00  1.9535E-003  
  585.50  1.9420E-003  
  586.00  1.9396E-003  
  586.50  1.9391E-003  
  587.00  1.9427E-003  
  587.50  1.9386E-003  
  588.00  1.9305E-003  
  588.50  1.9189E-003  
  589.00  1.9117E-003  
  589.50  1.9130E-003  
  590.00  1.9167E-003  
  590.50  1.9166E-003  
  591.00  1.9030E-003  
  591.50  1.8888E-003  
  592.00  1.8762E-003  
  592.50  1.8686E-003  
  593.00  1.8577E-003  
  593.50  1.8438E-003  
  594.00  1.8366E-003  
  594.50  1.8297E-003  
  595.00  1.8260E-003  
  595.50  1.8152E-003  
  596.00  1.8074E-003  
  596.50  1.7919E-003  
  597.00  1.7834E-003  
  597.50  1.7734E-003  
  598.00  1.7698E-003  
  598.50  1.7600E-003  
  599.00  1.7584E-003  
  599.50  1.7510E-003  
  600.00  1.7325E-003  
  600.50  1.7073E-003  
  601.00  1.6902E-003  
  601.50  1.6844E-003  
  602.00  1.6835E-003  
  602.50  1.6754E-003  
  603.00  1.6647E-003  
  603.50  1.6461E-003  
  604.00  1.6328E-003  
  604.50  1.6215E-003  
  605.00  1.6136E-003  
  605.50  1.5925E-003  
  606.00  1.5734E-003  
  606.50  1.5644E-003  
  607.00  1.5658E-003  
  607.50  1.5612E-003  
  608.00  1.5435E-003  
  608.50  1.5261E-003  
  609.00  1.5188E-003  
  609.50  1.5154E-003  
  610.00  1.5089E-003  
  610.50  1.4964E-003  
  611.00  1.4837E-003  
  611.50  1.4713E-003  
  612.00  1.4630E-003  
  612.50  1.4543E-003  
  613.00  1.4470E-003  
  613.50  1.4340E-003  
  614.00  1.4222E-003  
  614.50  1.4087E-003  
  615.00  1.3958E-003  
  615.50  1.3805E-003  
  616.00  1.3699E-003  
  616.50  1.3646E-003  
  617.00  1.3552E-003  
  617.50  1.3411E-003  
  618.00  1.3198E-003  
  618.50  1.3000E-003  
  619.00  1.2795E-003  
  619.50  1.2616E-003  
  620.00  1.2548E-003  
  620.50  1.2480E-003  
  621.00  1.2384E-003  
  621.50  1.2213E-003  
  622.00  1.2059E-003  
  622.50  1.1895E-003  
  623.00  1.1712E-003  
  623.50  1.1536E-003  
  624.00  1.1436E-003  
  624.50  1.1295E-003  
  625.00  1.1130E-003  
  625.50  1.0923E-003  
  626.00  1.0743E-003  
  626.50  1.0507E-003  
  627.00  1.0261E-003  
  627.50  1.0074E-003  
  628.00  9.9303E-004  
  628.50  9.7506E-004  
  629.00  9.5455E-004  
  629.50  9.3331E-004  
  630.00  9.1919E-004  
  630.50  9.0179E-004  
  631.00  8.8319E-004  
  631.50  8.6232E-004  
  632.00  8.4224E-004  
  632.50  8.2227E-004  
  633.00  7.9992E-004  
  633.50  7.7447E-004  
  634.00  7.5589E-004  
  634.50  7.3967E-004  
  635.00  7.2242E-004  
  635.50  6.9624E-004  
  636.00  6.6989E-004  
  636.50  6.5030E-004  
  637.00  6.3173E-004  
  637.50  6.1655E-004  
  638.00  5.9771E-004  
  638.50  5.8501E-004  
  639.00  5.6803E-004  
  639.50  5.4616E-004  
  640.00  5.2246E-004  
  640.50  5.0340E-004  
  641.00  4.8856E-004  
  641.50  4.7374E-004  
  642.00  4.5468E-004  
  642.50  4.3878E-004  
  643.00  4.2314E-004  
  643.50  4.0987E-004  
  644.00  3.8966E-004  
  644.50  3.7361E-004  
  645.00  3.5739E-004  
  645.50  3.5186E-004  
  646.00  3.4742E-004  
  646.50  3.3900E-004  
  647.00  3.2503E-004  
  647.50  3.0881E-004  
  648.00  2.9390E-004  
  648.50  2.8194E-004  
  649.00  2.7930E-004  
  649.50  2.7221E-004  
  650.00  2.6125E-004  
  650.50  2.4651E-004  
  651.00  2.3890E-004  
  651.50  2.3346E-004  
  652.00  2.2347E-004  
  652.50  2.1086E-004  
  653.00  2.0140E-004  
  653.50  1.8971E-004  
  654.00  1.8125E-004  
  654.50  1.7496E-004  
  655.00  1.6993E-004  
  655.50  1.6779E-004  
  656.00  1.6302E-004  
  656.50  1.5896E-004  
  657.00  1.4598E-004  
  657.50  1.3441E-004  
  658.00  1.2761E-004  
  658.50  1.2473E-004  
  659.00  1.2181E-004  
  659.50  1.1940E-004  
  660.00  1.1384E-004  
  660.50  1.0681E-004  
  661.00  1.0117E-004  
  661.50  1.0204E-004  
  662.00  1.0394E-004  
  662.50  1.0068E-004  
  663.00  9.6662E-005  
  663.50  9.3186E-005  
  664.00  9.7974E-005  
  664.50  9.9863E-005  
  665.00  9.8899E-005  
  665.50  9.1078E-005  
  666.00  8.5886E-005  
  666.50  7.8494E-005  
  667.00  6.7100E-005  
  667.50  6.1315E-005  
  668.00  5.9128E-005  
  668.50  6.7235E-005  
  669.00  7.1275E-005  
  669.50  7.9592E-005  
  670.00  6.9425E-005  
  670.50  5.9274E-005  
  671.00  4.4553E-005  
  671.50  4.6264E-005  
  672.00  5.2213E-005  
  672.50  5.4106E-005  
  673.00  4.6811E-005  
  673.50  4.0179E-005  
  674.00  4.0824E-005  
  674.50  5.0374E-005  
  675.00  5.6819E-005  
  675.50  6.1056E-005  
  676.00  5.6929E-005  
  676.50  4.5242E-005  
  677.00  3.5981E-005  
  677.50  3.3662E-005  
  678.00  3.3304E-005  
  678.50  3.1369E-005  
  679.00  2.9441E-005  
  679.50  3.0834E-005  
  680.00  3.0002E-005  
  680.50  2.0266E-005  
  681.00  1.2566E-005  
  681.50  1.1530E-005  
  682.00  1.5562E-005  
  682.50  2.0319E-005  
  683.00  2.0234E-005  
  683.50  2.3635E-005  
  684.00  2.4761E-005  
  684.50  2.4287E-005  
  685.00  1.8557E-005  
  685.50  1.3348E-005  
  686.00  1.5615E-005  
  686.50  2.1724E-005  
  687.00  2.8467E-005  
  687.50  3.1486E-005  
  688.00  2.3857E-005  
  688.50  1.5219E-005  
  689.00  1.3621E-005  
  689.50  2.0229E-005  
  690.00  2.8785E-005  
  690.50  2.6283E-005  
  691.00  2.5553E-005  
  691.50  2.5323E-005  
  692.00  3.0090E-005  
  692.50  2.5311E-005  
  693.00  1.6990E-005  
  693.50  1.4655E-005  
  694.00  2.4019E-005  
  694.50  2.9070E-005  
  695.00  2.9532E-005  
  695.50  2.3940E-005  
  696.00  1.8922E-005  
  696.50  1.5640E-005  
  697.00  1.4051E-005  
  697.50  1.2555E-005  
  698.00  1.0422E-005  
  698.50  1.1515E-005  
  699.00  1.5479E-005  
  699.50  2.1041E-005  
  700.00  2.6792E-005  
  700.50  2.9027E-005  
  701.00  2.6201E-005  
  701.50  1.8823E-005  
  702.00  1.2629E-005  
  702.50  9.7737E-006  
  703.00  7.9014E-006  
  703.50  1.6754E-005  
  704.00  2.2635E-005  
  704.50  2.5428E-005  
  705.00  1.6987E-005  
  705.50  1.1320E-005  
  706.00  1.2263E-005  
  706.50  1.3039E-005  
  707.00  2.0049E-005  
  707.50  2.1652E-005  
  708.00  2.3614E-005  
  708.50  1.7287E-005  
  709.00  9.5913E-006  
  709.50  3.6655E-006  
  710.00  2.1106E-006  
  710.50  5.1192E-006  
  711.00  9.2774E-006  
  711.50  1.3847E-005  
  712.00  1.9130E-005  
  712.50  2.4421E-005  
  713.00  2.8999E-005  
  713.50  3.0051E-005  
  714.00  1.5947E-005  
  714.50  8.5770E-006  
  715.00  8.4745E-006  
  715.50  1.6616E-005  
  716.00  9.8952E-006  
  716.50  2.0381E-006  
  717.00  9.9553E-009  
  717.50  0.0000E+000  
  718.00  1.0841E-007  
  718.50  5.8579E-006  
  719.00  1.2756E-005  
  719.50  1.3120E-005  
  720.00  1.8364E-005  
  720.50  2.0030E-005  
  721.00  1.7722E-005  
  721.50  1.1787E-005  
  722.00  1.0461E-005  
  722.50  1.5700E-005  
  723.00  1.7876E-005  
  723.50  1.5935E-005  
  724.00  1.0851E-005  
  724.50  8.8186E-006  
  725.00  1.5336E-005  
  725.50  2.1990E-005  
  726.00  2.5629E-005  
  726.50  1.9741E-005  
  727.00  9.9110E-006  
  727.50  8.9499E-006  
  728.00  3.3147E-006  
  728.50  3.8681E-007  
  729.00  0.0000E+000  
  729.50  5.4639E-006  
  730.00  1.2133E-005  
  730.50  7.7249E-006  
  731.00  3.2928E-006  
  731.50  1.0210E-006  
  732.00  6.8312E-007  
  732.50  1.3570E-006  
  733.00  7.6751E-006  
  733.50  8.3351E-006  
  734.00  2.4865E-006  
  734.50  5.5532E-007  
  735.00  6.9061E-009  
  735.50  7.3473E-008  
  736.00  0.0000E+000  
  736.50  0.0000E+000  
  737.00  0.0000E+000  
  737.50  0.0000E+000  
  738.00  4.7972E-006  
  738.50  1.6060E-005  
  739.00  1.9366E-005  
  739.50  1.4265E-005  
  740.00  2.5196E-006  
  740.50  9.2724E-009  
  741.00  7.9106E-007  
  741.50  7.8271E-007  
  742.00  0.0000E+000  
  742.50  0.0000E+000  
  743.00  0.0000E+000  
  743.50  0.0000E+000  
  744.00  0.0000E+000  
  744.50  0.0000E+000  
  745.00  9.0532E-006  
  745.50  8.9554E-006  
  746.00  9.6109E-006  
  746.50  1.2497E-006  
  747.00  0.0000E+000  
  747.50  0.0000E+000  
  748.00  0.0000E+000  
  748.50  0.0000E+000  
  749.00  0.0000E+000  
  749.50  0.0000E+000  
  750.00  0.0000E+000  
  750.50  5.5971E-007  
  751.00  1.2349E-005  
  751.50  1.2698E-005  
  752.00  1.9833E-005  
  752.50  1.5796E-005  
  753.00  1.5350E-005  
  753.50  1.2868E-005  
  754.00  1.8110E-005  
  754.50  9.7238E-006  
  755.00  1.1461E-006  
  755.50  0.0000E+000  
  756.00  0.0000E+000  
  756.50  0.0000E+000  
  757.00  0.0000E+000  
  757.50  0.0000E+000  
  758.00  0.0000E+000  
  758.50  5.5196E-006  
  759.00  7.9309E-006  
  759.50  1.0944E-005  
  760.00  1.4576E-005  
  760.50  3.0848E-005  
  761.00  2.7370E-005  
  761.50  1.0622E-005  
  762.00  5.1106E-006  
  762.50  5.5966E-006  
  763.00  3.7018E-007  
  763.50  0.0000E+000  
  764.00  0.0000E+000  
  764.50  0.0000E+000  
  765.00  0.0000E+000  
  765.50  0.0000E+000  
  766.00  0.0000E+000  
  766.50  5.0752E-006  
  767.00  2.7778E-005  
  767.50  2.4919E-005  
  768.00  4.4071E-006  
  768.50  6.1168E-007  
  769.00  9.0093E-006  
  769.50  1.3256E-005  
  770.00  8.2240E-006  
  770.50  2.7139E-007  
  771.00  0.0000E+000  
  771.50  0.0000E+000  
  772.00  0.0000E+000  
  772.50  0.0000E+000  
  773.00  0.0000E+000  
  773.50  1.8528E-007  
  774.00  1.5821E-005  
  774.50  2.1849E-005  
  775.00  1.5550E-005  
  775.50  0.0000E+000  
  776.00  0.0000E+000  
  776.50  0.0000E+000  
  777.00  0.0000E+000  
  777.50  0.0000E+000  
  778.00  0.0000E+000  
  778.50  0.0000E+000  
  779.00  0.0000E+000  
  779.50  2.3229E-006  
  780.00  6.2186E-006  
  780.50  9.3588E-006  
  781.00  8.0552E-006  
  781.50  0.0000E+000  
  782.00  1.6939E-006  
  782.50  1.8017E-005  
  783.00  2.4874E-005  
  783.50  1.5420E-005  
  784.00  2.4849E-006  
  784.50  0.0000E+000  
  785.00  0.0000E+000  
  785.50  0.0000E+000  
  786.00  2.0593E-007  
  786.50  1.1221E-006  
  787.00  2.3978E-005  
  787.50  2.1606E-005  
  788.00  2.1183E-005  
  788.50  4.4225E-006  
  789.00  0.0000E+000  
  789.50  0.0000E+000  
  790.00  0.0000E+000  
  790.50  0.0000E+000  
  791.00  0.0000E+000  
  791.50  0.0000E+000  
  792.00  0.0000E+000  
  792.50  0.0000E+000  
  793.00  0.0000E+000  
  793.50  0.0000E+000  
  794.00  0.0000E+000  
  794.50  0.0000E+000  
  795.00  7.7712E-006  
  795.50  1.3658E-005  
  796.00  5.5056E-006  
  796.50  0.0000E+000  
  797.00  0.0000E+000  
  797.50  0.0000E+000  
  798.00  3.2395E-007  
  798.50  1.5109E-005  
  799.00  7.3192E-006  
  799.50  1.0216E-005  
  800.00  9.2121E-006  
  800.50  2.4545E-006  
  801.00  0.0000E+000  
  801.50  0.0000E+000  
  802.00  0.0000E+000  
  802.50  0.0000E+000  
  803.00  0.0000E+000  
  803.50  1.6189E-005  
  804.00  9.3850E-006  
  804.50  2.9844E-006  
  805.00  1.8788E-005  
  805.50  4.0048E-005  
  806.00  0.0000E+000  
  806.50  0.0000E+000  
  807.00  0.0000E+000  
  807.50  7.3759E-006  
  808.00  2.2409E-005  
  808.50  1.6083E-005  
  809.00  1.7028E-006  
  809.50  1.2964E-006  
  810.00  1.8717E-006  
  810.50  0.0000E+000  
  811.00  0.0000E+000  
  811.50  0.0000E+000  
  812.00  0.0000E+000  
  812.50  0.0000E+000  
  813.00  0.0000E+000  
  813.50  0.0000E+000  
  814.00  0.0000E+000  
  814.50  0.0000E+000  
  815.00  0.0000E+000  
  815.50  0.0000E+000  
  816.00  0.0000E+000  
  816.50  0.0000E+000  
  817.00  0.0000E+000  
  817.50  0.0000E+000  
  818.00  0.0000E+000  
  818.50  0.0000E+000  
  819.00  0.0000E+000  
  819.50  3.3680E-006  
  820.00  3.5719E-005  
  820.50  2.6110E-005  
  821.00  2.2681E-005  
  821.50  3.7245E-005  
  822.00  4.2877E-005  
  822.50  3.7070E-005  
  823.00  1.6479E-005  
  823.50  3.2479E-005  
  824.00  4.3474E-005  
  824.50  5.9610E-005  
  825.00  3.6452E-005  
  825.50  4.1896E-005  
  826.00  3.6098E-005  
  826.50  2.1118E-005  
  827.00  1.0164E-005  
  827.50  0.0000E+000  
  828.00  0.0000E+000  
  828.50  0.0000E+000  
  829.00  0.0000E+000  
  829.50  0.0000E+000  
  830.00  0.0000E+000  
  830.50  0.0000E+000  
  831.00  1.6059E-005  
  831.50  1.6842E-005  
  832.00  1.6753E-005  
  832.50  1.2871E-005  
  833.00  1.3493E-005  
  833.50  5.8167E-007  
  834.00  1.7006E-006  
  834.50  0.0000E+000  
  835.00  0.0000E+000  
  835.50  0.0000E+000  
  836.00  2.6015E-005  
  836.50  1.3115E-005  
  837.00  0.0000E+000  
  837.50  0.0000E+000  
  838.00  0.0000E+000  
  838.50  0.0000E+000  
  839.00  4.4618E-007  
  839.50  3.1623E-005  
  840.00  6.2718E-005  
  840.50  3.9347E-005  
  841.00  2.8845E-005  
  841.50  4.2566E-005  
  842.00  6.4890E-006  
  842.50  0.0000E+000  
  843.00  1.5016E-006  
  843.50  3.6197E-005  
  844.00  2.1406E-005  
  844.50  9.7582E-008  
  845.00  0.0000E+000  
  845.50  0.0000E+000  
  846.00  0.0000E+000  
  846.50  0.0000E+000  
  847.00  6.1958E-008  
  847.50  0.0000E+000  
  848.00  0.0000E+000  
  848.50  0.0000E+000  
  849.00  4.6170E-006  
  849.50  4.6502E-005  
  850.00  7.2852E-005  
  850.50  4.3652E-005  
  851.00  0.0000E+000  
  851.50  0.0000E+000  
  852.00  0.0000E+000  
  852.50  0.0000E+000  
  853.00  0.0000E+000  
  853.50  0.0000E+000  
  854.00  0.0000E+000  
  854.50  0.0000E+000  
  855.00  9.7109E-006  
  855.50  2.4543E-005  
  856.00  0.0000E+000  
  856.50  0.0000E+000  
  857.00  0.0000E+000  
  857.50  0.0000E+000  
  858.00  0.0000E+000  
  858.50  3.5951E-005  
  859.00  6.5312E-005  
  859.50  2.3450E-005  
  860.00  0.0000E+000  
  860.50  0.0000E+000  
  861.00  0.0000E+000  
  861.50  0.0000E+000  
  862.00  0.0000E+000  
  862.50  0.0000E+000  
  863.00  0.0000E+000  
  863.50  0.0000E+000  
  864.00  7.2705E-007  
  864.50  3.0968E-005  
  865.00  0.0000E+000  
  865.50  3.8464E-006  
  866.00  1.1742E-005  
  866.50  3.5449E-007  
  867.00  0.0000E+000  
  867.50  0.0000E+000  
  868.00  0.0000E+000  
  868.50  0.0000E+000  
  869.00  5.1801E-006  
  869.50  2.3034E-005  
  870.00  5.8873E-005  
  870.50  6.8205E-005  
  871.00  1.9940E-005  
  871.50  0.0000E+000  
  872.00  4.3208E-005  
  872.50  2.2305E-006  
  873.00  0.0000E+000  
  873.50  0.0000E+000  
  874.00  2.2999E-005  
  874.50  4.2922E-005  
  875.00  1.4932E-005  
  875.50  1.3482E-006  
  876.00  0.0000E+000  
  876.50  5.8749E-007  
  877.00  7.2923E-005  
  877.50  3.0745E-005  
  878.00  0.0000E+000  
  878.50  1.0383E-005  
  879.00  2.1036E-005  
  879.50  4.1611E-005  
  880.00  3.5906E-005  
  880.50  0.0000E+000  
  881.00  0.0000E+000  
  881.50  0.0000E+000  
  882.00  0.0000E+000  
  882.50  0.0000E+000  
  883.00  9.8317E-006  
  883.50  0.0000E+000  
  884.00  0.0000E+000  
  884.50  1.6157E-005  
  885.00  3.8461E-005  
  885.50  0.0000E+000  
  886.00  0.0000E+000  
  886.50  2.5148E-006  
  887.00  4.3203E-005  
  887.50  1.8751E-005  
  888.00  2.5486E-005  
  888.50  7.8762E-005  
  889.00  1.2405E-004  
  889.50  1.4856E-004  
  890.00  2.0527E-004  
  890.50  1.1147E-004  
  891.00  1.0863E-005  
  891.50  0.0000E+000  
  892.00  0.0000E+000  
  892.50  0.0000E+000  
  893.00  0.0000E+000  
  893.50  0.0000E+000  
  894.00  9.0420E-006  
  894.50  2.4910E-005  
  895.00  3.9473E-005  
  895.50  5.6738E-005  
  896.00  1.7061E-005  
  896.50  0.0000E+000  
  897.00  2.5056E-005  
  897.50  7.9341E-005  
  898.00  5.1826E-005  
  898.50  0.0000E+000  
  899.00  0.0000E+000  
  899.50  0.0000E+000  
