
# From lspdd.org
# 
# Name: INC Sylvania A15 Domestique
# Indice spectral Valeur 
# MSI 0.30 
# SLI 0.52 
# IPI 0.94 
# Pourcentage de bleu 13.1 
# Caractéristique Valeur 
# CCT calculée (K) 2695 
# CCT du fabricant (K) 2700 
# Tension (V) 120 
# Puissance (W) 40.0 
# Efficacité lumineuse (Lum/W) 10.8 
#
# Image: '/app/system/img_2s/2580/medium_image2.JPG?1413486469'
# Image: '/app/system/img_1s/2580/medium_image1.JPG?1413486470'
# 

  273.00  0.0000E+000  
  273.50  0.0000E+000  
  274.00  0.0000E+000  
  274.50  0.0000E+000  
  275.00  0.0000E+000  
  275.50  0.0000E+000  
  276.00  0.0000E+000  
  276.50  0.0000E+000  
  277.00  0.0000E+000  
  277.50  0.0000E+000  
  278.00  0.0000E+000  
  278.50  0.0000E+000  
  279.00  0.0000E+000  
  279.50  0.0000E+000  
  280.00  0.0000E+000  
  280.50  0.0000E+000  
  281.00  0.0000E+000  
  281.50  0.0000E+000  
  282.00  0.0000E+000  
  282.50  0.0000E+000  
  283.00  0.0000E+000  
  283.50  0.0000E+000  
  284.00  0.0000E+000  
  284.50  0.0000E+000  
  285.00  0.0000E+000  
  285.50  0.0000E+000  
  286.00  0.0000E+000  
  286.50  0.0000E+000  
  287.00  0.0000E+000  
  287.50  0.0000E+000  
  288.00  0.0000E+000  
  288.50  0.0000E+000  
  289.00  0.0000E+000  
  289.50  0.0000E+000  
  290.00  0.0000E+000  
  290.50  0.0000E+000  
  291.00  0.0000E+000  
  291.50  0.0000E+000  
  292.00  0.0000E+000  
  292.50  0.0000E+000  
  293.00  0.0000E+000  
  293.50  0.0000E+000  
  294.00  0.0000E+000  
  294.50  0.0000E+000  
  295.00  0.0000E+000  
  295.50  0.0000E+000  
  296.00  0.0000E+000  
  296.50  0.0000E+000  
  297.00  0.0000E+000  
  297.50  0.0000E+000  
  298.00  0.0000E+000  
  298.50  0.0000E+000  
  299.00  0.0000E+000  
  299.50  0.0000E+000  
  300.00  0.0000E+000  
  300.50  0.0000E+000  
  301.00  0.0000E+000  
  301.50  0.0000E+000  
  302.00  0.0000E+000  
  302.50  0.0000E+000  
  303.00  0.0000E+000  
  303.50  0.0000E+000  
  304.00  0.0000E+000  
  304.50  0.0000E+000  
  305.00  0.0000E+000  
  305.50  0.0000E+000  
  306.00  8.5443E-008  
  306.50  2.1409E-005  
  307.00  6.4288E-005  
  307.50  1.0375E-004  
  308.00  5.5413E-005  
  308.50  4.4693E-005  
  309.00  9.0662E-005  
  309.50  1.0814E-004  
  310.00  9.1822E-005  
  310.50  5.7727E-005  
  311.00  9.5311E-006  
  311.50  4.4434E-006  
  312.00  2.0470E-005  
  312.50  1.9420E-005  
  313.00  2.2588E-005  
  313.50  0.0000E+000  
  314.00  0.0000E+000  
  314.50  0.0000E+000  
  315.00  1.2718E-005  
  315.50  4.4421E-005  
  316.00  5.6918E-005  
  316.50  3.0412E-005  
  317.00  1.8085E-006  
  317.50  4.8869E-005  
  318.00  6.5742E-005  
  318.50  4.3385E-005  
  319.00  1.3780E-005  
  319.50  0.0000E+000  
  320.00  0.0000E+000  
  320.50  3.2553E-006  
  321.00  9.2992E-005  
  321.50  1.5792E-004  
  322.00  1.5024E-004  
  322.50  1.5252E-004  
  323.00  1.6384E-004  
  323.50  1.5363E-004  
  324.00  1.3129E-004  
  324.50  9.5980E-005  
  325.00  7.3303E-005  
  325.50  6.6246E-005  
  326.00  8.1460E-005  
  326.50  8.3248E-005  
  327.00  6.5468E-005  
  327.50  3.9225E-005  
  328.00  4.5190E-005  
  328.50  6.2041E-005  
  329.00  1.0390E-004  
  329.50  1.2496E-004  
  330.00  9.2133E-005  
  330.50  2.5410E-005  
  331.00  0.0000E+000  
  331.50  0.0000E+000  
  332.00  2.2471E-005  
  332.50  8.6204E-005  
  333.00  1.0224E-004  
  333.50  1.1501E-004  
  334.00  1.1007E-004  
  334.50  3.5610E-005  
  335.00  3.7651E-005  
  335.50  2.7290E-005  
  336.00  5.4501E-008  
  336.50  6.1214E-005  
  337.00  8.0168E-005  
  337.50  9.6877E-005  
  338.00  1.3169E-004  
  338.50  1.0827E-004  
  339.00  1.1293E-004  
  339.50  1.1345E-004  
  340.00  1.2046E-004  
  340.50  1.3367E-004  
  341.00  1.0728E-004  
  341.50  1.5198E-004  
  342.00  1.8602E-004  
  342.50  2.0635E-004  
  343.00  2.1886E-004  
  343.50  1.7969E-004  
  344.00  1.6013E-004  
  344.50  1.6901E-004  
  345.00  1.8401E-004  
  345.50  1.3415E-004  
  346.00  1.2053E-004  
  346.50  1.2247E-004  
  347.00  1.6628E-004  
  347.50  2.8267E-004  
  348.00  3.7510E-004  
  348.50  3.9203E-004  
  349.00  3.6787E-004  
  349.50  3.4491E-004  
  350.00  3.0949E-004  
  350.50  2.9430E-004  
  351.00  2.8805E-004  
  351.50  2.5310E-004  
  352.00  2.6836E-004  
  352.50  2.9231E-004  
  353.00  3.0384E-004  
  353.50  2.5561E-004  
  354.00  2.4997E-004  
  354.50  2.3580E-004  
  355.00  2.3769E-004  
  355.50  2.8189E-004  
  356.00  2.9306E-004  
  356.50  2.8999E-004  
  357.00  2.9090E-004  
  357.50  2.6527E-004  
  358.00  2.8361E-004  
  358.50  3.4298E-004  
  359.00  3.9320E-004  
  359.50  3.9565E-004  
  360.00  3.2694E-004  
  360.50  2.9377E-004  
  361.00  3.0898E-004  
  361.50  3.7158E-004  
  362.00  4.3778E-004  
  362.50  4.6152E-004  
  363.00  4.3549E-004  
  363.50  4.2005E-004  
  364.00  4.8981E-004  
  364.50  5.1143E-004  
  365.00  5.4886E-004  
  365.50  5.8982E-004  
  366.00  5.3451E-004  
  366.50  4.8737E-004  
  367.00  4.9272E-004  
  367.50  4.3296E-004  
  368.00  4.0572E-004  
  368.50  4.5085E-004  
  369.00  4.7147E-004  
  369.50  5.4473E-004  
  370.00  6.0749E-004  
  370.50  6.1026E-004  
  371.00  5.9611E-004  
  371.50  5.7179E-004  
  372.00  5.5473E-004  
  372.50  5.7116E-004  
  373.00  5.9350E-004  
  373.50  6.2849E-004  
  374.00  6.6705E-004  
  374.50  7.1429E-004  
  375.00  7.1680E-004  
  375.50  7.0718E-004  
  376.00  6.7955E-004  
  376.50  6.6219E-004  
  377.00  6.8299E-004  
  377.50  6.8210E-004  
  378.00  6.7715E-004  
  378.50  6.7683E-004  
  379.00  6.8917E-004  
  379.50  7.6357E-004  
  380.00  8.4743E-004  
  380.50  8.7388E-004  
  381.00  8.8271E-004  
  381.50  8.4306E-004  
  382.00  8.3082E-004  
  382.50  8.2165E-004  
  383.00  7.8276E-004  
  383.50  8.0587E-004  
  384.00  7.8972E-004  
  384.50  8.2388E-004  
  385.00  8.9492E-004  
  385.50  9.2176E-004  
  386.00  9.8497E-004  
  386.50  1.0146E-003  
  387.00  9.3366E-004  
  387.50  8.8406E-004  
  388.00  8.4807E-004  
  388.50  8.6784E-004  
  389.00  9.1499E-004  
  389.50  9.4541E-004  
  390.00  9.9014E-004  
  390.50  1.0594E-003  
  391.00  1.0710E-003  
  391.50  1.0875E-003  
  392.00  1.1116E-003  
  392.50  1.1011E-003  
  393.00  1.1305E-003  
  393.50  1.1295E-003  
  394.00  1.0693E-003  
  394.50  1.0273E-003  
  395.00  9.9764E-004  
  395.50  1.0153E-003  
  396.00  1.0605E-003  
  396.50  1.1307E-003  
  397.00  1.1755E-003  
  397.50  1.1717E-003  
  398.00  1.2042E-003  
  398.50  1.1929E-003  
  399.00  1.1814E-003  
  399.50  1.1825E-003  
  400.00  1.1820E-003  
  400.50  1.1880E-003  
  401.00  1.1936E-003  
  401.50  1.2220E-003  
  402.00  1.2711E-003  
  402.50  1.3332E-003  
  403.00  1.3716E-003  
  403.50  1.3639E-003  
  404.00  1.3560E-003  
  404.50  1.3879E-003  
  405.00  1.4132E-003  
  405.50  1.4407E-003  
  406.00  1.4319E-003  
  406.50  1.3928E-003  
  407.00  1.4100E-003  
  407.50  1.3977E-003  
  408.00  1.3663E-003  
  408.50  1.3180E-003  
  409.00  1.2932E-003  
  409.50  1.3572E-003  
  410.00  1.4488E-003  
  410.50  1.4996E-003  
  411.00  1.4996E-003  
  411.50  1.5055E-003  
  412.00  1.4908E-003  
  412.50  1.5283E-003  
  413.00  1.5209E-003  
  413.50  1.5067E-003  
  414.00  1.5340E-003  
  414.50  1.5354E-003  
  415.00  1.5833E-003  
  415.50  1.6526E-003  
  416.00  1.7119E-003  
  416.50  1.7465E-003  
  417.00  1.7462E-003  
  417.50  1.7093E-003  
  418.00  1.6835E-003  
  418.50  1.6694E-003  
  419.00  1.6796E-003  
  419.50  1.7366E-003  
  420.00  1.7816E-003  
  420.50  1.8232E-003  
  421.00  1.7801E-003  
  421.50  1.7177E-003  
  422.00  1.7238E-003  
  422.50  1.7987E-003  
  423.00  1.9030E-003  
  423.50  1.9967E-003  
  424.00  2.0095E-003  
  424.50  1.9531E-003  
  425.00  1.9368E-003  
  425.50  1.9444E-003  
  426.00  1.9761E-003  
  426.50  2.0403E-003  
  427.00  2.0262E-003  
  427.50  2.0319E-003  
  428.00  2.0345E-003  
  428.50  2.0507E-003  
  429.00  2.0967E-003  
  429.50  2.1094E-003  
  430.00  2.0979E-003  
  430.50  2.0844E-003  
  431.00  2.1145E-003  
  431.50  2.1344E-003  
  432.00  2.1497E-003  
  432.50  2.2165E-003  
  433.00  2.2812E-003  
  433.50  2.3584E-003  
  434.00  2.3955E-003  
  434.50  2.3043E-003  
  435.00  2.2323E-003  
  435.50  2.2197E-003  
  436.00  2.2095E-003  
  436.50  2.2685E-003  
  437.00  2.2822E-003  
  437.50  2.2893E-003  
  438.00  2.3074E-003  
  438.50  2.3206E-003  
  439.00  2.3471E-003  
  439.50  2.4047E-003  
  440.00  2.4719E-003  
  440.50  2.5312E-003  
  441.00  2.5572E-003  
  441.50  2.5635E-003  
  442.00  2.5498E-003  
  442.50  2.5832E-003  
  443.00  2.5959E-003  
  443.50  2.6025E-003  
  444.00  2.6012E-003  
  444.50  2.6026E-003  
  445.00  2.6446E-003  
  445.50  2.6785E-003  
  446.00  2.7189E-003  
  446.50  2.7619E-003  
  447.00  2.8275E-003  
  447.50  2.8740E-003  
  448.00  2.8983E-003  
  448.50  2.8613E-003  
  449.00  2.8253E-003  
  449.50  2.8524E-003  
  450.00  2.8994E-003  
  450.50  2.9878E-003  
  451.00  3.0149E-003  
  451.50  3.0358E-003  
  452.00  3.0417E-003  
  452.50  3.0632E-003  
  453.00  3.0671E-003  
  453.50  3.0677E-003  
  454.00  3.0716E-003  
  454.50  3.0846E-003  
  455.00  3.0857E-003  
  455.50  3.0837E-003  
  456.00  3.1079E-003  
  456.50  3.1573E-003  
  457.00  3.2180E-003  
  457.50  3.2655E-003  
  458.00  3.2867E-003  
  458.50  3.3361E-003  
  459.00  3.3618E-003  
  459.50  3.3923E-003  
  460.00  3.4192E-003  
  460.50  3.4378E-003  
  461.00  3.4614E-003  
  461.50  3.4646E-003  
  462.00  3.4521E-003  
  462.50  3.4874E-003  
  463.00  3.5289E-003  
  463.50  3.5947E-003  
  464.00  3.6614E-003  
  464.50  3.7058E-003  
  465.00  3.6975E-003  
  465.50  3.7291E-003  
  466.00  3.7098E-003  
  466.50  3.7133E-003  
  467.00  3.6960E-003  
  467.50  3.6693E-003  
  468.00  3.7115E-003  
  468.50  3.7706E-003  
  469.00  3.8365E-003  
  469.50  3.8691E-003  
  470.00  3.8912E-003  
  470.50  3.9435E-003  
  471.00  3.9804E-003  
  471.50  4.0125E-003  
  472.00  4.0139E-003  
  472.50  4.0282E-003  
  473.00  4.0475E-003  
  473.50  4.0658E-003  
  474.00  4.0886E-003  
  474.50  4.1557E-003  
  475.00  4.2281E-003  
  475.50  4.2674E-003  
  476.00  4.2654E-003  
  476.50  4.2636E-003  
  477.00  4.2937E-003  
  477.50  4.3018E-003  
  478.00  4.3144E-003  
  478.50  4.3484E-003  
  479.00  4.3959E-003  
  479.50  4.4255E-003  
  480.00  4.4333E-003  
  480.50  4.4226E-003  
  481.00  4.4392E-003  
  481.50  4.4747E-003  
  482.00  4.4862E-003  
  482.50  4.4979E-003  
  483.00  4.4910E-003  
  483.50  4.5015E-003  
  484.00  4.5411E-003  
  484.50  4.5794E-003  
  485.00  4.6159E-003  
  485.50  4.6385E-003  
  486.00  4.6700E-003  
  486.50  4.7145E-003  
  487.00  4.7660E-003  
  487.50  4.8093E-003  
  488.00  4.8492E-003  
  488.50  4.8795E-003  
  489.00  4.9174E-003  
  489.50  4.9478E-003  
  490.00  4.9997E-003  
  490.50  5.0468E-003  
  491.00  5.0731E-003  
  491.50  5.0801E-003  
  492.00  5.0970E-003  
  492.50  5.0976E-003  
  493.00  5.1235E-003  
  493.50  5.1550E-003  
  494.00  5.1836E-003  
  494.50  5.2273E-003  
  495.00  5.2845E-003  
  495.50  5.3219E-003  
  496.00  5.3734E-003  
  496.50  5.3869E-003  
  497.00  5.4048E-003  
  497.50  5.4521E-003  
  498.00  5.4790E-003  
  498.50  5.5264E-003  
  499.00  5.5620E-003  
  499.50  5.5843E-003  
  500.00  5.6367E-003  
  500.50  5.6761E-003  
  501.00  5.7376E-003  
  501.50  5.7849E-003  
  502.00  5.8289E-003  
  502.50  5.8370E-003  
  503.00  5.8739E-003  
  503.50  5.9155E-003  
  504.00  5.9900E-003  
  504.50  6.0511E-003  
  505.00  6.0570E-003  
  505.50  6.0768E-003  
  506.00  6.1127E-003  
  506.50  6.1778E-003  
  507.00  6.2476E-003  
  507.50  6.3013E-003  
  508.00  6.3697E-003  
  508.50  6.4350E-003  
  509.00  6.4894E-003  
  509.50  6.5210E-003  
  510.00  6.5455E-003  
  510.50  6.5600E-003  
  511.00  6.6155E-003  
  511.50  6.6738E-003  
  512.00  6.7229E-003  
  512.50  6.7820E-003  
  513.00  6.8616E-003  
  513.50  6.9430E-003  
  514.00  6.9848E-003  
  514.50  7.0049E-003  
  515.00  7.0026E-003  
  515.50  7.0363E-003  
  516.00  7.0970E-003  
  516.50  7.1705E-003  
  517.00  7.2581E-003  
  517.50  7.2962E-003  
  518.00  7.3163E-003  
  518.50  7.3305E-003  
  519.00  7.3692E-003  
  519.50  7.4332E-003  
  520.00  7.5128E-003  
  520.50  7.5991E-003  
  521.00  7.6419E-003  
  521.50  7.6637E-003  
  522.00  7.6702E-003  
  522.50  7.7294E-003  
  523.00  7.8105E-003  
  523.50  7.8840E-003  
  524.00  7.9240E-003  
  524.50  7.9341E-003  
  525.00  7.9386E-003  
  525.50  7.9921E-003  
  526.00  8.0690E-003  
  526.50  8.1742E-003  
  527.00  8.2507E-003  
  527.50  8.3028E-003  
  528.00  8.3742E-003  
  528.50  8.4580E-003  
  529.00  8.5384E-003  
  529.50  8.5912E-003  
  530.00  8.6461E-003  
  530.50  8.6845E-003  
  531.00  8.7362E-003  
  531.50  8.7652E-003  
  532.00  8.8141E-003  
  532.50  8.8556E-003  
  533.00  8.9366E-003  
  533.50  8.9921E-003  
  534.00  9.0322E-003  
  534.50  9.0739E-003  
  535.00  9.1214E-003  
  535.50  9.1974E-003  
  536.00  9.2664E-003  
  536.50  9.3161E-003  
  537.00  9.4030E-003  
  537.50  9.4688E-003  
  538.00  9.5288E-003  
  538.50  9.5658E-003  
  539.00  9.6101E-003  
  539.50  9.6411E-003  
  540.00  9.6767E-003  
  540.50  9.6820E-003  
  541.00  9.7322E-003  
  541.50  9.7871E-003  
  542.00  9.8999E-003  
  542.50  9.9928E-003  
  543.00  1.0063E-002  
  543.50  1.0101E-002  
  544.00  1.0175E-002  
  544.50  1.0208E-002  
  545.00  1.0274E-002  
  545.50  1.0303E-002  
  546.00  1.0381E-002  
  546.50  1.0450E-002  
  547.00  1.0483E-002  
  547.50  1.0503E-002  
  548.00  1.0537E-002  
  548.50  1.0611E-002  
  549.00  1.0697E-002  
  549.50  1.0753E-002  
  550.00  1.0771E-002  
  550.50  1.0777E-002  
  551.00  1.0820E-002  
  551.50  1.0887E-002  
  552.00  1.0969E-002  
  552.50  1.0989E-002  
  553.00  1.1004E-002  
  553.50  1.1024E-002  
  554.00  1.1098E-002  
  554.50  1.1206E-002  
  555.00  1.1297E-002  
  555.50  1.1408E-002  
  556.00  1.1473E-002  
  556.50  1.1524E-002  
  557.00  1.1566E-002  
  557.50  1.1611E-002  
  558.00  1.1680E-002  
  558.50  1.1774E-002  
  559.00  1.1826E-002  
  559.50  1.1861E-002  
  560.00  1.1865E-002  
  560.50  1.1885E-002  
  561.00  1.1942E-002  
  561.50  1.1998E-002  
  562.00  1.2052E-002  
  562.50  1.2103E-002  
  563.00  1.2125E-002  
  563.50  1.2153E-002  
  564.00  1.2231E-002  
  564.50  1.2300E-002  
  565.00  1.2338E-002  
  565.50  1.2363E-002  
  566.00  1.2424E-002  
  566.50  1.2550E-002  
  567.00  1.2646E-002  
  567.50  1.2697E-002  
  568.00  1.2749E-002  
  568.50  1.2779E-002  
  569.00  1.2799E-002  
  569.50  1.2770E-002  
  570.00  1.2791E-002  
  570.50  1.2789E-002  
  571.00  1.2837E-002  
  571.50  1.2930E-002  
  572.00  1.3010E-002  
  572.50  1.3062E-002  
  573.00  1.3053E-002  
  573.50  1.3070E-002  
  574.00  1.3156E-002  
  574.50  1.3265E-002  
  575.00  1.3339E-002  
  575.50  1.3397E-002  
  576.00  1.3389E-002  
  576.50  1.3436E-002  
  577.00  1.3496E-002  
  577.50  1.3553E-002  
  578.00  1.3565E-002  
  578.50  1.3609E-002  
  579.00  1.3685E-002  
  579.50  1.3791E-002  
  580.00  1.3822E-002  
  580.50  1.3824E-002  
  581.00  1.3872E-002  
  581.50  1.3929E-002  
  582.00  1.3997E-002  
  582.50  1.4037E-002  
  583.00  1.4053E-002  
  583.50  1.4115E-002  
  584.00  1.4143E-002  
  584.50  1.4216E-002  
  585.00  1.4262E-002  
  585.50  1.4373E-002  
  586.00  1.4439E-002  
  586.50  1.4441E-002  
  587.00  1.4421E-002  
  587.50  1.4446E-002  
  588.00  1.4537E-002  
  588.50  1.4593E-002  
  589.00  1.4602E-002  
  589.50  1.4623E-002  
  590.00  1.4666E-002  
  590.50  1.4711E-002  
  591.00  1.4749E-002  
  591.50  1.4837E-002  
  592.00  1.4906E-002  
  592.50  1.4920E-002  
  593.00  1.4943E-002  
  593.50  1.4989E-002  
  594.00  1.5105E-002  
  594.50  1.5184E-002  
  595.00  1.5213E-002  
  595.50  1.5219E-002  
  596.00  1.5178E-002  
  596.50  1.5167E-002  
  597.00  1.5160E-002  
  597.50  1.5196E-002  
  598.00  1.5259E-002  
  598.50  1.5309E-002  
  599.00  1.5350E-002  
  599.50  1.5426E-002  
  600.00  1.5514E-002  
  600.50  1.5543E-002  
  601.00  1.5561E-002  
  601.50  1.5562E-002  
  602.00  1.5625E-002  
  602.50  1.5690E-002  
  603.00  1.5738E-002  
  603.50  1.5795E-002  
  604.00  1.5857E-002  
  604.50  1.5864E-002  
  605.00  1.5895E-002  
  605.50  1.5898E-002  
  606.00  1.5904E-002  
  606.50  1.5913E-002  
  607.00  1.5933E-002  
  607.50  1.5990E-002  
  608.00  1.6072E-002  
  608.50  1.6157E-002  
  609.00  1.6215E-002  
  609.50  1.6224E-002  
  610.00  1.6226E-002  
  610.50  1.6195E-002  
  611.00  1.6230E-002  
  611.50  1.6251E-002  
  612.00  1.6263E-002  
  612.50  1.6309E-002  
  613.00  1.6341E-002  
  613.50  1.6425E-002  
  614.00  1.6434E-002  
  614.50  1.6499E-002  
  615.00  1.6544E-002  
  615.50  1.6651E-002  
  616.00  1.6681E-002  
  616.50  1.6708E-002  
  617.00  1.6716E-002  
  617.50  1.6766E-002  
  618.00  1.6838E-002  
  618.50  1.6843E-002  
  619.00  1.6808E-002  
  619.50  1.6770E-002  
  620.00  1.6859E-002  
  620.50  1.6956E-002  
  621.00  1.7071E-002  
  621.50  1.7107E-002  
  622.00  1.7110E-002  
  622.50  1.7055E-002  
  623.00  1.7061E-002  
  623.50  1.7088E-002  
  624.00  1.7168E-002  
  624.50  1.7152E-002  
  625.00  1.7113E-002  
  625.50  1.7071E-002  
  626.00  1.7071E-002  
  626.50  1.7105E-002  
  627.00  1.7150E-002  
  627.50  1.7238E-002  
  628.00  1.7387E-002  
  628.50  1.7482E-002  
  629.00  1.7538E-002  
  629.50  1.7513E-002  
  630.00  1.7527E-002  
  630.50  1.7536E-002  
  631.00  1.7506E-002  
  631.50  1.7505E-002  
  632.00  1.7536E-002  
  632.50  1.7544E-002  
  633.00  1.7533E-002  
  633.50  1.7499E-002  
  634.00  1.7500E-002  
  634.50  1.7557E-002  
  635.00  1.7627E-002  
  635.50  1.7712E-002  
  636.00  1.7761E-002  
  636.50  1.7810E-002  
  637.00  1.7937E-002  
  637.50  1.8032E-002  
  638.00  1.8065E-002  
  638.50  1.8084E-002  
  639.00  1.8089E-002  
  639.50  1.8093E-002  
  640.00  1.8090E-002  
  640.50  1.8097E-002  
  641.00  1.8178E-002  
  641.50  1.8233E-002  
  642.00  1.8264E-002  
  642.50  1.8307E-002  
  643.00  1.8359E-002  
  643.50  1.8375E-002  
  644.00  1.8349E-002  
  644.50  1.8298E-002  
  645.00  1.8383E-002  
  645.50  1.8472E-002  
  646.00  1.8502E-002  
  646.50  1.8421E-002  
  647.00  1.8428E-002  
  647.50  1.8442E-002  
  648.00  1.8479E-002  
  648.50  1.8409E-002  
  649.00  1.8425E-002  
  649.50  1.8481E-002  
  650.00  1.8617E-002  
  650.50  1.8704E-002  
  651.00  1.8763E-002  
  651.50  1.8784E-002  
  652.00  1.8718E-002  
  652.50  1.8706E-002  
  653.00  1.8595E-002  
  653.50  1.8633E-002  
  654.00  1.8692E-002  
  654.50  1.8843E-002  
  655.00  1.8914E-002  
  655.50  1.8909E-002  
  656.00  1.8840E-002  
  656.50  1.8799E-002  
  657.00  1.8773E-002  
  657.50  1.8874E-002  
  658.00  1.8940E-002  
  658.50  1.9042E-002  
  659.00  1.9019E-002  
  659.50  1.9067E-002  
  660.00  1.9070E-002  
  660.50  1.9180E-002  
  661.00  1.9216E-002  
  661.50  1.9244E-002  
  662.00  1.9183E-002  
  662.50  1.9173E-002  
  663.00  1.9185E-002  
  663.50  1.9232E-002  
  664.00  1.9221E-002  
  664.50  1.9282E-002  
  665.00  1.9342E-002  
  665.50  1.9358E-002  
  666.00  1.9260E-002  
  666.50  1.9201E-002  
  667.00  1.9243E-002  
  667.50  1.9385E-002  
  668.00  1.9487E-002  
  668.50  1.9553E-002  
  669.00  1.9484E-002  
  669.50  1.9344E-002  
  670.00  1.9293E-002  
  670.50  1.9369E-002  
  671.00  1.9555E-002  
  671.50  1.9621E-002  
  672.00  1.9566E-002  
  672.50  1.9459E-002  
  673.00  1.9429E-002  
  673.50  1.9481E-002  
  674.00  1.9608E-002  
  674.50  1.9716E-002  
  675.00  1.9830E-002  
  675.50  1.9882E-002  
  676.00  1.9929E-002  
  676.50  1.9944E-002  
  677.00  1.9940E-002  
  677.50  1.9927E-002  
  678.00  1.9871E-002  
  678.50  1.9918E-002  
  679.00  1.9929E-002  
  679.50  2.0020E-002  
  680.00  2.0003E-002  
  680.50  1.9984E-002  
  681.00  1.9963E-002  
  681.50  1.9956E-002  
  682.00  2.0047E-002  
  682.50  2.0180E-002  
  683.00  2.0271E-002  
  683.50  2.0243E-002  
  684.00  2.0087E-002  
  684.50  1.9995E-002  
  685.00  1.9924E-002  
  685.50  1.9984E-002  
  686.00  2.0052E-002  
  686.50  2.0162E-002  
  687.00  2.0252E-002  
  687.50  2.0384E-002  
  688.00  2.0483E-002  
  688.50  2.0559E-002  
  689.00  2.0600E-002  
  689.50  2.0668E-002  
  690.00  2.0660E-002  
  690.50  2.0575E-002  
  691.00  2.0498E-002  
  691.50  2.0504E-002  
  692.00  2.0532E-002  
  692.50  2.0509E-002  
  693.00  2.0582E-002  
  693.50  2.0716E-002  
  694.00  2.0828E-002  
  694.50  2.0877E-002  
  695.00  2.0901E-002  
  695.50  2.0843E-002  
  696.00  2.0716E-002  
  696.50  2.0714E-002  
  697.00  2.0793E-002  
  697.50  2.0824E-002  
  698.00  2.0857E-002  
  698.50  2.1004E-002  
  699.00  2.1123E-002  
  699.50  2.1100E-002  
  700.00  2.0963E-002  
  700.50  2.0966E-002  
  701.00  2.1115E-002  
  701.50  2.1282E-002  
  702.00  2.1287E-002  
  702.50  2.1266E-002  
  703.00  2.1372E-002  
  703.50  2.1543E-002  
  704.00  2.1673E-002  
  704.50  2.1643E-002  
  705.00  2.1683E-002  
  705.50  2.1618E-002  
  706.00  2.1589E-002  
  706.50  2.1538E-002  
  707.00  2.1552E-002  
  707.50  2.1674E-002  
  708.00  2.1703E-002  
  708.50  2.1595E-002  
  709.00  2.1561E-002  
  709.50  2.1685E-002  
  710.00  2.1800E-002  
  710.50  2.1813E-002  
  711.00  2.1758E-002  
  711.50  2.1860E-002  
  712.00  2.1948E-002  
  712.50  2.2109E-002  
  713.00  2.2147E-002  
  713.50  2.2089E-002  
  714.00  2.2007E-002  
  714.50  2.2017E-002  
  715.00  2.2133E-002  
  715.50  2.2252E-002  
  716.00  2.2336E-002  
  716.50  2.2391E-002  
  717.00  2.2438E-002  
  717.50  2.2503E-002  
  718.00  2.2527E-002  
  718.50  2.2497E-002  
  719.00  2.2510E-002  
  719.50  2.2532E-002  
  720.00  2.2610E-002  
  720.50  2.2767E-002  
  721.00  2.2968E-002  
  721.50  2.2976E-002  
  722.00  2.2871E-002  
  722.50  2.2736E-002  
  723.00  2.2682E-002  
  723.50  2.2674E-002  
  724.00  2.2695E-002  
  724.50  2.2749E-002  
  725.00  2.2693E-002  
  725.50  2.2679E-002  
  726.00  2.2691E-002  
  726.50  2.2864E-002  
  727.00  2.2980E-002  
  727.50  2.3015E-002  
  728.00  2.2998E-002  
  728.50  2.3016E-002  
  729.00  2.3193E-002  
  729.50  2.3329E-002  
  730.00  2.3440E-002  
  730.50  2.3346E-002  
  731.00  2.3334E-002  
  731.50  2.3343E-002  
  732.00  2.3454E-002  
  732.50  2.3463E-002  
  733.00  2.3525E-002  
  733.50  2.3532E-002  
  734.00  2.3440E-002  
  734.50  2.3319E-002  
  735.00  2.3352E-002  
  735.50  2.3447E-002  
  736.00  2.3529E-002  
  736.50  2.3714E-002  
  737.00  2.3828E-002  
  737.50  2.3897E-002  
  738.00  2.3747E-002  
  738.50  2.3620E-002  
  739.00  2.3628E-002  
  739.50  2.3696E-002  
  740.00  2.3848E-002  
  740.50  2.3840E-002  
  741.00  2.3996E-002  
  741.50  2.4021E-002  
  742.00  2.4046E-002  
  742.50  2.3965E-002  
  743.00  2.4018E-002  
  743.50  2.4055E-002  
  744.00  2.4076E-002  
  744.50  2.4007E-002  
  745.00  2.4049E-002  
  745.50  2.4030E-002  
  746.00  2.4161E-002  
  746.50  2.4228E-002  
  747.00  2.4411E-002  
  747.50  2.4547E-002  
  748.00  2.4571E-002  
  748.50  2.4332E-002  
  749.00  2.4247E-002  
  749.50  2.4522E-002  
  750.00  2.4848E-002  
  750.50  2.4807E-002  
  751.00  2.4608E-002  
  751.50  2.4408E-002  
  752.00  2.4336E-002  
  752.50  2.4404E-002  
  753.00  2.4789E-002  
  753.50  2.5146E-002  
  754.00  2.5151E-002  
  754.50  2.5063E-002  
  755.00  2.5052E-002  
  755.50  2.5083E-002  
  756.00  2.5024E-002  
  756.50  2.4993E-002  
  757.00  2.5073E-002  
  757.50  2.5092E-002  
  758.00  2.5084E-002  
  758.50  2.4951E-002  
  759.00  2.4937E-002  
  759.50  2.4919E-002  
  760.00  2.5194E-002  
  760.50  2.5223E-002  
  761.00  2.5337E-002  
  761.50  2.5365E-002  
  762.00  2.5566E-002  
  762.50  2.5677E-002  
  763.00  2.5441E-002  
  763.50  2.5253E-002  
  764.00  2.5170E-002  
  764.50  2.5310E-002  
  765.00  2.5431E-002  
  765.50  2.5513E-002  
  766.00  2.5626E-002  
  766.50  2.5743E-002  
  767.00  2.5755E-002  
  767.50  2.5793E-002  
  768.00  2.5890E-002  
  768.50  2.5811E-002  
  769.00  2.5597E-002  
  769.50  2.5555E-002  
  770.00  2.5816E-002  
  770.50  2.5934E-002  
  771.00  2.5758E-002  
  771.50  2.5599E-002  
  772.00  2.5633E-002  
  772.50  2.5738E-002  
  773.00  2.5724E-002  
  773.50  2.5688E-002  
  774.00  2.5698E-002  
  774.50  2.5857E-002  
  775.00  2.5953E-002  
  775.50  2.6068E-002  
  776.00  2.6003E-002  
  776.50  2.5839E-002  
  777.00  2.5867E-002  
  777.50  2.6057E-002  
  778.00  2.6236E-002  
  778.50  2.6193E-002  
  779.00  2.6090E-002  
  779.50  2.6038E-002  
  780.00  2.5999E-002  
  780.50  2.6068E-002  
  781.00  2.6138E-002  
  781.50  2.6497E-002  
  782.00  2.6685E-002  
  782.50  2.6743E-002  
  783.00  2.6848E-002  
  783.50  2.6729E-002  
  784.00  2.6401E-002  
  784.50  2.6354E-002  
  785.00  2.6460E-002  
  785.50  2.6326E-002  
  786.00  2.6334E-002  
  786.50  2.6568E-002  
  787.00  2.6631E-002  
  787.50  2.6455E-002  
  788.00  2.6363E-002  
  788.50  2.6421E-002  
  789.00  2.6528E-002  
  789.50  2.6709E-002  
  790.00  2.6968E-002  
  790.50  2.6836E-002  
  791.00  2.6578E-002  
  791.50  2.6500E-002  
  792.00  2.6810E-002  
  792.50  2.6953E-002  
  793.00  2.6829E-002  
  793.50  2.6708E-002  
  794.00  2.6686E-002  
  794.50  2.6721E-002  
  795.00  2.6894E-002  
  795.50  2.6994E-002  
  796.00  2.7008E-002  
  796.50  2.6782E-002  
  797.00  2.6800E-002  
  797.50  2.7011E-002  
  798.00  2.7023E-002  
  798.50  2.6757E-002  
  799.00  2.6895E-002  
  799.50  2.7391E-002  
  800.00  2.7617E-002  
  800.50  2.7475E-002  
  801.00  2.7206E-002  
  801.50  2.7187E-002  
  802.00  2.7431E-002  
  802.50  2.7588E-002  
  803.00  2.7330E-002  
  803.50  2.7091E-002  
  804.00  2.7153E-002  
  804.50  2.7549E-002  
  805.00  2.7882E-002  
  805.50  2.7878E-002  
  806.00  2.7561E-002  
  806.50  2.7443E-002  
  807.00  2.7131E-002  
  807.50  2.7121E-002  
  808.00  2.7328E-002  
  808.50  2.7485E-002  
  809.00  2.7600E-002  
  809.50  2.7741E-002  
  810.00  2.7799E-002  
  810.50  2.7776E-002  
  811.00  2.7635E-002  
  811.50  2.7561E-002  
  812.00  2.7474E-002  
  812.50  2.7412E-002  
  813.00  2.7712E-002  
  813.50  2.7872E-002  
  814.00  2.7745E-002  
  814.50  2.7873E-002  
  815.00  2.8264E-002  
  815.50  2.8423E-002  
  816.00  2.8404E-002  
  816.50  2.8540E-002  
  817.00  2.8411E-002  
  817.50  2.8334E-002  
  818.00  2.8193E-002  
  818.50  2.8237E-002  
  819.00  2.8077E-002  
  819.50  2.8023E-002  
  820.00  2.8063E-002  
  820.50  2.7919E-002  
  821.00  2.7958E-002  
  821.50  2.8206E-002  
  822.00  2.8634E-002  
  822.50  2.9083E-002  
  823.00  2.9095E-002  
  823.50  2.8751E-002  
  824.00  2.8381E-002  
  824.50  2.8259E-002  
  825.00  2.8308E-002  
  825.50  2.8181E-002  
  826.00  2.8117E-002  
  826.50  2.8208E-002  
  827.00  2.8490E-002  
  827.50  2.8652E-002  
  828.00  2.8447E-002  
  828.50  2.8490E-002  
  829.00  2.8611E-002  
  829.50  2.8577E-002  
  830.00  2.8398E-002  
  830.50  2.8425E-002  
  831.00  2.8397E-002  
  831.50  2.8656E-002  
  832.00  2.8742E-002  
  832.50  2.8414E-002  
  833.00  2.8134E-002  
  833.50  2.7947E-002  
  834.00  2.8060E-002  
  834.50  2.8504E-002  
  835.00  2.8948E-002  
  835.50  2.8981E-002  
  836.00  2.8763E-002  
  836.50  2.8488E-002  
  837.00  2.8433E-002  
  837.50  2.8565E-002  
  838.00  2.8820E-002  
  838.50  2.9203E-002  
  839.00  2.9032E-002  
  839.50  2.8985E-002  
  840.00  2.8726E-002  
  840.50  2.8618E-002  
  841.00  2.8660E-002  
  841.50  2.8823E-002  
  842.00  2.8811E-002  
  842.50  2.8896E-002  
  843.00  2.8884E-002  
  843.50  2.8859E-002  
  844.00  2.8871E-002  
  844.50  2.8985E-002  
  845.00  2.8825E-002  
  845.50  2.8553E-002  
  846.00  2.8078E-002  
  846.50  2.8213E-002  
  847.00  2.8718E-002  
  847.50  2.8859E-002  
  848.00  2.8856E-002  
  848.50  2.8786E-002  
  849.00  2.9152E-002  
  849.50  2.9259E-002  
  850.00  2.9220E-002  
  850.50  2.9303E-002  
  851.00  2.9758E-002  
  851.50  2.9617E-002  
  852.00  2.8771E-002  
  852.50  2.8587E-002  
  853.00  2.8807E-002  
  853.50  2.8961E-002  
  854.00  2.9375E-002  
  854.50  2.9860E-002  
  855.00  2.9594E-002  
  855.50  2.9417E-002  
  856.00  2.9449E-002  
  856.50  2.9490E-002  
  857.00  2.8954E-002  
  857.50  2.8485E-002  
  858.00  2.8736E-002  
  858.50  2.9565E-002  
  859.00  3.0324E-002  
  859.50  2.9998E-002  
  860.00  2.9540E-002  
  860.50  2.8753E-002  
  861.00  2.8677E-002  
  861.50  2.9385E-002  
  862.00  3.0016E-002  
  862.50  3.0140E-002  
  863.00  3.0273E-002  
  863.50  3.0519E-002  
  864.00  2.9657E-002  
  864.50  2.8691E-002  
  865.00  2.8453E-002  
  865.50  2.8997E-002  
  866.00  2.9775E-002  
  866.50  3.0116E-002  
  867.00  2.9589E-002  
  867.50  2.9313E-002  
  868.00  2.9286E-002  
  868.50  2.9373E-002  
  869.00  2.9466E-002  
  869.50  3.0186E-002  
  870.00  3.0490E-002  
  870.50  3.0215E-002  
  871.00  2.9875E-002  
  871.50  3.0209E-002  
  872.00  3.0445E-002  
  872.50  2.9937E-002  
  873.00  2.9359E-002  
  873.50  2.9408E-002  
  874.00  2.9937E-002  
  874.50  2.9854E-002  
  875.00  2.9498E-002  
  875.50  3.0110E-002  
  876.00  3.0550E-002  
  876.50  3.0057E-002  
  877.00  2.9707E-002  
  877.50  2.9434E-002  
  878.00  3.0299E-002  
  878.50  3.1165E-002  
  879.00  3.1098E-002  
  879.50  3.0533E-002  
  880.00  2.9886E-002  
  880.50  2.9682E-002  
  881.00  2.9437E-002  
  881.50  2.9741E-002  
  882.00  3.0227E-002  
  882.50  2.9841E-002  
  883.00  2.9445E-002  
  883.50  2.9928E-002  
  884.00  2.9894E-002  
  884.50  2.9744E-002  
  885.00  3.0240E-002  
  885.50  3.0954E-002  
  886.00  3.1019E-002  
  886.50  3.0543E-002  
  887.00  3.0570E-002  
  887.50  3.0793E-002  
  888.00  3.0806E-002  
  888.50  3.1014E-002  
  889.00  3.1550E-002  
  889.50  3.1137E-002  
  890.00  3.0417E-002  
  890.50  3.0327E-002  
  891.00  3.0326E-002  
  891.50  2.9971E-002  
  892.00  3.0220E-002  
  892.50  3.0947E-002  
  893.00  3.0770E-002  
  893.50  3.0044E-002  
  894.00  2.8932E-002  
  894.50  2.9444E-002  
  895.00  3.0716E-002  
  895.50  3.0942E-002  
  896.00  3.0171E-002  
  896.50  2.9926E-002  
  897.00  2.9458E-002  
  897.50  2.9972E-002  
  898.00  3.0765E-002  
  898.50  3.0363E-002  
  899.00  2.9583E-002  
  899.50  5.8818E-004  
