
# From lspdd.org
# 
# Name: DEL CREE A19 Domestique
# Indice spectral Valeur 
# MSI 0.26 
# SLI 0.46 
# IPI 0.63 
# Pourcentage de bleu 17.1 
# Caractéristique Valeur 
# CCT calculée (K) 2740 
# CCT du fabricant (K) 2700 
# Tension (V) 120 
# Puissance (W) 9.5 
# Efficacité lumineuse (Lum/W) 84.2 
#
# Image: '/app/system/img_2s/2581/medium_image2.JPG?1413486473'
# Image: '/app/system/img_1s/2581/medium_image1.JPG?1413486477'
# 

  273.00  0.0000E+000  
  273.50  0.0000E+000  
  274.00  0.0000E+000  
  274.50  0.0000E+000  
  275.00  0.0000E+000  
  275.50  0.0000E+000  
  276.00  0.0000E+000  
  276.50  0.0000E+000  
  277.00  0.0000E+000  
  277.50  0.0000E+000  
  278.00  0.0000E+000  
  278.50  0.0000E+000  
  279.00  0.0000E+000  
  279.50  0.0000E+000  
  280.00  0.0000E+000  
  280.50  0.0000E+000  
  281.00  0.0000E+000  
  281.50  0.0000E+000  
  282.00  0.0000E+000  
  282.50  0.0000E+000  
  283.00  0.0000E+000  
  283.50  0.0000E+000  
  284.00  0.0000E+000  
  284.50  0.0000E+000  
  285.00  0.0000E+000  
  285.50  0.0000E+000  
  286.00  0.0000E+000  
  286.50  0.0000E+000  
  287.00  0.0000E+000  
  287.50  0.0000E+000  
  288.00  0.0000E+000  
  288.50  0.0000E+000  
  289.00  0.0000E+000  
  289.50  0.0000E+000  
  290.00  0.0000E+000  
  290.50  0.0000E+000  
  291.00  0.0000E+000  
  291.50  0.0000E+000  
  292.00  0.0000E+000  
  292.50  0.0000E+000  
  293.00  0.0000E+000  
  293.50  0.0000E+000  
  294.00  0.0000E+000  
  294.50  0.0000E+000  
  295.00  0.0000E+000  
  295.50  0.0000E+000  
  296.00  0.0000E+000  
  296.50  0.0000E+000  
  297.00  0.0000E+000  
  297.50  0.0000E+000  
  298.00  0.0000E+000  
  298.50  0.0000E+000  
  299.00  0.0000E+000  
  299.50  0.0000E+000  
  300.00  0.0000E+000  
  300.50  0.0000E+000  
  301.00  0.0000E+000  
  301.50  0.0000E+000  
  302.00  0.0000E+000  
  302.50  2.1208E-005  
  303.00  4.1011E-005  
  303.50  5.3130E-005  
  304.00  4.0477E-005  
  304.50  4.7716E-005  
  305.00  1.0960E-004  
  305.50  1.2943E-004  
  306.00  1.0652E-004  
  306.50  5.4847E-005  
  307.00  2.2464E-005  
  307.50  4.1840E-006  
  308.00  0.0000E+000  
  308.50  0.0000E+000  
  309.00  0.0000E+000  
  309.50  0.0000E+000  
  310.00  0.0000E+000  
  310.50  0.0000E+000  
  311.00  1.2684E-006  
  311.50  1.4278E-005  
  312.00  3.8041E-006  
  312.50  0.0000E+000  
  313.00  0.0000E+000  
  313.50  0.0000E+000  
  314.00  0.0000E+000  
  314.50  0.0000E+000  
  315.00  0.0000E+000  
  315.50  0.0000E+000  
  316.00  0.0000E+000  
  316.50  0.0000E+000  
  317.00  7.8808E-006  
  317.50  6.7513E-005  
  318.00  8.0431E-005  
  318.50  2.7786E-005  
  319.00  0.0000E+000  
  319.50  0.0000E+000  
  320.00  0.0000E+000  
  320.50  6.2181E-006  
  321.00  1.4301E-005  
  321.50  0.0000E+000  
  322.00  0.0000E+000  
  322.50  0.0000E+000  
  323.00  0.0000E+000  
  323.50  0.0000E+000  
  324.00  0.0000E+000  
  324.50  0.0000E+000  
  325.00  0.0000E+000  
  325.50  3.8588E-007  
  326.00  9.0626E-007  
  326.50  0.0000E+000  
  327.00  0.0000E+000  
  327.50  0.0000E+000  
  328.00  0.0000E+000  
  328.50  0.0000E+000  
  329.00  0.0000E+000  
  329.50  0.0000E+000  
  330.00  0.0000E+000  
  330.50  0.0000E+000  
  331.00  0.0000E+000  
  331.50  0.0000E+000  
  332.00  0.0000E+000  
  332.50  0.0000E+000  
  333.00  1.2609E-006  
  333.50  4.6457E-005  
  334.00  6.2901E-005  
  334.50  4.2197E-005  
  335.00  1.6594E-005  
  335.50  0.0000E+000  
  336.00  1.3205E-006  
  336.50  1.4293E-005  
  337.00  2.8117E-005  
  337.50  2.6320E-005  
  338.00  0.0000E+000  
  338.50  0.0000E+000  
  339.00  0.0000E+000  
  339.50  0.0000E+000  
  340.00  0.0000E+000  
  340.50  0.0000E+000  
  341.00  0.0000E+000  
  341.50  0.0000E+000  
  342.00  0.0000E+000  
  342.50  3.0443E-005  
  343.00  1.9967E-005  
  343.50  3.1250E-007  
  344.00  0.0000E+000  
  344.50  0.0000E+000  
  345.00  0.0000E+000  
  345.50  0.0000E+000  
  346.00  0.0000E+000  
  346.50  0.0000E+000  
  347.00  0.0000E+000  
  347.50  0.0000E+000  
  348.00  4.0108E-006  
  348.50  3.7824E-005  
  349.00  1.2374E-004  
  349.50  1.4967E-004  
  350.00  9.1000E-005  
  350.50  3.9752E-005  
  351.00  0.0000E+000  
  351.50  0.0000E+000  
  352.00  0.0000E+000  
  352.50  1.1863E-007  
  353.00  3.7222E-006  
  353.50  0.0000E+000  
  354.00  0.0000E+000  
  354.50  0.0000E+000  
  355.00  0.0000E+000  
  355.50  1.3127E-006  
  356.00  1.7932E-005  
  356.50  2.3459E-005  
  357.00  1.4713E-005  
  357.50  0.0000E+000  
  358.00  0.0000E+000  
  358.50  0.0000E+000  
  359.00  0.0000E+000  
  359.50  2.8281E-006  
  360.00  5.8135E-005  
  360.50  9.5356E-005  
  361.00  1.1774E-004  
  361.50  5.2762E-005  
  362.00  1.8401E-006  
  362.50  0.0000E+000  
  363.00  2.0859E-005  
  363.50  9.7911E-005  
  364.00  1.4852E-004  
  364.50  1.3649E-004  
  365.00  1.2400E-004  
  365.50  6.9120E-005  
  366.00  1.3490E-005  
  366.50  6.0444E-007  
  367.00  0.0000E+000  
  367.50  0.0000E+000  
  368.00  0.0000E+000  
  368.50  8.0470E-007  
  369.00  1.0193E-005  
  369.50  3.7697E-005  
  370.00  8.2491E-005  
  370.50  2.6855E-005  
  371.00  0.0000E+000  
  371.50  0.0000E+000  
  372.00  0.0000E+000  
  372.50  0.0000E+000  
  373.00  0.0000E+000  
  373.50  0.0000E+000  
  374.00  0.0000E+000  
  374.50  0.0000E+000  
  375.00  1.6830E-006  
  375.50  2.2709E-005  
  376.00  3.0982E-006  
  376.50  2.6430E-006  
  377.00  0.0000E+000  
  377.50  0.0000E+000  
  378.00  0.0000E+000  
  378.50  0.0000E+000  
  379.00  0.0000E+000  
  379.50  0.0000E+000  
  380.00  0.0000E+000  
  380.50  0.0000E+000  
  381.00  0.0000E+000  
  381.50  2.8120E-005  
  382.00  9.0146E-005  
  382.50  6.1447E-005  
  383.00  6.0404E-005  
  383.50  4.9107E-005  
  384.00  6.4754E-005  
  384.50  7.6198E-005  
  385.00  5.5683E-005  
  385.50  4.2554E-005  
  386.00  3.6796E-006  
  386.50  0.0000E+000  
  387.00  0.0000E+000  
  387.50  0.0000E+000  
  388.00  1.0551E-005  
  388.50  3.7367E-006  
  389.00  0.0000E+000  
  389.50  1.7852E-007  
  390.00  4.3202E-006  
  390.50  0.0000E+000  
  391.00  0.0000E+000  
  391.50  0.0000E+000  
  392.00  0.0000E+000  
  392.50  0.0000E+000  
  393.00  0.0000E+000  
  393.50  0.0000E+000  
  394.00  0.0000E+000  
  394.50  0.0000E+000  
  395.00  9.3012E-007  
  395.50  3.7383E-005  
  396.00  7.7372E-005  
  396.50  8.2041E-005  
  397.00  5.1323E-005  
  397.50  1.8283E-006  
  398.00  0.0000E+000  
  398.50  0.0000E+000  
  399.00  0.0000E+000  
  399.50  1.8823E-005  
  400.00  8.6780E-005  
  400.50  6.2429E-005  
  401.00  4.8592E-005  
  401.50  1.1237E-005  
  402.00  0.0000E+000  
  402.50  4.7331E-005  
  403.00  9.7550E-005  
  403.50  1.0228E-004  
  404.00  9.1224E-005  
  404.50  6.3861E-005  
  405.00  3.7928E-005  
  405.50  6.3476E-005  
  406.00  1.0330E-004  
  406.50  1.2560E-004  
  407.00  1.2807E-004  
  407.50  1.2639E-004  
  408.00  9.5726E-005  
  408.50  1.2049E-004  
  409.00  1.2877E-004  
  409.50  1.5322E-004  
  410.00  1.6196E-004  
  410.50  1.0436E-004  
  411.00  8.8193E-005  
  411.50  4.0787E-005  
  412.00  2.1282E-005  
  412.50  5.3924E-005  
  413.00  1.0488E-004  
  413.50  1.3227E-004  
  414.00  1.4350E-004  
  414.50  1.1869E-004  
  415.00  1.2382E-004  
  415.50  1.8500E-004  
  416.00  2.5350E-004  
  416.50  3.2602E-004  
  417.00  3.8116E-004  
  417.50  3.8918E-004  
  418.00  3.9075E-004  
  418.50  3.7120E-004  
  419.00  4.0005E-004  
  419.50  4.3587E-004  
  420.00  4.8934E-004  
  420.50  5.5011E-004  
  421.00  5.7059E-004  
  421.50  5.7791E-004  
  422.00  5.7055E-004  
  422.50  5.3987E-004  
  423.00  5.5924E-004  
  423.50  6.0165E-004  
  424.00  6.9809E-004  
  424.50  7.7381E-004  
  425.00  8.3822E-004  
  425.50  8.6228E-004  
  426.00  8.5825E-004  
  426.50  8.7106E-004  
  427.00  8.8629E-004  
  427.50  9.6036E-004  
  428.00  1.0041E-003  
  428.50  1.1258E-003  
  429.00  1.1871E-003  
  429.50  1.2435E-003  
  430.00  1.2809E-003  
  430.50  1.2677E-003  
  431.00  1.2632E-003  
  431.50  1.2769E-003  
  432.00  1.3753E-003  
  432.50  1.5220E-003  
  433.00  1.6680E-003  
  433.50  1.7950E-003  
  434.00  1.8535E-003  
  434.50  1.8846E-003  
  435.00  1.9240E-003  
  435.50  1.9083E-003  
  436.00  1.9624E-003  
  436.50  2.0391E-003  
  437.00  2.1978E-003  
  437.50  2.3943E-003  
  438.00  2.5367E-003  
  438.50  2.6670E-003  
  439.00  2.7462E-003  
  439.50  2.7850E-003  
  440.00  2.8514E-003  
  440.50  2.9338E-003  
  441.00  3.0453E-003  
  441.50  3.2270E-003  
  442.00  3.3560E-003  
  442.50  3.5237E-003  
  443.00  3.6969E-003  
  443.50  3.8673E-003  
  444.00  4.0149E-003  
  444.50  4.1895E-003  
  445.00  4.3290E-003  
  445.50  4.4722E-003  
  446.00  4.6155E-003  
  446.50  4.7471E-003  
  447.00  4.9226E-003  
  447.50  5.1078E-003  
  448.00  5.2338E-003  
  448.50  5.3115E-003  
  449.00  5.3923E-003  
  449.50  5.4964E-003  
  450.00  5.6147E-003  
  450.50  5.6981E-003  
  451.00  5.7285E-003  
  451.50  5.7030E-003  
  452.00  5.6330E-003  
  452.50  5.5356E-003  
  453.00  5.4558E-003  
  453.50  5.4065E-003  
  454.00  5.4172E-003  
  454.50  5.3984E-003  
  455.00  5.3447E-003  
  455.50  5.2420E-003  
  456.00  5.1253E-003  
  456.50  5.0049E-003  
  457.00  4.8789E-003  
  457.50  4.7475E-003  
  458.00  4.6157E-003  
  458.50  4.5321E-003  
  459.00  4.4505E-003  
  459.50  4.3318E-003  
  460.00  4.1949E-003  
  460.50  4.0160E-003  
  461.00  3.8826E-003  
  461.50  3.7363E-003  
  462.00  3.6134E-003  
  462.50  3.5362E-003  
  463.00  3.4852E-003  
  463.50  3.4517E-003  
  464.00  3.3925E-003  
  464.50  3.3396E-003  
  465.00  3.2679E-003  
  465.50  3.2088E-003  
  466.00  3.1519E-003  
  466.50  3.0461E-003  
  467.00  2.9522E-003  
  467.50  2.8434E-003  
  468.00  2.7285E-003  
  468.50  2.6756E-003  
  469.00  2.6312E-003  
  469.50  2.6688E-003  
  470.00  2.6605E-003  
  470.50  2.6478E-003  
  471.00  2.6247E-003  
  471.50  2.6329E-003  
  472.00  2.6345E-003  
  472.50  2.5897E-003  
  473.00  2.5120E-003  
  473.50  2.4227E-003  
  474.00  2.3443E-003  
  474.50  2.2934E-003  
  475.00  2.2173E-003  
  475.50  2.1915E-003  
  476.00  2.2229E-003  
  476.50  2.2851E-003  
  477.00  2.3162E-003  
  477.50  2.3153E-003  
  478.00  2.2751E-003  
  478.50  2.2435E-003  
  479.00  2.2294E-003  
  479.50  2.2056E-003  
  480.00  2.1742E-003  
  480.50  2.1277E-003  
  481.00  2.1161E-003  
  481.50  2.0872E-003  
  482.00  2.0975E-003  
  482.50  2.1139E-003  
  483.00  2.1024E-003  
  483.50  2.1028E-003  
  484.00  2.1327E-003  
  484.50  2.1820E-003  
  485.00  2.2342E-003  
  485.50  2.2618E-003  
  486.00  2.2539E-003  
  486.50  2.2479E-003  
  487.00  2.2258E-003  
  487.50  2.2420E-003  
  488.00  2.2928E-003  
  488.50  2.3724E-003  
  489.00  2.4405E-003  
  489.50  2.4721E-003  
  490.00  2.5263E-003  
  490.50  2.5812E-003  
  491.00  2.6657E-003  
  491.50  2.7458E-003  
  492.00  2.7816E-003  
  492.50  2.8363E-003  
  493.00  2.8620E-003  
  493.50  2.8927E-003  
  494.00  2.9450E-003  
  494.50  2.9728E-003  
  495.00  2.9982E-003  
  495.50  2.9985E-003  
  496.00  3.0082E-003  
  496.50  3.0622E-003  
  497.00  3.1364E-003  
  497.50  3.2286E-003  
  498.00  3.3303E-003  
  498.50  3.4091E-003  
  499.00  3.4973E-003  
  499.50  3.5670E-003  
  500.00  3.6378E-003  
  500.50  3.7009E-003  
  501.00  3.7923E-003  
  501.50  3.8694E-003  
  502.00  3.9578E-003  
  502.50  4.0200E-003  
  503.00  4.0847E-003  
  503.50  4.1566E-003  
  504.00  4.2412E-003  
  504.50  4.3305E-003  
  505.00  4.4262E-003  
  505.50  4.5191E-003  
  506.00  4.6053E-003  
  506.50  4.6518E-003  
  507.00  4.7146E-003  
  507.50  4.7655E-003  
  508.00  4.8484E-003  
  508.50  4.9317E-003  
  509.00  4.9926E-003  
  509.50  5.0309E-003  
  510.00  5.1243E-003  
  510.50  5.2421E-003  
  511.00  5.3768E-003  
  511.50  5.4810E-003  
  512.00  5.5236E-003  
  512.50  5.5803E-003  
  513.00  5.6620E-003  
  513.50  5.7527E-003  
  514.00  5.8337E-003  
  514.50  5.9131E-003  
  515.00  5.9739E-003  
  515.50  6.0561E-003  
  516.00  6.1199E-003  
  516.50  6.1968E-003  
  517.00  6.2890E-003  
  517.50  6.3884E-003  
  518.00  6.4711E-003  
  518.50  6.5168E-003  
  519.00  6.5687E-003  
  519.50  6.6166E-003  
  520.00  6.6860E-003  
  520.50  6.7461E-003  
  521.00  6.8061E-003  
  521.50  6.8981E-003  
  522.00  7.0116E-003  
  522.50  7.1153E-003  
  523.00  7.1970E-003  
  523.50  7.2370E-003  
  524.00  7.2742E-003  
  524.50  7.3411E-003  
  525.00  7.4415E-003  
  525.50  7.5462E-003  
  526.00  7.5989E-003  
  526.50  7.6652E-003  
  527.00  7.7216E-003  
  527.50  7.8150E-003  
  528.00  7.8618E-003  
  528.50  7.8561E-003  
  529.00  7.8902E-003  
  529.50  7.9304E-003  
  530.00  8.0075E-003  
  530.50  8.0714E-003  
  531.00  8.1456E-003  
  531.50  8.2313E-003  
  532.00  8.2660E-003  
  532.50  8.3064E-003  
  533.00  8.3412E-003  
  533.50  8.4093E-003  
  534.00  8.4800E-003  
  534.50  8.5564E-003  
  535.00  8.6233E-003  
  535.50  8.7044E-003  
  536.00  8.7484E-003  
  536.50  8.7948E-003  
  537.00  8.8519E-003  
  537.50  8.9363E-003  
  538.00  9.0392E-003  
  538.50  9.1189E-003  
  539.00  9.2047E-003  
  539.50  9.2700E-003  
  540.00  9.3215E-003  
  540.50  9.3668E-003  
  541.00  9.4086E-003  
  541.50  9.4685E-003  
  542.00  9.5459E-003  
  542.50  9.6032E-003  
  543.00  9.6811E-003  
  543.50  9.7506E-003  
  544.00  9.7905E-003  
  544.50  9.8147E-003  
  545.00  9.8171E-003  
  545.50  9.8906E-003  
  546.00  1.0015E-002  
  546.50  1.0146E-002  
  547.00  1.0222E-002  
  547.50  1.0276E-002  
  548.00  1.0320E-002  
  548.50  1.0380E-002  
  549.00  1.0390E-002  
  549.50  1.0394E-002  
  550.00  1.0453E-002  
  550.50  1.0551E-002  
  551.00  1.0677E-002  
  551.50  1.0752E-002  
  552.00  1.0814E-002  
  552.50  1.0881E-002  
  553.00  1.0982E-002  
  553.50  1.1096E-002  
  554.00  1.1200E-002  
  554.50  1.1265E-002  
  555.00  1.1302E-002  
  555.50  1.1357E-002  
  556.00  1.1436E-002  
  556.50  1.1534E-002  
  557.00  1.1608E-002  
  557.50  1.1671E-002  
  558.00  1.1767E-002  
  558.50  1.1866E-002  
  559.00  1.1923E-002  
  559.50  1.1994E-002  
  560.00  1.2088E-002  
  560.50  1.2210E-002  
  561.00  1.2276E-002  
  561.50  1.2293E-002  
  562.00  1.2347E-002  
  562.50  1.2438E-002  
  563.00  1.2517E-002  
  563.50  1.2596E-002  
  564.00  1.2638E-002  
  564.50  1.2709E-002  
  565.00  1.2763E-002  
  565.50  1.2817E-002  
  566.00  1.2863E-002  
  566.50  1.2918E-002  
  567.00  1.2993E-002  
  567.50  1.3101E-002  
  568.00  1.3242E-002  
  568.50  1.3311E-002  
  569.00  1.3428E-002  
  569.50  1.3476E-002  
  570.00  1.3566E-002  
  570.50  1.3664E-002  
  571.00  1.3833E-002  
  571.50  1.3981E-002  
  572.00  1.4062E-002  
  572.50  1.4075E-002  
  573.00  1.4106E-002  
  573.50  1.4160E-002  
  574.00  1.4223E-002  
  574.50  1.4288E-002  
  575.00  1.4377E-002  
  575.50  1.4494E-002  
  576.00  1.4621E-002  
  576.50  1.4755E-002  
  577.00  1.4854E-002  
  577.50  1.4903E-002  
  578.00  1.4914E-002  
  578.50  1.4969E-002  
  579.00  1.5096E-002  
  579.50  1.5202E-002  
  580.00  1.5294E-002  
  580.50  1.5353E-002  
  581.00  1.5452E-002  
  581.50  1.5568E-002  
  582.00  1.5664E-002  
  582.50  1.5737E-002  
  583.00  1.5776E-002  
  583.50  1.5814E-002  
  584.00  1.5825E-002  
  584.50  1.5887E-002  
  585.00  1.5921E-002  
  585.50  1.6028E-002  
  586.00  1.6118E-002  
  586.50  1.6215E-002  
  587.00  1.6245E-002  
  587.50  1.6268E-002  
  588.00  1.6380E-002  
  588.50  1.6506E-002  
  589.00  1.6634E-002  
  589.50  1.6724E-002  
  590.00  1.6844E-002  
  590.50  1.6924E-002  
  591.00  1.6943E-002  
  591.50  1.6927E-002  
  592.00  1.6941E-002  
  592.50  1.7017E-002  
  593.00  1.7110E-002  
  593.50  1.7178E-002  
  594.00  1.7204E-002  
  594.50  1.7183E-002  
  595.00  1.7227E-002  
  595.50  1.7284E-002  
  596.00  1.7401E-002  
  596.50  1.7470E-002  
  597.00  1.7493E-002  
  597.50  1.7451E-002  
  598.00  1.7428E-002  
  598.50  1.7414E-002  
  599.00  1.7440E-002  
  599.50  1.7456E-002  
  600.00  1.7473E-002  
  600.50  1.7512E-002  
  601.00  1.7562E-002  
  601.50  1.7614E-002  
  602.00  1.7613E-002  
  602.50  1.7584E-002  
  603.00  1.7547E-002  
  603.50  1.7593E-002  
  604.00  1.7685E-002  
  604.50  1.7703E-002  
  605.00  1.7617E-002  
  605.50  1.7506E-002  
  606.00  1.7465E-002  
  606.50  1.7520E-002  
  607.00  1.7513E-002  
  607.50  1.7452E-002  
  608.00  1.7460E-002  
  608.50  1.7467E-002  
  609.00  1.7524E-002  
  609.50  1.7514E-002  
  610.00  1.7503E-002  
  610.50  1.7462E-002  
  611.00  1.7422E-002  
  611.50  1.7351E-002  
  612.00  1.7259E-002  
  612.50  1.7128E-002  
  613.00  1.6998E-002  
  613.50  1.6940E-002  
  614.00  1.6962E-002  
  614.50  1.7036E-002  
  615.00  1.7038E-002  
  615.50  1.6918E-002  
  616.00  1.6802E-002  
  616.50  1.6724E-002  
  617.00  1.6683E-002  
  617.50  1.6602E-002  
  618.00  1.6539E-002  
  618.50  1.6511E-002  
  619.00  1.6480E-002  
  619.50  1.6431E-002  
  620.00  1.6363E-002  
  620.50  1.6282E-002  
  621.00  1.6215E-002  
  621.50  1.6132E-002  
  622.00  1.6069E-002  
  622.50  1.5969E-002  
  623.00  1.5888E-002  
  623.50  1.5864E-002  
  624.00  1.5857E-002  
  624.50  1.5754E-002  
  625.00  1.5591E-002  
  625.50  1.5518E-002  
  626.00  1.5503E-002  
  626.50  1.5476E-002  
  627.00  1.5297E-002  
  627.50  1.5139E-002  
  628.00  1.5019E-002  
  628.50  1.4941E-002  
  629.00  1.4779E-002  
  629.50  1.4672E-002  
  630.00  1.4586E-002  
  630.50  1.4509E-002  
  631.00  1.4369E-002  
  631.50  1.4225E-002  
  632.00  1.4185E-002  
  632.50  1.4128E-002  
  633.00  1.4017E-002  
  633.50  1.3865E-002  
  634.00  1.3762E-002  
  634.50  1.3695E-002  
  635.00  1.3657E-002  
  635.50  1.3546E-002  
  636.00  1.3444E-002  
  636.50  1.3280E-002  
  637.00  1.3161E-002  
  637.50  1.3047E-002  
  638.00  1.2986E-002  
  638.50  1.2948E-002  
  639.00  1.2870E-002  
  639.50  1.2707E-002  
  640.00  1.2516E-002  
  640.50  1.2380E-002  
  641.00  1.2309E-002  
  641.50  1.2203E-002  
  642.00  1.2063E-002  
  642.50  1.1955E-002  
  643.00  1.1825E-002  
  643.50  1.1720E-002  
  644.00  1.1588E-002  
  644.50  1.1490E-002  
  645.00  1.1399E-002  
  645.50  1.1217E-002  
  646.00  1.1097E-002  
  646.50  1.0948E-002  
  647.00  1.0877E-002  
  647.50  1.0844E-002  
  648.00  1.0809E-002  
  648.50  1.0717E-002  
  649.00  1.0473E-002  
  649.50  1.0285E-002  
  650.00  1.0168E-002  
  650.50  1.0099E-002  
  651.00  9.9741E-003  
  651.50  9.8405E-003  
  652.00  9.6860E-003  
  652.50  9.5400E-003  
  653.00  9.4318E-003  
  653.50  9.3950E-003  
  654.00  9.3464E-003  
  654.50  9.2482E-003  
  655.00  9.0963E-003  
  655.50  8.9621E-003  
  656.00  8.8770E-003  
  656.50  8.8605E-003  
  657.00  8.8245E-003  
  657.50  8.6706E-003  
  658.00  8.5381E-003  
  658.50  8.3998E-003  
  659.00  8.3548E-003  
  659.50  8.2462E-003  
  660.00  8.1129E-003  
  660.50  7.9595E-003  
  661.00  7.8784E-003  
  661.50  7.8330E-003  
  662.00  7.7463E-003  
  662.50  7.6229E-003  
  663.00  7.5350E-003  
  663.50  7.5250E-003  
  664.00  7.4386E-003  
  664.50  7.3153E-003  
  665.00  7.1682E-003  
  665.50  7.0785E-003  
  666.00  6.9770E-003  
  666.50  6.9224E-003  
  667.00  6.8743E-003  
  667.50  6.7970E-003  
  668.00  6.6825E-003  
  668.50  6.5395E-003  
  669.00  6.4787E-003  
  669.50  6.3909E-003  
  670.00  6.2340E-003  
  670.50  6.1094E-003  
  671.00  5.9682E-003  
  671.50  5.9083E-003  
  672.00  5.8700E-003  
  672.50  5.8520E-003  
  673.00  5.8438E-003  
  673.50  5.7514E-003  
  674.00  5.6325E-003  
  674.50  5.5426E-003  
  675.00  5.4446E-003  
  675.50  5.3444E-003  
  676.00  5.2226E-003  
  676.50  5.1408E-003  
  677.00  5.1243E-003  
  677.50  5.0915E-003  
  678.00  5.0306E-003  
  678.50  4.9757E-003  
  679.00  4.9570E-003  
  679.50  4.9258E-003  
  680.00  4.8303E-003  
  680.50  4.7398E-003  
  681.00  4.6981E-003  
  681.50  4.6263E-003  
  682.00  4.5135E-003  
  682.50  4.3980E-003  
  683.00  4.3285E-003  
  683.50  4.2513E-003  
  684.00  4.2228E-003  
  684.50  4.2232E-003  
  685.00  4.2221E-003  
  685.50  4.0971E-003  
  686.00  3.9967E-003  
  686.50  3.9513E-003  
  687.00  3.9696E-003  
  687.50  3.9062E-003  
  688.00  3.8173E-003  
  688.50  3.6826E-003  
  689.00  3.5868E-003  
  689.50  3.5375E-003  
  690.00  3.5657E-003  
  690.50  3.5820E-003  
  691.00  3.5567E-003  
  691.50  3.4563E-003  
  692.00  3.3524E-003  
  692.50  3.2751E-003  
  693.00  3.3223E-003  
  693.50  3.3730E-003  
  694.00  3.3741E-003  
  694.50  3.3034E-003  
  695.00  3.2005E-003  
  695.50  3.0632E-003  
  696.00  2.9464E-003  
  696.50  2.8596E-003  
  697.00  2.7926E-003  
  697.50  2.7636E-003  
  698.00  2.7606E-003  
  698.50  2.7553E-003  
  699.00  2.7204E-003  
  699.50  2.7010E-003  
  700.00  2.7379E-003  
  700.50  2.7484E-003  
  701.00  2.7494E-003  
  701.50  2.6268E-003  
  702.00  2.5383E-003  
  702.50  2.4668E-003  
  703.00  2.4675E-003  
  703.50  2.4704E-003  
  704.00  2.4724E-003  
  704.50  2.4343E-003  
  705.00  2.3059E-003  
  705.50  2.2331E-003  
  706.00  2.1716E-003  
  706.50  2.1769E-003  
  707.00  2.1683E-003  
  707.50  2.0961E-003  
  708.00  2.0623E-003  
  708.50  2.0859E-003  
  709.00  2.1985E-003  
  709.50  2.1559E-003  
  710.00  2.0526E-003  
  710.50  1.9379E-003  
  711.00  1.8684E-003  
  711.50  1.8167E-003  
  712.00  1.7341E-003  
  712.50  1.6813E-003  
  713.00  1.6002E-003  
  713.50  1.6129E-003  
  714.00  1.5620E-003  
  714.50  1.5083E-003  
  715.00  1.4653E-003  
  715.50  1.5112E-003  
  716.00  1.5806E-003  
  716.50  1.6321E-003  
  717.00  1.6039E-003  
  717.50  1.5570E-003  
  718.00  1.5811E-003  
  718.50  1.6267E-003  
  719.00  1.6018E-003  
  719.50  1.4869E-003  
  720.00  1.4145E-003  
  720.50  1.3534E-003  
  721.00  1.3223E-003  
  721.50  1.3021E-003  
  722.00  1.3165E-003  
  722.50  1.2688E-003  
  723.00  1.1932E-003  
  723.50  1.1185E-003  
  724.00  1.1156E-003  
  724.50  1.1595E-003  
  725.00  1.1729E-003  
  725.50  1.2291E-003  
  726.00  1.1407E-003  
  726.50  1.0923E-003  
  727.00  1.0132E-003  
  727.50  1.0901E-003  
  728.00  1.0780E-003  
  728.50  1.0602E-003  
  729.00  9.8357E-004  
  729.50  9.2306E-004  
  730.00  8.4748E-004  
  730.50  8.5073E-004  
  731.00  8.4751E-004  
  731.50  8.5422E-004  
  732.00  9.1703E-004  
  732.50  9.0870E-004  
  733.00  8.0620E-004  
  733.50  7.3694E-004  
  734.00  7.7718E-004  
  734.50  8.6956E-004  
  735.00  8.7651E-004  
  735.50  8.6734E-004  
  736.00  7.3667E-004  
  736.50  6.8003E-004  
  737.00  6.2595E-004  
  737.50  7.1842E-004  
  738.00  7.6887E-004  
  738.50  7.4338E-004  
  739.00  5.9521E-004  
  739.50  6.1809E-004  
  740.00  7.3479E-004  
  740.50  8.4208E-004  
  741.00  7.6537E-004  
  741.50  6.1599E-004  
  742.00  4.7431E-004  
  742.50  4.4379E-004  
  743.00  5.9621E-004  
  743.50  6.4066E-004  
  744.00  5.6059E-004  
  744.50  4.8995E-004  
  745.00  5.2149E-004  
  745.50  5.7117E-004  
  746.00  6.0700E-004  
  746.50  6.4408E-004  
  747.00  6.4475E-004  
  747.50  5.9595E-004  
  748.00  4.2447E-004  
  748.50  3.1008E-004  
  749.00  3.5316E-004  
  749.50  5.1743E-004  
  750.00  5.4670E-004  
  750.50  2.3616E-004  
  751.00  4.3447E-006  
  751.50  1.3100E-005  
  752.00  4.2342E-004  
  752.50  5.6239E-004  
  753.00  6.0690E-004  
  753.50  5.6436E-004  
  754.00  5.0718E-004  
  754.50  4.8577E-004  
  755.00  4.9628E-004  
  755.50  4.6582E-004  
  756.00  2.8170E-004  
  756.50  2.6830E-004  
  757.00  3.5937E-004  
  757.50  4.0846E-004  
  758.00  3.6119E-004  
  758.50  3.8776E-004  
  759.00  5.0079E-004  
  759.50  5.3918E-004  
  760.00  4.4541E-004  
  760.50  2.8010E-004  
  761.00  2.2794E-004  
  761.50  2.9820E-004  
  762.00  3.6938E-004  
  762.50  3.7309E-004  
  763.00  3.5078E-004  
  763.50  2.9341E-004  
  764.00  1.7897E-004  
  764.50  2.3126E-004  
  765.00  4.5398E-004  
  765.50  4.9256E-004  
  766.00  1.7701E-004  
  766.50  8.1282E-005  
  767.00  2.1652E-004  
  767.50  2.9531E-004  
  768.00  3.1059E-004  
  768.50  2.8939E-004  
  769.00  1.8762E-004  
  769.50  0.0000E+000  
  770.00  9.3047E-008  
  770.50  2.9206E-005  
  771.00  1.2139E-004  
  771.50  4.2310E-005  
  772.00  1.0976E-005  
  772.50  9.7353E-005  
  773.00  3.2491E-004  
  773.50  5.2586E-004  
  774.00  4.5788E-004  
  774.50  3.6973E-004  
  775.00  1.8128E-004  
  775.50  1.6268E-004  
  776.00  1.8037E-004  
  776.50  2.3819E-004  
  777.00  2.8018E-004  
  777.50  2.0219E-004  
  778.00  8.6588E-005  
  778.50  7.9959E-006  
  779.00  1.5783E-004  
  779.50  3.2017E-004  
  780.00  3.4297E-004  
  780.50  2.5671E-004  
  781.00  2.1588E-004  
  781.50  5.9770E-005  
  782.00  2.2685E-005  
  782.50  1.2848E-004  
  783.00  4.1700E-004  
  783.50  4.5096E-004  
  784.00  3.5316E-004  
  784.50  2.4623E-004  
  785.00  1.7769E-004  
  785.50  9.0313E-005  
  786.00  7.6045E-005  
  786.50  1.0848E-004  
  787.00  4.1494E-006  
  787.50  0.0000E+000  
  788.00  1.0071E-004  
  788.50  1.5550E-004  
  789.00  4.0650E-005  
  789.50  3.0167E-005  
  790.00  1.0294E-004  
  790.50  1.2058E-004  
  791.00  5.5576E-006  
  791.50  8.3244E-005  
  792.00  4.1335E-004  
  792.50  6.2158E-004  
  793.00  5.4429E-004  
  793.50  1.9666E-004  
  794.00  1.4839E-004  
  794.50  1.2547E-004  
  795.00  6.6284E-005  
  795.50  0.0000E+000  
  796.00  0.0000E+000  
  796.50  0.0000E+000  
  797.00  0.0000E+000  
  797.50  0.0000E+000  
  798.00  1.4175E-004  
  798.50  2.1904E-004  
  799.00  1.5383E-004  
  799.50  6.7601E-006  
  800.00  0.0000E+000  
  800.50  0.0000E+000  
  801.00  2.5572E-004  
  801.50  4.3452E-004  
  802.00  3.0353E-004  
  802.50  1.1842E-004  
  803.00  1.0571E-004  
  803.50  2.7556E-004  
  804.00  1.9069E-004  
  804.50  6.2158E-005  
  805.00  0.0000E+000  
  805.50  0.0000E+000  
  806.00  0.0000E+000  
  806.50  0.0000E+000  
  807.00  0.0000E+000  
  807.50  0.0000E+000  
  808.00  0.0000E+000  
  808.50  4.5862E-005  
  809.00  4.4242E-005  
  809.50  8.4655E-005  
  810.00  8.9879E-005  
  810.50  1.9577E-004  
  811.00  2.2593E-004  
  811.50  1.8861E-004  
  812.00  0.0000E+000  
  812.50  0.0000E+000  
  813.00  0.0000E+000  
  813.50  0.0000E+000  
  814.00  0.0000E+000  
  814.50  8.2731E-006  
  815.00  1.4670E-004  
  815.50  3.9992E-004  
  816.00  1.6846E-004  
  816.50  3.4061E-005  
  817.00  0.0000E+000  
  817.50  3.1839E-005  
  818.00  1.7839E-004  
  818.50  5.9498E-006  
  819.00  0.0000E+000  
  819.50  0.0000E+000  
  820.00  0.0000E+000  
  820.50  0.0000E+000  
  821.00  0.0000E+000  
  821.50  0.0000E+000  
  822.00  0.0000E+000  
  822.50  0.0000E+000  
  823.00  3.5914E-004  
  823.50  4.6913E-004  
  824.00  1.9750E-004  
  824.50  1.8169E-004  
  825.00  3.0557E-005  
  825.50  0.0000E+000  
  826.00  0.0000E+000  
  826.50  0.0000E+000  
  827.00  0.0000E+000  
  827.50  0.0000E+000  
  828.00  0.0000E+000  
  828.50  0.0000E+000  
  829.00  0.0000E+000  
  829.50  0.0000E+000  
  830.00  0.0000E+000  
  830.50  0.0000E+000  
  831.00  0.0000E+000  
  831.50  8.8296E-005  
  832.00  4.4668E-005  
  832.50  0.0000E+000  
  833.00  0.0000E+000  
  833.50  0.0000E+000  
  834.00  0.0000E+000  
  834.50  0.0000E+000  
  835.00  0.0000E+000  
  835.50  0.0000E+000  
  836.00  0.0000E+000  
  836.50  0.0000E+000  
  837.00  0.0000E+000  
  837.50  0.0000E+000  
  838.00  0.0000E+000  
  838.50  0.0000E+000  
  839.00  2.4249E-006  
  839.50  2.7624E-004  
  840.00  4.2128E-004  
  840.50  2.4466E-004  
  841.00  0.0000E+000  
  841.50  0.0000E+000  
  842.00  0.0000E+000  
  842.50  0.0000E+000  
  843.00  0.0000E+000  
  843.50  2.1965E-004  
  844.00  3.2955E-004  
  844.50  9.1761E-005  
  845.00  0.0000E+000  
  845.50  0.0000E+000  
  846.00  0.0000E+000  
  846.50  0.0000E+000  
  847.00  0.0000E+000  
  847.50  0.0000E+000  
  848.00  0.0000E+000  
  848.50  0.0000E+000  
  849.00  0.0000E+000  
  849.50  0.0000E+000  
  850.00  3.4230E-004  
  850.50  3.9505E-004  
  851.00  5.2299E-004  
  851.50  6.9998E-004  
  852.00  1.1209E-004  
  852.50  0.0000E+000  
  853.00  0.0000E+000  
  853.50  0.0000E+000  
  854.00  0.0000E+000  
  854.50  0.0000E+000  
  855.00  0.0000E+000  
  855.50  0.0000E+000  
  856.00  0.0000E+000  
  856.50  0.0000E+000  
  857.00  0.0000E+000  
  857.50  0.0000E+000  
  858.00  3.9227E-006  
  858.50  1.2062E-004  
  859.00  0.0000E+000  
  859.50  4.3337E-005  
  860.00  2.7263E-004  
  860.50  2.0531E-004  
  861.00  5.3586E-005  
  861.50  0.0000E+000  
  862.00  0.0000E+000  
  862.50  0.0000E+000  
  863.00  0.0000E+000  
  863.50  0.0000E+000  
  864.00  0.0000E+000  
  864.50  0.0000E+000  
  865.00  0.0000E+000  
  865.50  4.6410E-004  
  866.00  2.1836E-004  
  866.50  0.0000E+000  
  867.00  0.0000E+000  
  867.50  2.0652E-004  
  868.00  1.6770E-004  
  868.50  0.0000E+000  
  869.00  1.4096E-004  
  869.50  9.2729E-004  
  870.00  1.4103E-003  
  870.50  9.9127E-004  
  871.00  1.5689E-004  
  871.50  0.0000E+000  
  872.00  0.0000E+000  
  872.50  0.0000E+000  
  873.00  1.9519E-005  
  873.50  3.0758E-004  
  874.00  1.0860E-004  
  874.50  0.0000E+000  
  875.00  0.0000E+000  
  875.50  0.0000E+000  
  876.00  0.0000E+000  
  876.50  0.0000E+000  
  877.00  0.0000E+000  
  877.50  0.0000E+000  
  878.00  0.0000E+000  
  878.50  0.0000E+000  
  879.00  0.0000E+000  
  879.50  0.0000E+000  
  880.00  2.4410E-004  
  880.50  7.9173E-005  
  881.00  0.0000E+000  
  881.50  0.0000E+000  
  882.00  0.0000E+000  
  882.50  0.0000E+000  
  883.00  0.0000E+000  
  883.50  0.0000E+000  
  884.00  0.0000E+000  
  884.50  0.0000E+000  
  885.00  0.0000E+000  
  885.50  0.0000E+000  
  886.00  0.0000E+000  
  886.50  0.0000E+000  
  887.00  0.0000E+000  
  887.50  0.0000E+000  
  888.00  0.0000E+000  
  888.50  0.0000E+000  
  889.00  0.0000E+000  
  889.50  0.0000E+000  
  890.00  0.0000E+000  
  890.50  0.0000E+000  
  891.00  0.0000E+000  
  891.50  0.0000E+000  
  892.00  0.0000E+000  
  892.50  0.0000E+000  
  893.00  0.0000E+000  
  893.50  0.0000E+000  
  894.00  2.5654E-006  
  894.50  0.0000E+000  
  895.00  6.3565E-005  
  895.50  0.0000E+000  
  896.00  0.0000E+000  
  896.50  0.0000E+000  
  897.00  0.0000E+000  
  897.50  0.0000E+000  
  898.00  3.3705E-004  
  898.50  8.4462E-004  
  899.00  2.5283E-004  
  899.50  4.6508E-006  
