
# From lspdd.org
# 
# Name: DEL Philips A21 Domestique
# Indice spectral Valeur 
# MSI 0.23 
# SLI 0.44 
# IPI 0.65 
# Pourcentage de bleu 15.1 
# Caractéristique Valeur 
# CCT calculée (K) 2599 
# CCT du fabricant (K) 2700 
# Tension (V) 120 
# Puissance (W) 19.0 
# Efficacité lumineuse (Lum/W) 88.4 
#
# Image: '/app/system/img_2s/2582/medium_image2.JPG?1413486481'
# Image: '/app/system/img_1s/2582/medium_image1.JPG?1413486484'
# 

  273.00  0.0000E+000  
  273.50  0.0000E+000  
  274.00  0.0000E+000  
  274.50  0.0000E+000  
  275.00  0.0000E+000  
  275.50  0.0000E+000  
  276.00  0.0000E+000  
  276.50  0.0000E+000  
  277.00  0.0000E+000  
  277.50  0.0000E+000  
  278.00  0.0000E+000  
  278.50  0.0000E+000  
  279.00  0.0000E+000  
  279.50  0.0000E+000  
  280.00  0.0000E+000  
  280.50  0.0000E+000  
  281.00  0.0000E+000  
  281.50  0.0000E+000  
  282.00  0.0000E+000  
  282.50  0.0000E+000  
  283.00  0.0000E+000  
  283.50  0.0000E+000  
  284.00  0.0000E+000  
  284.50  0.0000E+000  
  285.00  0.0000E+000  
  285.50  0.0000E+000  
  286.00  0.0000E+000  
  286.50  0.0000E+000  
  287.00  0.0000E+000  
  287.50  0.0000E+000  
  288.00  0.0000E+000  
  288.50  0.0000E+000  
  289.00  0.0000E+000  
  289.50  0.0000E+000  
  290.00  0.0000E+000  
  290.50  0.0000E+000  
  291.00  0.0000E+000  
  291.50  0.0000E+000  
  292.00  0.0000E+000  
  292.50  0.0000E+000  
  293.00  0.0000E+000  
  293.50  0.0000E+000  
  294.00  0.0000E+000  
  294.50  0.0000E+000  
  295.00  0.0000E+000  
  295.50  0.0000E+000  
  296.00  0.0000E+000  
  296.50  0.0000E+000  
  297.00  0.0000E+000  
  297.50  0.0000E+000  
  298.00  0.0000E+000  
  298.50  0.0000E+000  
  299.00  0.0000E+000  
  299.50  0.0000E+000  
  300.00  0.0000E+000  
  300.50  0.0000E+000  
  301.00  0.0000E+000  
  301.50  0.0000E+000  
  302.00  0.0000E+000  
  302.50  0.0000E+000  
  303.00  0.0000E+000  
  303.50  0.0000E+000  
  304.00  0.0000E+000  
  304.50  0.0000E+000  
  305.00  0.0000E+000  
  305.50  0.0000E+000  
  306.00  0.0000E+000  
  306.50  0.0000E+000  
  307.00  0.0000E+000  
  307.50  0.0000E+000  
  308.00  0.0000E+000  
  308.50  0.0000E+000  
  309.00  0.0000E+000  
  309.50  0.0000E+000  
  310.00  0.0000E+000  
  310.50  0.0000E+000  
  311.00  0.0000E+000  
  311.50  0.0000E+000  
  312.00  0.0000E+000  
  312.50  0.0000E+000  
  313.00  0.0000E+000  
  313.50  0.0000E+000  
  314.00  0.0000E+000  
  314.50  0.0000E+000  
  315.00  0.0000E+000  
  315.50  0.0000E+000  
  316.00  0.0000E+000  
  316.50  0.0000E+000  
  317.00  0.0000E+000  
  317.50  0.0000E+000  
  318.00  0.0000E+000  
  318.50  0.0000E+000  
  319.00  0.0000E+000  
  319.50  0.0000E+000  
  320.00  0.0000E+000  
  320.50  0.0000E+000  
  321.00  0.0000E+000  
  321.50  0.0000E+000  
  322.00  0.0000E+000  
  322.50  0.0000E+000  
  323.00  0.0000E+000  
  323.50  0.0000E+000  
  324.00  0.0000E+000  
  324.50  0.0000E+000  
  325.00  0.0000E+000  
  325.50  0.0000E+000  
  326.00  0.0000E+000  
  326.50  0.0000E+000  
  327.00  0.0000E+000  
  327.50  0.0000E+000  
  328.00  0.0000E+000  
  328.50  0.0000E+000  
  329.00  0.0000E+000  
  329.50  0.0000E+000  
  330.00  0.0000E+000  
  330.50  0.0000E+000  
  331.00  0.0000E+000  
  331.50  0.0000E+000  
  332.00  0.0000E+000  
  332.50  0.0000E+000  
  333.00  0.0000E+000  
  333.50  0.0000E+000  
  334.00  0.0000E+000  
  334.50  0.0000E+000  
  335.00  0.0000E+000  
  335.50  0.0000E+000  
  336.00  0.0000E+000  
  336.50  0.0000E+000  
  337.00  0.0000E+000  
  337.50  0.0000E+000  
  338.00  0.0000E+000  
  338.50  0.0000E+000  
  339.00  0.0000E+000  
  339.50  0.0000E+000  
  340.00  0.0000E+000  
  340.50  0.0000E+000  
  341.00  0.0000E+000  
  341.50  0.0000E+000  
  342.00  0.0000E+000  
  342.50  0.0000E+000  
  343.00  0.0000E+000  
  343.50  0.0000E+000  
  344.00  0.0000E+000  
  344.50  0.0000E+000  
  345.00  0.0000E+000  
  345.50  0.0000E+000  
  346.00  0.0000E+000  
  346.50  0.0000E+000  
  347.00  0.0000E+000  
  347.50  0.0000E+000  
  348.00  0.0000E+000  
  348.50  0.0000E+000  
  349.00  0.0000E+000  
  349.50  0.0000E+000  
  350.00  0.0000E+000  
  350.50  0.0000E+000  
  351.00  0.0000E+000  
  351.50  0.0000E+000  
  352.00  0.0000E+000  
  352.50  0.0000E+000  
  353.00  0.0000E+000  
  353.50  0.0000E+000  
  354.00  0.0000E+000  
  354.50  0.0000E+000  
  355.00  0.0000E+000  
  355.50  0.0000E+000  
  356.00  0.0000E+000  
  356.50  0.0000E+000  
  357.00  0.0000E+000  
  357.50  0.0000E+000  
  358.00  0.0000E+000  
  358.50  0.0000E+000  
  359.00  0.0000E+000  
  359.50  0.0000E+000  
  360.00  0.0000E+000  
  360.50  0.0000E+000  
  361.00  0.0000E+000  
  361.50  0.0000E+000  
  362.00  0.0000E+000  
  362.50  0.0000E+000  
  363.00  0.0000E+000  
  363.50  0.0000E+000  
  364.00  0.0000E+000  
  364.50  0.0000E+000  
  365.00  0.0000E+000  
  365.50  0.0000E+000  
  366.00  0.0000E+000  
  366.50  0.0000E+000  
  367.00  0.0000E+000  
  367.50  0.0000E+000  
  368.00  0.0000E+000  
  368.50  0.0000E+000  
  369.00  0.0000E+000  
  369.50  0.0000E+000  
  370.00  0.0000E+000  
  370.50  0.0000E+000  
  371.00  0.0000E+000  
  371.50  0.0000E+000  
  372.00  0.0000E+000  
  372.50  0.0000E+000  
  373.00  0.0000E+000  
  373.50  0.0000E+000  
  374.00  0.0000E+000  
  374.50  0.0000E+000  
  375.00  0.0000E+000  
  375.50  0.0000E+000  
  376.00  0.0000E+000  
  376.50  0.0000E+000  
  377.00  0.0000E+000  
  377.50  0.0000E+000  
  378.00  0.0000E+000  
  378.50  0.0000E+000  
  379.00  0.0000E+000  
  379.50  0.0000E+000  
  380.00  0.0000E+000  
  380.50  0.0000E+000  
  381.00  0.0000E+000  
  381.50  0.0000E+000  
  382.00  0.0000E+000  
  382.50  0.0000E+000  
  383.00  0.0000E+000  
  383.50  0.0000E+000  
  384.00  0.0000E+000  
  384.50  0.0000E+000  
  385.00  0.0000E+000  
  385.50  0.0000E+000  
  386.00  0.0000E+000  
  386.50  0.0000E+000  
  387.00  0.0000E+000  
  387.50  0.0000E+000  
  388.00  0.0000E+000  
  388.50  0.0000E+000  
  389.00  0.0000E+000  
  389.50  0.0000E+000  
  390.00  0.0000E+000  
  390.50  0.0000E+000  
  391.00  0.0000E+000  
  391.50  0.0000E+000  
  392.00  0.0000E+000  
  392.50  0.0000E+000  
  393.00  0.0000E+000  
  393.50  0.0000E+000  
  394.00  0.0000E+000  
  394.50  0.0000E+000  
  395.00  0.0000E+000  
  395.50  0.0000E+000  
  396.00  0.0000E+000  
  396.50  0.0000E+000  
  397.00  0.0000E+000  
  397.50  0.0000E+000  
  398.00  0.0000E+000  
  398.50  0.0000E+000  
  399.00  0.0000E+000  
  399.50  0.0000E+000  
  400.00  0.0000E+000  
  400.50  0.0000E+000  
  401.00  0.0000E+000  
  401.50  0.0000E+000  
  402.00  0.0000E+000  
  402.50  0.0000E+000  
  403.00  0.0000E+000  
  403.50  0.0000E+000  
  404.00  0.0000E+000  
  404.50  0.0000E+000  
  405.00  0.0000E+000  
  405.50  0.0000E+000  
  406.00  0.0000E+000  
  406.50  1.5242E-005  
  407.00  0.0000E+000  
  407.50  0.0000E+000  
  408.00  0.0000E+000  
  408.50  0.0000E+000  
  409.00  0.0000E+000  
  409.50  0.0000E+000  
  410.00  0.0000E+000  
  410.50  0.0000E+000  
  411.00  0.0000E+000  
  411.50  0.0000E+000  
  412.00  0.0000E+000  
  412.50  0.0000E+000  
  413.00  0.0000E+000  
  413.50  2.7774E-005  
  414.00  7.4603E-005  
  414.50  7.6397E-005  
  415.00  1.3369E-005  
  415.50  0.0000E+000  
  416.00  0.0000E+000  
  416.50  0.0000E+000  
  417.00  0.0000E+000  
  417.50  0.0000E+000  
  418.00  1.0675E-005  
  418.50  6.9525E-006  
  419.00  4.2525E-007  
  419.50  2.8993E-005  
  420.00  8.8273E-005  
  420.50  1.4701E-004  
  421.00  1.4095E-004  
  421.50  1.3163E-004  
  422.00  1.0041E-004  
  422.50  1.0913E-004  
  423.00  1.5097E-004  
  423.50  1.5746E-004  
  424.00  1.7166E-004  
  424.50  1.5989E-004  
  425.00  1.6677E-004  
  425.50  2.0770E-004  
  426.00  2.7797E-004  
  426.50  3.0576E-004  
  427.00  3.1202E-004  
  427.50  3.2489E-004  
  428.00  3.3513E-004  
  428.50  3.5476E-004  
  429.00  3.9569E-004  
  429.50  4.7571E-004  
  430.00  5.8525E-004  
  430.50  6.6913E-004  
  431.00  7.0098E-004  
  431.50  7.1328E-004  
  432.00  7.0876E-004  
  432.50  7.2199E-004  
  433.00  7.6715E-004  
  433.50  7.8935E-004  
  434.00  8.3892E-004  
  434.50  9.1434E-004  
  435.00  9.5206E-004  
  435.50  1.0243E-003  
  436.00  1.0625E-003  
  436.50  1.0997E-003  
  437.00  1.2130E-003  
  437.50  1.2726E-003  
  438.00  1.3179E-003  
  438.50  1.3660E-003  
  439.00  1.4523E-003  
  439.50  1.5876E-003  
  440.00  1.7580E-003  
  440.50  1.9067E-003  
  441.00  2.0358E-003  
  441.50  2.1630E-003  
  442.00  2.2637E-003  
  442.50  2.3564E-003  
  443.00  2.4807E-003  
  443.50  2.6047E-003  
  444.00  2.7839E-003  
  444.50  2.9641E-003  
  445.00  3.1400E-003  
  445.50  3.3624E-003  
  446.00  3.5932E-003  
  446.50  3.8416E-003  
  447.00  4.0914E-003  
  447.50  4.3457E-003  
  448.00  4.5619E-003  
  448.50  4.8097E-003  
  449.00  4.9699E-003  
  449.50  5.1113E-003  
  450.00  5.2450E-003  
  450.50  5.3532E-003  
  451.00  5.4782E-003  
  451.50  5.5582E-003  
  452.00  5.6481E-003  
  452.50  5.7553E-003  
  453.00  5.8812E-003  
  453.50  5.8881E-003  
  454.00  5.8219E-003  
  454.50  5.7368E-003  
  455.00  5.6774E-003  
  455.50  5.6075E-003  
  456.00  5.4993E-003  
  456.50  5.3792E-003  
  457.00  5.2905E-003  
  457.50  5.1866E-003  
  458.00  5.0673E-003  
  458.50  4.9266E-003  
  459.00  4.7981E-003  
  459.50  4.7022E-003  
  460.00  4.6047E-003  
  460.50  4.4976E-003  
  461.00  4.4061E-003  
  461.50  4.2726E-003  
  462.00  4.1769E-003  
  462.50  4.0847E-003  
  463.00  4.0516E-003  
  463.50  4.0387E-003  
  464.00  3.9459E-003  
  464.50  3.8227E-003  
  465.00  3.6696E-003  
  465.50  3.6077E-003  
  466.00  3.5973E-003  
  466.50  3.6614E-003  
  467.00  3.6586E-003  
  467.50  3.6751E-003  
  468.00  3.6580E-003  
  468.50  3.6080E-003  
  469.00  3.5570E-003  
  469.50  3.5020E-003  
  470.00  3.4345E-003  
  470.50  3.3832E-003  
  471.00  3.3155E-003  
  471.50  3.2456E-003  
  472.00  3.2148E-003  
  472.50  3.1513E-003  
  473.00  3.1229E-003  
  473.50  3.0771E-003  
  474.00  2.9930E-003  
  474.50  2.8929E-003  
  475.00  2.7747E-003  
  475.50  2.7124E-003  
  476.00  2.6578E-003  
  476.50  2.6387E-003  
  477.00  2.5691E-003  
  477.50  2.5301E-003  
  478.00  2.5084E-003  
  478.50  2.5298E-003  
  479.00  2.5368E-003  
  479.50  2.6084E-003  
  480.00  2.6209E-003  
  480.50  2.6136E-003  
  481.00  2.5731E-003  
  481.50  2.5080E-003  
  482.00  2.5139E-003  
  482.50  2.5388E-003  
  483.00  2.5628E-003  
  483.50  2.6064E-003  
  484.00  2.6476E-003  
  484.50  2.6820E-003  
  485.00  2.6612E-003  
  485.50  2.6435E-003  
  486.00  2.6533E-003  
  486.50  2.6959E-003  
  487.00  2.7552E-003  
  487.50  2.8019E-003  
  488.00  2.8369E-003  
  488.50  2.8405E-003  
  489.00  2.8354E-003  
  489.50  2.8312E-003  
  490.00  2.8757E-003  
  490.50  2.9213E-003  
  491.00  2.9442E-003  
  491.50  2.9816E-003  
  492.00  3.0222E-003  
  492.50  3.0778E-003  
  493.00  3.1273E-003  
  493.50  3.1715E-003  
  494.00  3.2102E-003  
  494.50  3.2482E-003  
  495.00  3.2936E-003  
  495.50  3.3312E-003  
  496.00  3.3944E-003  
  496.50  3.4220E-003  
  497.00  3.4582E-003  
  497.50  3.4999E-003  
  498.00  3.5547E-003  
  498.50  3.5888E-003  
  499.00  3.6344E-003  
  499.50  3.6876E-003  
  500.00  3.7590E-003  
  500.50  3.8352E-003  
  501.00  3.9114E-003  
  501.50  3.9853E-003  
  502.00  4.0640E-003  
  502.50  4.0894E-003  
  503.00  4.1118E-003  
  503.50  4.1531E-003  
  504.00  4.2080E-003  
  504.50  4.2667E-003  
  505.00  4.3310E-003  
  505.50  4.3942E-003  
  506.00  4.4703E-003  
  506.50  4.5130E-003  
  507.00  4.5686E-003  
  507.50  4.6357E-003  
  508.00  4.7027E-003  
  508.50  4.7539E-003  
  509.00  4.7997E-003  
  509.50  4.8692E-003  
  510.00  4.9672E-003  
  510.50  5.0564E-003  
  511.00  5.1094E-003  
  511.50  5.1414E-003  
  512.00  5.1655E-003  
  512.50  5.2344E-003  
  513.00  5.3222E-003  
  513.50  5.4258E-003  
  514.00  5.4886E-003  
  514.50  5.5172E-003  
  515.00  5.5561E-003  
  515.50  5.6148E-003  
  516.00  5.6837E-003  
  516.50  5.7440E-003  
  517.00  5.7920E-003  
  517.50  5.8490E-003  
  518.00  5.9113E-003  
  518.50  5.9816E-003  
  519.00  6.0662E-003  
  519.50  6.1521E-003  
  520.00  6.2597E-003  
  520.50  6.3544E-003  
  521.00  6.4140E-003  
  521.50  6.4904E-003  
  522.00  6.5247E-003  
  522.50  6.5653E-003  
  523.00  6.6130E-003  
  523.50  6.6881E-003  
  524.00  6.7646E-003  
  524.50  6.8398E-003  
  525.00  6.8615E-003  
  525.50  6.9366E-003  
  526.00  7.0114E-003  
  526.50  7.1201E-003  
  527.00  7.2128E-003  
  527.50  7.2704E-003  
  528.00  7.3121E-003  
  528.50  7.3455E-003  
  529.00  7.4105E-003  
  529.50  7.5142E-003  
  530.00  7.6304E-003  
  530.50  7.7613E-003  
  531.00  7.8551E-003  
  531.50  7.9102E-003  
  532.00  7.9472E-003  
  532.50  7.9990E-003  
  533.00  8.1147E-003  
  533.50  8.1814E-003  
  534.00  8.2426E-003  
  534.50  8.2877E-003  
  535.00  8.3592E-003  
  535.50  8.4393E-003  
  536.00  8.5081E-003  
  536.50  8.5850E-003  
  537.00  8.6515E-003  
  537.50  8.7549E-003  
  538.00  8.8579E-003  
  538.50  8.9790E-003  
  539.00  9.0635E-003  
  539.50  9.1125E-003  
  540.00  9.1662E-003  
  540.50  9.2645E-003  
  541.00  9.4108E-003  
  541.50  9.5395E-003  
  542.00  9.6691E-003  
  542.50  9.7214E-003  
  543.00  9.7728E-003  
  543.50  9.8264E-003  
  544.00  9.9416E-003  
  544.50  1.0049E-002  
  545.00  1.0141E-002  
  545.50  1.0234E-002  
  546.00  1.0303E-002  
  546.50  1.0408E-002  
  547.00  1.0479E-002  
  547.50  1.0573E-002  
  548.00  1.0667E-002  
  548.50  1.0746E-002  
  549.00  1.0814E-002  
  549.50  1.0853E-002  
  550.00  1.0926E-002  
  550.50  1.1009E-002  
  551.00  1.1114E-002  
  551.50  1.1249E-002  
  552.00  1.1361E-002  
  552.50  1.1445E-002  
  553.00  1.1516E-002  
  553.50  1.1606E-002  
  554.00  1.1747E-002  
  554.50  1.1896E-002  
  555.00  1.2008E-002  
  555.50  1.2118E-002  
  556.00  1.2208E-002  
  556.50  1.2306E-002  
  557.00  1.2413E-002  
  557.50  1.2501E-002  
  558.00  1.2584E-002  
  558.50  1.2673E-002  
  559.00  1.2809E-002  
  559.50  1.2949E-002  
  560.00  1.3058E-002  
  560.50  1.3119E-002  
  561.00  1.3201E-002  
  561.50  1.3286E-002  
  562.00  1.3369E-002  
  562.50  1.3464E-002  
  563.00  1.3547E-002  
  563.50  1.3672E-002  
  564.00  1.3755E-002  
  564.50  1.3820E-002  
  565.00  1.3908E-002  
  565.50  1.4007E-002  
  566.00  1.4125E-002  
  566.50  1.4191E-002  
  567.00  1.4253E-002  
  567.50  1.4313E-002  
  568.00  1.4413E-002  
  568.50  1.4476E-002  
  569.00  1.4578E-002  
  569.50  1.4683E-002  
  570.00  1.4814E-002  
  570.50  1.4915E-002  
  571.00  1.5043E-002  
  571.50  1.5149E-002  
  572.00  1.5209E-002  
  572.50  1.5246E-002  
  573.00  1.5293E-002  
  573.50  1.5417E-002  
  574.00  1.5550E-002  
  574.50  1.5657E-002  
  575.00  1.5798E-002  
  575.50  1.5903E-002  
  576.00  1.5986E-002  
  576.50  1.6055E-002  
  577.00  1.6165E-002  
  577.50  1.6268E-002  
  578.00  1.6382E-002  
  578.50  1.6451E-002  
  579.00  1.6490E-002  
  579.50  1.6551E-002  
  580.00  1.6580E-002  
  580.50  1.6647E-002  
  581.00  1.6678E-002  
  581.50  1.6767E-002  
  582.00  1.6864E-002  
  582.50  1.7001E-002  
  583.00  1.7064E-002  
  583.50  1.7154E-002  
  584.00  1.7258E-002  
  584.50  1.7376E-002  
  585.00  1.7386E-002  
  585.50  1.7424E-002  
  586.00  1.7474E-002  
  586.50  1.7629E-002  
  587.00  1.7722E-002  
  587.50  1.7783E-002  
  588.00  1.7844E-002  
  588.50  1.7939E-002  
  589.00  1.8015E-002  
  589.50  1.8087E-002  
  590.00  1.8201E-002  
  590.50  1.8307E-002  
  591.00  1.8361E-002  
  591.50  1.8347E-002  
  592.00  1.8328E-002  
  592.50  1.8387E-002  
  593.00  1.8492E-002  
  593.50  1.8572E-002  
  594.00  1.8678E-002  
  594.50  1.8784E-002  
  595.00  1.8840E-002  
  595.50  1.8800E-002  
  596.00  1.8752E-002  
  596.50  1.8805E-002  
  597.00  1.8908E-002  
  597.50  1.8983E-002  
  598.00  1.8980E-002  
  598.50  1.8913E-002  
  599.00  1.8881E-002  
  599.50  1.8847E-002  
  600.00  1.8846E-002  
  600.50  1.8846E-002  
  601.00  1.8892E-002  
  601.50  1.8966E-002  
  602.00  1.9045E-002  
  602.50  1.9109E-002  
  603.00  1.9063E-002  
  603.50  1.9019E-002  
  604.00  1.8988E-002  
  604.50  1.9018E-002  
  605.00  1.9060E-002  
  605.50  1.9035E-002  
  606.00  1.9030E-002  
  606.50  1.9062E-002  
  607.00  1.9003E-002  
  607.50  1.8990E-002  
  608.00  1.9000E-002  
  608.50  1.9065E-002  
  609.00  1.9048E-002  
  609.50  1.8944E-002  
  610.00  1.8879E-002  
  610.50  1.8889E-002  
  611.00  1.8955E-002  
  611.50  1.8924E-002  
  612.00  1.8875E-002  
  612.50  1.8792E-002  
  613.00  1.8777E-002  
  613.50  1.8773E-002  
  614.00  1.8758E-002  
  614.50  1.8699E-002  
  615.00  1.8629E-002  
  615.50  1.8585E-002  
  616.00  1.8545E-002  
  616.50  1.8475E-002  
  617.00  1.8405E-002  
  617.50  1.8357E-002  
  618.00  1.8338E-002  
  618.50  1.8280E-002  
  619.00  1.8238E-002  
  619.50  1.8192E-002  
  620.00  1.8131E-002  
  620.50  1.8037E-002  
  621.00  1.7950E-002  
  621.50  1.7922E-002  
  622.00  1.7863E-002  
  622.50  1.7839E-002  
  623.00  1.7802E-002  
  623.50  1.7758E-002  
  624.00  1.7633E-002  
  624.50  1.7489E-002  
  625.00  1.7413E-002  
  625.50  1.7354E-002  
  626.00  1.7294E-002  
  626.50  1.7183E-002  
  627.00  1.7082E-002  
  627.50  1.6958E-002  
  628.00  1.6843E-002  
  628.50  1.6727E-002  
  629.00  1.6669E-002  
  629.50  1.6626E-002  
  630.00  1.6553E-002  
  630.50  1.6456E-002  
  631.00  1.6317E-002  
  631.50  1.6230E-002  
  632.00  1.6155E-002  
  632.50  1.6045E-002  
  633.00  1.5920E-002  
  633.50  1.5785E-002  
  634.00  1.5732E-002  
  634.50  1.5643E-002  
  635.00  1.5550E-002  
  635.50  1.5458E-002  
  636.00  1.5377E-002  
  636.50  1.5311E-002  
  637.00  1.5172E-002  
  637.50  1.5025E-002  
  638.00  1.4883E-002  
  638.50  1.4804E-002  
  639.00  1.4763E-002  
  639.50  1.4696E-002  
  640.00  1.4622E-002  
  640.50  1.4554E-002  
  641.00  1.4437E-002  
  641.50  1.4223E-002  
  642.00  1.4011E-002  
  642.50  1.3890E-002  
  643.00  1.3769E-002  
  643.50  1.3691E-002  
  644.00  1.3568E-002  
  644.50  1.3468E-002  
  645.00  1.3331E-002  
  645.50  1.3191E-002  
  646.00  1.3085E-002  
  646.50  1.3032E-002  
  647.00  1.2954E-002  
  647.50  1.2847E-002  
  648.00  1.2690E-002  
  648.50  1.2505E-002  
  649.00  1.2378E-002  
  649.50  1.2211E-002  
  650.00  1.2161E-002  
  650.50  1.2138E-002  
  651.00  1.2095E-002  
  651.50  1.1924E-002  
  652.00  1.1713E-002  
  652.50  1.1593E-002  
  653.00  1.1532E-002  
  653.50  1.1506E-002  
  654.00  1.1376E-002  
  654.50  1.1242E-002  
  655.00  1.1094E-002  
  655.50  1.0998E-002  
  656.00  1.0877E-002  
  656.50  1.0717E-002  
  657.00  1.0506E-002  
  657.50  1.0367E-002  
  658.00  1.0283E-002  
  658.50  1.0232E-002  
  659.00  1.0155E-002  
  659.50  9.9789E-003  
  660.00  9.8629E-003  
  660.50  9.7659E-003  
  661.00  9.7249E-003  
  661.50  9.6615E-003  
  662.00  9.5512E-003  
  662.50  9.4383E-003  
  663.00  9.2999E-003  
  663.50  9.1808E-003  
  664.00  9.0925E-003  
  664.50  9.0217E-003  
  665.00  8.9013E-003  
  665.50  8.7403E-003  
  666.00  8.5526E-003  
  666.50  8.4311E-003  
  667.00  8.3483E-003  
  667.50  8.3186E-003  
  668.00  8.2532E-003  
  668.50  8.2049E-003  
  669.00  8.1263E-003  
  669.50  8.0467E-003  
  670.00  7.9214E-003  
  670.50  7.7798E-003  
  671.00  7.7008E-003  
  671.50  7.5920E-003  
  672.00  7.5004E-003  
  672.50  7.3715E-003  
  673.00  7.2503E-003  
  673.50  7.1407E-003  
  674.00  7.0180E-003  
  674.50  6.9754E-003  
  675.00  6.9604E-003  
  675.50  6.9135E-003  
  676.00  6.7986E-003  
  676.50  6.6572E-003  
  677.00  6.5373E-003  
  677.50  6.4721E-003  
  678.00  6.4094E-003  
  678.50  6.4182E-003  
  679.00  6.3215E-003  
  679.50  6.2051E-003  
  680.00  6.0656E-003  
  680.50  6.0760E-003  
  681.00  6.0285E-003  
  681.50  5.8789E-003  
  682.00  5.6000E-003  
  682.50  5.4210E-003  
  683.00  5.3939E-003  
  683.50  5.4292E-003  
  684.00  5.3816E-003  
  684.50  5.2991E-003  
  685.00  5.1879E-003  
  685.50  5.1416E-003  
  686.00  5.1055E-003  
  686.50  5.0856E-003  
  687.00  5.0586E-003  
  687.50  4.9230E-003  
  688.00  4.8374E-003  
  688.50  4.7655E-003  
  689.00  4.7688E-003  
  689.50  4.7175E-003  
  690.00  4.6343E-003  
  690.50  4.5144E-003  
  691.00  4.4267E-003  
  691.50  4.3509E-003  
  692.00  4.3583E-003  
  692.50  4.2999E-003  
  693.00  4.2176E-003  
  693.50  4.1824E-003  
  694.00  4.1829E-003  
  694.50  4.1368E-003  
  695.00  4.0402E-003  
  695.50  3.9363E-003  
  696.00  3.8691E-003  
  696.50  3.7298E-003  
  697.00  3.6781E-003  
  697.50  3.6570E-003  
  698.00  3.7192E-003  
  698.50  3.6676E-003  
  699.00  3.5626E-003  
  699.50  3.4633E-003  
  700.00  3.3295E-003  
  700.50  3.2767E-003  
  701.00  3.2504E-003  
  701.50  3.3055E-003  
  702.00  3.2727E-003  
  702.50  3.1844E-003  
  703.00  3.0367E-003  
  703.50  2.9875E-003  
  704.00  2.9753E-003  
  704.50  3.0190E-003  
  705.00  2.9502E-003  
  705.50  2.8410E-003  
  706.00  2.7185E-003  
  706.50  2.6849E-003  
  707.00  2.7075E-003  
  707.50  2.7730E-003  
  708.00  2.7704E-003  
  708.50  2.7261E-003  
  709.00  2.6333E-003  
  709.50  2.5558E-003  
  710.00  2.4726E-003  
  710.50  2.4119E-003  
  711.00  2.4256E-003  
  711.50  2.3964E-003  
  712.00  2.3425E-003  
  712.50  2.2799E-003  
  713.00  2.3025E-003  
  713.50  2.3132E-003  
  714.00  2.2318E-003  
  714.50  2.0895E-003  
  715.00  2.0365E-003  
  715.50  2.0575E-003  
  716.00  2.0861E-003  
  716.50  2.0064E-003  
  717.00  1.9225E-003  
  717.50  1.8298E-003  
  718.00  1.7895E-003  
  718.50  1.7189E-003  
  719.00  1.6371E-003  
  719.50  1.6582E-003  
  720.00  1.7095E-003  
  720.50  1.7949E-003  
  721.00  1.7673E-003  
  721.50  1.7567E-003  
  722.00  1.6777E-003  
  722.50  1.6253E-003  
  723.00  1.5686E-003  
  723.50  1.6154E-003  
  724.00  1.5757E-003  
  724.50  1.5109E-003  
  725.00  1.4034E-003  
  725.50  1.4088E-003  
  726.00  1.3828E-003  
  726.50  1.3510E-003  
  727.00  1.3317E-003  
  727.50  1.3163E-003  
  728.00  1.2273E-003  
  728.50  1.1832E-003  
  729.00  1.1462E-003  
  729.50  1.1644E-003  
  730.00  1.1692E-003  
  730.50  1.2075E-003  
  731.00  1.1865E-003  
  731.50  1.0961E-003  
  732.00  1.0410E-003  
  732.50  1.0614E-003  
  733.00  1.1131E-003  
  733.50  1.1972E-003  
  734.00  1.1648E-003  
  734.50  1.1194E-003  
  735.00  1.1051E-003  
  735.50  1.0415E-003  
  736.00  9.7330E-004  
  736.50  8.4357E-004  
  737.00  8.3812E-004  
  737.50  7.5551E-004  
  738.00  8.7611E-004  
  738.50  9.6971E-004  
  739.00  8.9273E-004  
  739.50  7.7381E-004  
  740.00  6.7814E-004  
  740.50  7.2105E-004  
  741.00  7.1816E-004  
  741.50  7.0117E-004  
  742.00  7.0952E-004  
  742.50  7.0512E-004  
  743.00  7.5318E-004  
  743.50  6.8814E-004  
  744.00  7.2654E-004  
  744.50  7.1370E-004  
  745.00  6.6857E-004  
  745.50  6.1078E-004  
  746.00  5.5553E-004  
  746.50  4.6661E-004  
  747.00  3.7225E-004  
  747.50  4.1254E-004  
  748.00  5.1109E-004  
  748.50  6.0911E-004  
  749.00  6.3398E-004  
  749.50  6.4505E-004  
  750.00  6.2822E-004  
  750.50  5.4046E-004  
  751.00  4.1292E-004  
  751.50  3.5747E-004  
  752.00  3.2666E-004  
  752.50  3.7811E-004  
  753.00  3.7491E-004  
  753.50  3.6199E-004  
  754.00  2.8825E-004  
  754.50  2.6356E-004  
  755.00  2.0378E-004  
  755.50  2.8577E-004  
  756.00  3.2578E-004  
  756.50  3.0165E-004  
  757.00  2.5009E-004  
  757.50  1.5571E-004  
  758.00  1.0757E-004  
  758.50  1.3682E-004  
  759.00  2.1916E-004  
  759.50  3.4104E-004  
  760.00  2.4092E-004  
  760.50  1.3377E-004  
  761.00  5.8128E-005  
  761.50  1.1950E-004  
  762.00  1.6005E-004  
  762.50  1.0510E-004  
  763.00  1.6805E-004  
  763.50  1.0503E-004  
  764.00  7.8960E-005  
  764.50  1.1350E-004  
  765.00  6.7084E-005  
  765.50  1.3024E-004  
  766.00  1.2434E-004  
  766.50  0.0000E+000  
  767.00  0.0000E+000  
  767.50  0.0000E+000  
  768.00  2.3850E-004  
  768.50  3.6347E-004  
  769.00  3.5233E-004  
  769.50  2.5904E-004  
  770.00  6.9254E-005  
  770.50  5.0305E-006  
  771.00  1.6627E-005  
  771.50  1.0734E-004  
  772.00  5.7070E-006  
  772.50  0.0000E+000  
  773.00  0.0000E+000  
  773.50  0.0000E+000  
  774.00  0.0000E+000  
  774.50  0.0000E+000  
  775.00  0.0000E+000  
  775.50  0.0000E+000  
  776.00  2.4185E-005  
  776.50  2.7538E-005  
  777.00  1.7466E-007  
  777.50  0.0000E+000  
  778.00  0.0000E+000  
  778.50  0.0000E+000  
  779.00  0.0000E+000  
  779.50  0.0000E+000  
  780.00  0.0000E+000  
  780.50  0.0000E+000  
  781.00  0.0000E+000  
  781.50  0.0000E+000  
  782.00  0.0000E+000  
  782.50  0.0000E+000  
  783.00  0.0000E+000  
  783.50  0.0000E+000  
  784.00  0.0000E+000  
  784.50  0.0000E+000  
  785.00  0.0000E+000  
  785.50  0.0000E+000  
  786.00  0.0000E+000  
  786.50  0.0000E+000  
  787.00  0.0000E+000  
  787.50  0.0000E+000  
  788.00  2.6956E-005  
  788.50  1.9360E-004  
  789.00  1.1705E-004  
  789.50  0.0000E+000  
  790.00  0.0000E+000  
  790.50  0.0000E+000  
  791.00  0.0000E+000  
  791.50  0.0000E+000  
  792.00  0.0000E+000  
  792.50  0.0000E+000  
  793.00  0.0000E+000  
  793.50  0.0000E+000  
  794.00  0.0000E+000  
  794.50  0.0000E+000  
  795.00  0.0000E+000  
  795.50  0.0000E+000  
  796.00  0.0000E+000  
  796.50  0.0000E+000  
  797.00  0.0000E+000  
  797.50  0.0000E+000  
  798.00  0.0000E+000  
  798.50  0.0000E+000  
  799.00  0.0000E+000  
  799.50  0.0000E+000  
  800.00  0.0000E+000  
  800.50  0.0000E+000  
  801.00  0.0000E+000  
  801.50  0.0000E+000  
  802.00  0.0000E+000  
  802.50  0.0000E+000  
  803.00  0.0000E+000  
  803.50  0.0000E+000  
  804.00  0.0000E+000  
  804.50  0.0000E+000  
  805.00  0.0000E+000  
  805.50  0.0000E+000  
  806.00  0.0000E+000  
  806.50  0.0000E+000  
  807.00  0.0000E+000  
  807.50  0.0000E+000  
  808.00  0.0000E+000  
  808.50  0.0000E+000  
  809.00  0.0000E+000  
  809.50  0.0000E+000  
  810.00  0.0000E+000  
  810.50  0.0000E+000  
  811.00  0.0000E+000  
  811.50  0.0000E+000  
  812.00  0.0000E+000  
  812.50  0.0000E+000  
  813.00  0.0000E+000  
  813.50  0.0000E+000  
  814.00  0.0000E+000  
  814.50  0.0000E+000  
  815.00  0.0000E+000  
  815.50  0.0000E+000  
  816.00  0.0000E+000  
  816.50  0.0000E+000  
  817.00  0.0000E+000  
  817.50  0.0000E+000  
  818.00  0.0000E+000  
  818.50  0.0000E+000  
  819.00  0.0000E+000  
  819.50  0.0000E+000  
  820.00  0.0000E+000  
  820.50  0.0000E+000  
  821.00  0.0000E+000  
  821.50  0.0000E+000  
  822.00  0.0000E+000  
  822.50  0.0000E+000  
  823.00  0.0000E+000  
  823.50  0.0000E+000  
  824.00  0.0000E+000  
  824.50  0.0000E+000  
  825.00  0.0000E+000  
  825.50  0.0000E+000  
  826.00  0.0000E+000  
  826.50  0.0000E+000  
  827.00  0.0000E+000  
  827.50  0.0000E+000  
  828.00  0.0000E+000  
  828.50  0.0000E+000  
  829.00  0.0000E+000  
  829.50  0.0000E+000  
  830.00  0.0000E+000  
  830.50  0.0000E+000  
  831.00  0.0000E+000  
  831.50  0.0000E+000  
  832.00  0.0000E+000  
  832.50  0.0000E+000  
  833.00  0.0000E+000  
  833.50  0.0000E+000  
  834.00  0.0000E+000  
  834.50  0.0000E+000  
  835.00  0.0000E+000  
  835.50  0.0000E+000  
  836.00  0.0000E+000  
  836.50  0.0000E+000  
  837.00  0.0000E+000  
  837.50  0.0000E+000  
  838.00  0.0000E+000  
  838.50  0.0000E+000  
  839.00  0.0000E+000  
  839.50  0.0000E+000  
  840.00  0.0000E+000  
  840.50  0.0000E+000  
  841.00  0.0000E+000  
  841.50  0.0000E+000  
  842.00  0.0000E+000  
  842.50  0.0000E+000  
  843.00  0.0000E+000  
  843.50  0.0000E+000  
  844.00  0.0000E+000  
  844.50  0.0000E+000  
  845.00  0.0000E+000  
  845.50  0.0000E+000  
  846.00  0.0000E+000  
  846.50  0.0000E+000  
  847.00  0.0000E+000  
  847.50  0.0000E+000  
  848.00  0.0000E+000  
  848.50  0.0000E+000  
  849.00  0.0000E+000  
  849.50  0.0000E+000  
  850.00  0.0000E+000  
  850.50  0.0000E+000  
  851.00  0.0000E+000  
  851.50  0.0000E+000  
  852.00  0.0000E+000  
  852.50  0.0000E+000  
  853.00  0.0000E+000  
  853.50  0.0000E+000  
  854.00  0.0000E+000  
  854.50  0.0000E+000  
  855.00  0.0000E+000  
  855.50  0.0000E+000  
  856.00  0.0000E+000  
  856.50  0.0000E+000  
  857.00  0.0000E+000  
  857.50  0.0000E+000  
  858.00  0.0000E+000  
  858.50  0.0000E+000  
  859.00  0.0000E+000  
  859.50  0.0000E+000  
  860.00  0.0000E+000  
  860.50  0.0000E+000  
  861.00  0.0000E+000  
  861.50  0.0000E+000  
  862.00  0.0000E+000  
  862.50  0.0000E+000  
  863.00  0.0000E+000  
  863.50  0.0000E+000  
  864.00  0.0000E+000  
  864.50  0.0000E+000  
  865.00  0.0000E+000  
  865.50  0.0000E+000  
  866.00  0.0000E+000  
  866.50  0.0000E+000  
  867.00  0.0000E+000  
  867.50  0.0000E+000  
  868.00  0.0000E+000  
  868.50  0.0000E+000  
  869.00  0.0000E+000  
  869.50  0.0000E+000  
  870.00  0.0000E+000  
  870.50  0.0000E+000  
  871.00  0.0000E+000  
  871.50  0.0000E+000  
  872.00  0.0000E+000  
  872.50  0.0000E+000  
  873.00  0.0000E+000  
  873.50  0.0000E+000  
  874.00  0.0000E+000  
  874.50  0.0000E+000  
  875.00  0.0000E+000  
  875.50  0.0000E+000  
  876.00  0.0000E+000  
  876.50  0.0000E+000  
  877.00  0.0000E+000  
  877.50  0.0000E+000  
  878.00  0.0000E+000  
  878.50  0.0000E+000  
  879.00  0.0000E+000  
  879.50  0.0000E+000  
  880.00  0.0000E+000  
  880.50  0.0000E+000  
  881.00  0.0000E+000  
  881.50  0.0000E+000  
  882.00  0.0000E+000  
  882.50  0.0000E+000  
  883.00  0.0000E+000  
  883.50  0.0000E+000  
  884.00  0.0000E+000  
  884.50  0.0000E+000  
  885.00  0.0000E+000  
  885.50  0.0000E+000  
  886.00  0.0000E+000  
  886.50  0.0000E+000  
  887.00  0.0000E+000  
  887.50  0.0000E+000  
  888.00  0.0000E+000  
  888.50  0.0000E+000  
  889.00  0.0000E+000  
  889.50  0.0000E+000  
  890.00  0.0000E+000  
  890.50  0.0000E+000  
  891.00  0.0000E+000  
  891.50  0.0000E+000  
  892.00  0.0000E+000  
  892.50  0.0000E+000  
  893.00  0.0000E+000  
  893.50  0.0000E+000  
  894.00  0.0000E+000  
  894.50  0.0000E+000  
  895.00  0.0000E+000  
  895.50  0.0000E+000  
  896.00  0.0000E+000  
  896.50  0.0000E+000  
  897.00  0.0000E+000  
  897.50  0.0000E+000  
  898.00  0.0000E+000  
  898.50  0.0000E+000  
  899.00  0.0000E+000  
  899.50  0.0000E+000  
