
# From lspdd.org
# 
# Name: Halo Globe A19 trilight Domestique
# Indice spectral Valeur 
# MSI 0.32 
# SLI 0.54 
# IPI 0.91 
# Pourcentage de bleu 14.5 
# Caractéristique Valeur 
# CCT calculée (K) 2817 
# CCT du fabricant (K) 2826 
# Tension (V) 120 
# Puissance (W) 29.0 
# Efficacité lumineuse (Lum/W) 11.9 
#
# Image: '/app/system/img_2s/2584/medium_image2.JPG?1413486493'
# Image: '/app/system/img_1s/2584/medium_image1.JPG?1413486496'
# 

  273.00  0.0000E+000  
  273.50  0.0000E+000  
  274.00  0.0000E+000  
  274.50  0.0000E+000  
  275.00  0.0000E+000  
  275.50  0.0000E+000  
  276.00  0.0000E+000  
  276.50  0.0000E+000  
  277.00  0.0000E+000  
  277.50  0.0000E+000  
  278.00  0.0000E+000  
  278.50  0.0000E+000  
  279.00  0.0000E+000  
  279.50  0.0000E+000  
  280.00  0.0000E+000  
  280.50  0.0000E+000  
  281.00  0.0000E+000  
  281.50  0.0000E+000  
  282.00  0.0000E+000  
  282.50  0.0000E+000  
  283.00  0.0000E+000  
  283.50  0.0000E+000  
  284.00  0.0000E+000  
  284.50  0.0000E+000  
  285.00  0.0000E+000  
  285.50  0.0000E+000  
  286.00  0.0000E+000  
  286.50  0.0000E+000  
  287.00  0.0000E+000  
  287.50  0.0000E+000  
  288.00  0.0000E+000  
  288.50  0.0000E+000  
  289.00  0.0000E+000  
  289.50  0.0000E+000  
  290.00  0.0000E+000  
  290.50  0.0000E+000  
  291.00  0.0000E+000  
  291.50  0.0000E+000  
  292.00  0.0000E+000  
  292.50  0.0000E+000  
  293.00  0.0000E+000  
  293.50  0.0000E+000  
  294.00  0.0000E+000  
  294.50  0.0000E+000  
  295.00  0.0000E+000  
  295.50  0.0000E+000  
  296.00  0.0000E+000  
  296.50  0.0000E+000  
  297.00  0.0000E+000  
  297.50  0.0000E+000  
  298.00  0.0000E+000  
  298.50  0.0000E+000  
  299.00  0.0000E+000  
  299.50  0.0000E+000  
  300.00  0.0000E+000  
  300.50  1.9790E-005  
  301.00  8.5131E-005  
  301.50  1.5064E-004  
  302.00  1.2305E-004  
  302.50  1.1633E-004  
  303.00  1.5364E-004  
  303.50  1.5275E-004  
  304.00  1.5450E-004  
  304.50  1.0306E-004  
  305.00  2.5090E-005  
  305.50  1.1993E-005  
  306.00  1.6355E-005  
  306.50  5.2605E-005  
  307.00  1.1596E-004  
  307.50  1.4449E-004  
  308.00  1.0085E-004  
  308.50  3.8421E-005  
  309.00  1.7989E-006  
  309.50  0.0000E+000  
  310.00  0.0000E+000  
  310.50  1.6526E-006  
  311.00  5.4727E-005  
  311.50  3.6987E-005  
  312.00  1.6303E-006  
  312.50  2.6989E-005  
  313.00  3.0628E-005  
  313.50  5.2329E-005  
  314.00  7.2923E-005  
  314.50  6.1161E-005  
  315.00  6.9650E-005  
  315.50  9.8987E-005  
  316.00  1.0117E-004  
  316.50  5.4440E-005  
  317.00  9.4754E-006  
  317.50  0.0000E+000  
  318.00  0.0000E+000  
  318.50  0.0000E+000  
  319.00  1.9574E-005  
  319.50  6.9237E-005  
  320.00  1.4915E-004  
  320.50  1.8309E-004  
  321.00  1.7834E-004  
  321.50  1.2202E-004  
  322.00  8.5386E-005  
  322.50  8.5658E-005  
  323.00  9.5415E-005  
  323.50  1.2124E-004  
  324.00  9.6282E-005  
  324.50  3.6963E-005  
  325.00  1.7016E-005  
  325.50  2.4399E-005  
  326.00  1.7808E-005  
  326.50  1.7447E-005  
  327.00  1.9454E-005  
  327.50  1.6396E-005  
  328.00  4.5487E-005  
  328.50  8.5089E-005  
  329.00  9.2428E-005  
  329.50  1.2014E-004  
  330.00  1.5106E-004  
  330.50  1.6407E-004  
  331.00  2.0846E-004  
  331.50  2.1799E-004  
  332.00  2.1191E-004  
  332.50  1.8966E-004  
  333.00  1.2282E-004  
  333.50  1.2854E-004  
  334.00  1.4938E-004  
  334.50  1.4529E-004  
  335.00  1.5915E-004  
  335.50  1.3434E-004  
  336.00  1.0998E-004  
  336.50  1.5917E-004  
  337.00  1.6273E-004  
  337.50  1.5832E-004  
  338.00  1.2031E-004  
  338.50  6.6777E-005  
  339.00  3.5003E-005  
  339.50  6.4958E-005  
  340.00  1.1303E-004  
  340.50  1.5242E-004  
  341.00  1.3772E-004  
  341.50  9.7910E-005  
  342.00  6.0483E-005  
  342.50  2.2394E-005  
  343.00  1.4300E-005  
  343.50  4.4033E-007  
  344.00  0.0000E+000  
  344.50  0.0000E+000  
  345.00  0.0000E+000  
  345.50  8.4889E-006  
  346.00  5.2623E-005  
  346.50  1.3357E-004  
  347.00  1.7567E-004  
  347.50  1.9560E-004  
  348.00  1.6329E-004  
  348.50  6.1497E-005  
  349.00  3.1733E-005  
  349.50  2.3052E-005  
  350.00  3.7177E-005  
  350.50  6.5042E-005  
  351.00  4.4353E-005  
  351.50  2.9034E-005  
  352.00  3.7778E-005  
  352.50  5.5251E-005  
  353.00  1.1453E-004  
  353.50  1.5457E-004  
  354.00  1.3285E-004  
  354.50  6.5116E-005  
  355.00  5.7184E-006  
  355.50  0.0000E+000  
  356.00  0.0000E+000  
  356.50  0.0000E+000  
  357.00  2.8173E-006  
  357.50  7.9907E-006  
  358.00  4.2749E-005  
  358.50  1.2551E-004  
  359.00  1.8343E-004  
  359.50  1.7400E-004  
  360.00  1.2400E-004  
  360.50  6.5775E-005  
  361.00  8.3264E-005  
  361.50  1.3275E-004  
  362.00  1.7753E-004  
  362.50  1.5300E-004  
  363.00  8.1791E-005  
  363.50  5.6564E-005  
  364.00  4.2487E-005  
  364.50  8.2910E-005  
  365.00  1.4992E-004  
  365.50  1.7302E-004  
  366.00  1.9338E-004  
  366.50  1.9005E-004  
  367.00  1.6004E-004  
  367.50  1.4756E-004  
  368.00  1.3391E-004  
  368.50  1.3141E-004  
  369.00  1.0347E-004  
  369.50  6.6155E-005  
  370.00  6.3999E-005  
  370.50  7.8148E-005  
  371.00  8.4341E-005  
  371.50  9.7585E-005  
  372.00  7.4392E-005  
  372.50  4.3352E-005  
  373.00  1.2248E-004  
  373.50  1.8131E-004  
  374.00  2.0444E-004  
  374.50  1.9274E-004  
  375.00  1.3772E-004  
  375.50  1.1663E-004  
  376.00  1.3944E-004  
  376.50  1.6027E-004  
  377.00  1.7220E-004  
  377.50  2.0156E-004  
  378.00  1.7726E-004  
  378.50  1.9915E-004  
  379.00  2.2681E-004  
  379.50  2.4691E-004  
  380.00  2.6029E-004  
  380.50  2.4834E-004  
  381.00  2.5137E-004  
  381.50  2.2007E-004  
  382.00  2.2447E-004  
  382.50  2.2790E-004  
  383.00  1.8914E-004  
  383.50  1.7752E-004  
  384.00  1.8439E-004  
  384.50  2.2760E-004  
  385.00  2.9553E-004  
  385.50  3.4669E-004  
  386.00  3.2282E-004  
  386.50  2.9741E-004  
  387.00  3.2186E-004  
  387.50  3.9757E-004  
  388.00  5.3253E-004  
  388.50  6.2555E-004  
  389.00  6.6109E-004  
  389.50  7.0626E-004  
  390.00  7.6999E-004  
  390.50  8.6318E-004  
  391.00  9.7980E-004  
  391.50  1.0649E-003  
  392.00  1.1253E-003  
  392.50  1.1485E-003  
  393.00  1.1888E-003  
  393.50  1.1992E-003  
  394.00  1.2275E-003  
  394.50  1.2792E-003  
  395.00  1.2891E-003  
  395.50  1.3542E-003  
  396.00  1.3985E-003  
  396.50  1.4641E-003  
  397.00  1.5638E-003  
  397.50  1.6303E-003  
  398.00  1.6904E-003  
  398.50  1.7371E-003  
  399.00  1.7521E-003  
  399.50  1.7583E-003  
  400.00  1.7788E-003  
  400.50  1.7868E-003  
  401.00  1.8716E-003  
  401.50  1.9680E-003  
  402.00  2.0439E-003  
  402.50  2.0771E-003  
  403.00  2.0399E-003  
  403.50  2.0615E-003  
  404.00  2.1038E-003  
  404.50  2.1387E-003  
  405.00  2.1351E-003  
  405.50  2.1006E-003  
  406.00  2.1193E-003  
  406.50  2.2061E-003  
  407.00  2.2855E-003  
  407.50  2.3092E-003  
  408.00  2.2987E-003  
  408.50  2.2856E-003  
  409.00  2.3321E-003  
  409.50  2.3540E-003  
  410.00  2.3710E-003  
  410.50  2.3944E-003  
  411.00  2.4180E-003  
  411.50  2.4598E-003  
  412.00  2.5072E-003  
  412.50  2.5237E-003  
  413.00  2.5368E-003  
  413.50  2.6099E-003  
  414.00  2.6527E-003  
  414.50  2.6863E-003  
  415.00  2.7427E-003  
  415.50  2.7579E-003  
  416.00  2.7932E-003  
  416.50  2.8217E-003  
  417.00  2.8512E-003  
  417.50  2.9029E-003  
  418.00  2.9272E-003  
  418.50  2.9871E-003  
  419.00  2.9935E-003  
  419.50  3.0342E-003  
  420.00  3.0751E-003  
  420.50  3.0831E-003  
  421.00  3.0833E-003  
  421.50  3.0744E-003  
  422.00  3.0907E-003  
  422.50  3.1372E-003  
  423.00  3.2035E-003  
  423.50  3.2288E-003  
  424.00  3.2763E-003  
  424.50  3.2801E-003  
  425.00  3.3148E-003  
  425.50  3.3116E-003  
  426.00  3.3003E-003  
  426.50  3.3476E-003  
  427.00  3.4045E-003  
  427.50  3.4913E-003  
  428.00  3.5674E-003  
  428.50  3.6382E-003  
  429.00  3.7146E-003  
  429.50  3.7686E-003  
  430.00  3.7698E-003  
  430.50  3.7140E-003  
  431.00  3.6515E-003  
  431.50  3.5994E-003  
  432.00  3.6026E-003  
  432.50  3.6706E-003  
  433.00  3.7634E-003  
  433.50  3.8603E-003  
  434.00  3.9157E-003  
  434.50  3.8974E-003  
  435.00  3.8725E-003  
  435.50  3.8362E-003  
  436.00  3.9246E-003  
  436.50  3.9783E-003  
  437.00  4.0670E-003  
  437.50  4.1021E-003  
  438.00  4.0998E-003  
  438.50  4.1784E-003  
  439.00  4.2585E-003  
  439.50  4.2466E-003  
  440.00  4.2353E-003  
  440.50  4.2435E-003  
  441.00  4.2609E-003  
  441.50  4.2763E-003  
  442.00  4.2713E-003  
  442.50  4.2709E-003  
  443.00  4.3281E-003  
  443.50  4.4124E-003  
  444.00  4.4901E-003  
  444.50  4.5672E-003  
  445.00  4.6265E-003  
  445.50  4.7034E-003  
  446.00  4.6956E-003  
  446.50  4.7117E-003  
  447.00  4.7015E-003  
  447.50  4.6858E-003  
  448.00  4.7418E-003  
  448.50  4.7584E-003  
  449.00  4.7672E-003  
  449.50  4.8180E-003  
  450.00  4.9198E-003  
  450.50  4.9892E-003  
  451.00  5.0279E-003  
  451.50  4.9870E-003  
  452.00  4.9423E-003  
  452.50  4.9917E-003  
  453.00  5.0385E-003  
  453.50  5.1328E-003  
  454.00  5.1910E-003  
  454.50  5.1943E-003  
  455.00  5.2349E-003  
  455.50  5.2663E-003  
  456.00  5.3300E-003  
  456.50  5.3626E-003  
  457.00  5.3941E-003  
  457.50  5.4206E-003  
  458.00  5.4745E-003  
  458.50  5.5612E-003  
  459.00  5.5744E-003  
  459.50  5.5794E-003  
  460.00  5.5455E-003  
  460.50  5.5496E-003  
  461.00  5.6209E-003  
  461.50  5.6683E-003  
  462.00  5.7118E-003  
  462.50  5.7776E-003  
  463.00  5.8188E-003  
  463.50  5.8713E-003  
  464.00  5.8658E-003  
  464.50  5.8499E-003  
  465.00  5.8612E-003  
  465.50  5.9580E-003  
  466.00  6.0569E-003  
  466.50  6.1180E-003  
  467.00  6.1482E-003  
  467.50  6.1575E-003  
  468.00  6.1019E-003  
  468.50  6.1516E-003  
  469.00  6.2103E-003  
  469.50  6.3100E-003  
  470.00  6.4082E-003  
  470.50  6.4385E-003  
  471.00  6.4799E-003  
  471.50  6.5052E-003  
  472.00  6.5216E-003  
  472.50  6.5542E-003  
  473.00  6.6048E-003  
  473.50  6.6571E-003  
  474.00  6.6901E-003  
  474.50  6.7501E-003  
  475.00  6.7666E-003  
  475.50  6.7988E-003  
  476.00  6.8036E-003  
  476.50  6.8428E-003  
  477.00  6.9355E-003  
  477.50  6.9947E-003  
  478.00  7.0240E-003  
  478.50  7.0154E-003  
  479.00  7.0640E-003  
  479.50  7.1254E-003  
  480.00  7.2083E-003  
  480.50  7.2673E-003  
  481.00  7.2746E-003  
  481.50  7.2666E-003  
  482.00  7.2451E-003  
  482.50  7.2677E-003  
  483.00  7.3078E-003  
  483.50  7.3752E-003  
  484.00  7.4333E-003  
  484.50  7.4839E-003  
  485.00  7.5125E-003  
  485.50  7.5707E-003  
  486.00  7.6223E-003  
  486.50  7.6765E-003  
  487.00  7.7276E-003  
  487.50  7.7519E-003  
  488.00  7.7770E-003  
  488.50  7.8334E-003  
  489.00  7.8873E-003  
  489.50  7.9435E-003  
  490.00  8.0057E-003  
  490.50  8.0779E-003  
  491.00  8.1510E-003  
  491.50  8.2291E-003  
  492.00  8.2495E-003  
  492.50  8.2693E-003  
  493.00  8.3034E-003  
  493.50  8.3370E-003  
  494.00  8.3723E-003  
  494.50  8.3922E-003  
  495.00  8.4123E-003  
  495.50  8.4873E-003  
  496.00  8.5699E-003  
  496.50  8.6706E-003  
  497.00  8.7381E-003  
  497.50  8.8115E-003  
  498.00  8.8992E-003  
  498.50  8.9686E-003  
  499.00  9.0492E-003  
  499.50  9.0696E-003  
  500.00  9.1053E-003  
  500.50  9.1208E-003  
  501.00  9.1778E-003  
  501.50  9.2780E-003  
  502.00  9.3477E-003  
  502.50  9.3906E-003  
  503.00  9.4066E-003  
  503.50  9.4551E-003  
  504.00  9.5508E-003  
  504.50  9.6812E-003  
  505.00  9.8057E-003  
  505.50  9.9072E-003  
  506.00  9.9412E-003  
  506.50  9.9612E-003  
  507.00  9.9701E-003  
  507.50  1.0036E-002  
  508.00  1.0105E-002  
  508.50  1.0160E-002  
  509.00  1.0237E-002  
  509.50  1.0300E-002  
  510.00  1.0379E-002  
  510.50  1.0454E-002  
  511.00  1.0491E-002  
  511.50  1.0531E-002  
  512.00  1.0572E-002  
  512.50  1.0663E-002  
  513.00  1.0780E-002  
  513.50  1.0876E-002  
  514.00  1.0945E-002  
  514.50  1.0997E-002  
  515.00  1.1071E-002  
  515.50  1.1176E-002  
  516.00  1.1246E-002  
  516.50  1.1327E-002  
  517.00  1.1362E-002  
  517.50  1.1394E-002  
  518.00  1.1463E-002  
  518.50  1.1526E-002  
  519.00  1.1636E-002  
  519.50  1.1731E-002  
  520.00  1.1855E-002  
  520.50  1.1979E-002  
  521.00  1.2046E-002  
  521.50  1.2102E-002  
  522.00  1.2153E-002  
  522.50  1.2227E-002  
  523.00  1.2310E-002  
  523.50  1.2386E-002  
  524.00  1.2486E-002  
  524.50  1.2593E-002  
  525.00  1.2689E-002  
  525.50  1.2767E-002  
  526.00  1.2862E-002  
  526.50  1.2943E-002  
  527.00  1.3004E-002  
  527.50  1.3041E-002  
  528.00  1.3078E-002  
  528.50  1.3164E-002  
  529.00  1.3230E-002  
  529.50  1.3323E-002  
  530.00  1.3390E-002  
  530.50  1.3500E-002  
  531.00  1.3603E-002  
  531.50  1.3712E-002  
  532.00  1.3781E-002  
  532.50  1.3854E-002  
  533.00  1.3931E-002  
  533.50  1.4023E-002  
  534.00  1.4114E-002  
  534.50  1.4186E-002  
  535.00  1.4274E-002  
  535.50  1.4359E-002  
  536.00  1.4451E-002  
  536.50  1.4529E-002  
  537.00  1.4573E-002  
  537.50  1.4621E-002  
  538.00  1.4660E-002  
  538.50  1.4730E-002  
  539.00  1.4842E-002  
  539.50  1.4938E-002  
  540.00  1.5054E-002  
  540.50  1.5147E-002  
  541.00  1.5235E-002  
  541.50  1.5318E-002  
  542.00  1.5365E-002  
  542.50  1.5399E-002  
  543.00  1.5482E-002  
  543.50  1.5544E-002  
  544.00  1.5624E-002  
  544.50  1.5677E-002  
  545.00  1.5760E-002  
  545.50  1.5862E-002  
  546.00  1.5988E-002  
  546.50  1.6065E-002  
  547.00  1.6140E-002  
  547.50  1.6193E-002  
  548.00  1.6269E-002  
  548.50  1.6320E-002  
  549.00  1.6423E-002  
  549.50  1.6505E-002  
  550.00  1.6655E-002  
  550.50  1.6790E-002  
  551.00  1.6867E-002  
  551.50  1.6950E-002  
  552.00  1.6958E-002  
  552.50  1.6986E-002  
  553.00  1.7021E-002  
  553.50  1.7102E-002  
  554.00  1.7181E-002  
  554.50  1.7274E-002  
  555.00  1.7367E-002  
  555.50  1.7516E-002  
  556.00  1.7648E-002  
  556.50  1.7738E-002  
  557.00  1.7774E-002  
  557.50  1.7830E-002  
  558.00  1.7935E-002  
  558.50  1.8034E-002  
  559.00  1.8124E-002  
  559.50  1.8187E-002  
  560.00  1.8244E-002  
  560.50  1.8326E-002  
  561.00  1.8364E-002  
  561.50  1.8419E-002  
  562.00  1.8498E-002  
  562.50  1.8588E-002  
  563.00  1.8666E-002  
  563.50  1.8700E-002  
  564.00  1.8742E-002  
  564.50  1.8798E-002  
  565.00  1.8842E-002  
  565.50  1.8928E-002  
  566.00  1.8995E-002  
  566.50  1.9087E-002  
  567.00  1.9168E-002  
  567.50  1.9223E-002  
  568.00  1.9285E-002  
  568.50  1.9389E-002  
  569.00  1.9509E-002  
  569.50  1.9636E-002  
  570.00  1.9726E-002  
  570.50  1.9735E-002  
  571.00  1.9760E-002  
  571.50  1.9744E-002  
  572.00  1.9815E-002  
  572.50  1.9957E-002  
  573.00  2.0110E-002  
  573.50  2.0249E-002  
  574.00  2.0279E-002  
  574.50  2.0316E-002  
  575.00  2.0356E-002  
  575.50  2.0396E-002  
  576.00  2.0450E-002  
  576.50  2.0502E-002  
  577.00  2.0594E-002  
  577.50  2.0612E-002  
  578.00  2.0625E-002  
  578.50  2.0650E-002  
  579.00  2.0745E-002  
  579.50  2.0829E-002  
  580.00  2.0885E-002  
  580.50  2.0948E-002  
  581.00  2.1011E-002  
  581.50  2.1103E-002  
  582.00  2.1144E-002  
  582.50  2.1170E-002  
  583.00  2.1236E-002  
  583.50  2.1374E-002  
  584.00  2.1470E-002  
  584.50  2.1488E-002  
  585.00  2.1406E-002  
  585.50  2.1364E-002  
  586.00  2.1404E-002  
  586.50  2.1464E-002  
  587.00  2.1556E-002  
  587.50  2.1687E-002  
  588.00  2.1822E-002  
  588.50  2.1980E-002  
  589.00  2.2024E-002  
  589.50  2.2002E-002  
  590.00  2.1992E-002  
  590.50  2.2056E-002  
  591.00  2.2161E-002  
  591.50  2.2271E-002  
  592.00  2.2269E-002  
  592.50  2.2267E-002  
  593.00  2.2278E-002  
  593.50  2.2386E-002  
  594.00  2.2505E-002  
  594.50  2.2580E-002  
  595.00  2.2610E-002  
  595.50  2.2609E-002  
  596.00  2.2608E-002  
  596.50  2.2638E-002  
  597.00  2.2722E-002  
  597.50  2.2804E-002  
  598.00  2.2869E-002  
  598.50  2.2846E-002  
  599.00  2.2852E-002  
  599.50  2.2887E-002  
  600.00  2.2944E-002  
  600.50  2.3041E-002  
  601.00  2.3093E-002  
  601.50  2.3098E-002  
  602.00  2.3085E-002  
  602.50  2.3125E-002  
  603.00  2.3235E-002  
  603.50  2.3387E-002  
  604.00  2.3506E-002  
  604.50  2.3522E-002  
  605.00  2.3493E-002  
  605.50  2.3405E-002  
  606.00  2.3421E-002  
  606.50  2.3447E-002  
  607.00  2.3537E-002  
  607.50  2.3556E-002  
  608.00  2.3592E-002  
  608.50  2.3656E-002  
  609.00  2.3755E-002  
  609.50  2.3913E-002  
  610.00  2.3955E-002  
  610.50  2.3970E-002  
  611.00  2.3915E-002  
  611.50  2.3938E-002  
  612.00  2.3972E-002  
  612.50  2.3993E-002  
  613.00  2.3962E-002  
  613.50  2.4010E-002  
  614.00  2.4118E-002  
  614.50  2.4321E-002  
  615.00  2.4359E-002  
  615.50  2.4327E-002  
  616.00  2.4234E-002  
  616.50  2.4254E-002  
  617.00  2.4303E-002  
  617.50  2.4341E-002  
  618.00  2.4401E-002  
  618.50  2.4471E-002  
  619.00  2.4527E-002  
  619.50  2.4605E-002  
  620.00  2.4664E-002  
  620.50  2.4693E-002  
  621.00  2.4627E-002  
  621.50  2.4619E-002  
  622.00  2.4672E-002  
  622.50  2.4744E-002  
  623.00  2.4756E-002  
  623.50  2.4742E-002  
  624.00  2.4797E-002  
  624.50  2.4825E-002  
  625.00  2.4893E-002  
  625.50  2.4914E-002  
  626.00  2.4978E-002  
  626.50  2.5008E-002  
  627.00  2.5035E-002  
  627.50  2.5072E-002  
  628.00  2.5192E-002  
  628.50  2.5263E-002  
  629.00  2.5292E-002  
  629.50  2.5255E-002  
  630.00  2.5357E-002  
  630.50  2.5419E-002  
  631.00  2.5399E-002  
  631.50  2.5360E-002  
  632.00  2.5393E-002  
  632.50  2.5499E-002  
  633.00  2.5621E-002  
  633.50  2.5646E-002  
  634.00  2.5631E-002  
  634.50  2.5550E-002  
  635.00  2.5539E-002  
  635.50  2.5580E-002  
  636.00  2.5711E-002  
  636.50  2.5787E-002  
  637.00  2.5812E-002  
  637.50  2.5768E-002  
  638.00  2.5776E-002  
  638.50  2.5807E-002  
  639.00  2.5837E-002  
  639.50  2.5904E-002  
  640.00  2.5997E-002  
  640.50  2.6017E-002  
  641.00  2.5993E-002  
  641.50  2.6010E-002  
  642.00  2.6037E-002  
  642.50  2.6076E-002  
  643.00  2.6139E-002  
  643.50  2.6237E-002  
  644.00  2.6361E-002  
  644.50  2.6404E-002  
  645.00  2.6454E-002  
  645.50  2.6417E-002  
  646.00  2.6408E-002  
  646.50  2.6448E-002  
  647.00  2.6552E-002  
  647.50  2.6605E-002  
  648.00  2.6638E-002  
  648.50  2.6637E-002  
  649.00  2.6630E-002  
  649.50  2.6614E-002  
  650.00  2.6637E-002  
  650.50  2.6645E-002  
  651.00  2.6605E-002  
  651.50  2.6546E-002  
  652.00  2.6624E-002  
  652.50  2.6661E-002  
  653.00  2.6697E-002  
  653.50  2.6702E-002  
  654.00  2.6769E-002  
  654.50  2.6755E-002  
  655.00  2.6770E-002  
  655.50  2.6802E-002  
  656.00  2.6954E-002  
  656.50  2.6965E-002  
  657.00  2.6999E-002  
  657.50  2.7033E-002  
  658.00  2.7177E-002  
  658.50  2.7250E-002  
  659.00  2.7228E-002  
  659.50  2.7156E-002  
  660.00  2.7079E-002  
  660.50  2.7045E-002  
  661.00  2.7028E-002  
  661.50  2.7098E-002  
  662.00  2.7173E-002  
  662.50  2.7188E-002  
  663.00  2.7236E-002  
  663.50  2.7287E-002  
  664.00  2.7275E-002  
  664.50  2.7254E-002  
  665.00  2.7255E-002  
  665.50  2.7358E-002  
  666.00  2.7391E-002  
  666.50  2.7457E-002  
  667.00  2.7614E-002  
  667.50  2.7642E-002  
  668.00  2.7624E-002  
  668.50  2.7512E-002  
  669.00  2.7543E-002  
  669.50  2.7548E-002  
  670.00  2.7618E-002  
  670.50  2.7617E-002  
  671.00  2.7657E-002  
  671.50  2.7613E-002  
  672.00  2.7662E-002  
  672.50  2.7654E-002  
  673.00  2.7704E-002  
  673.50  2.7709E-002  
  674.00  2.7713E-002  
  674.50  2.7692E-002  
  675.00  2.7738E-002  
  675.50  2.7835E-002  
  676.00  2.7851E-002  
  676.50  2.7876E-002  
  677.00  2.7880E-002  
  677.50  2.7902E-002  
  678.00  2.7826E-002  
  678.50  2.7866E-002  
  679.00  2.8037E-002  
  679.50  2.8178E-002  
  680.00  2.8107E-002  
  680.50  2.7941E-002  
  681.00  2.7923E-002  
  681.50  2.8014E-002  
  682.00  2.8233E-002  
  682.50  2.8307E-002  
  683.00  2.8340E-002  
  683.50  2.8334E-002  
  684.00  2.8315E-002  
  684.50  2.8300E-002  
  685.00  2.8243E-002  
  685.50  2.8328E-002  
  686.00  2.8433E-002  
  686.50  2.8551E-002  
  687.00  2.8612E-002  
  687.50  2.8710E-002  
  688.00  2.8718E-002  
  688.50  2.8784E-002  
  689.00  2.8733E-002  
  689.50  2.8797E-002  
  690.00  2.8922E-002  
  690.50  2.9176E-002  
  691.00  2.9316E-002  
  691.50  2.9258E-002  
  692.00  2.9064E-002  
  692.50  2.8989E-002  
  693.00  2.9041E-002  
  693.50  2.9195E-002  
  694.00  2.9306E-002  
  694.50  2.9325E-002  
  695.00  2.9329E-002  
  695.50  2.9260E-002  
  696.00  2.9272E-002  
  696.50  2.9296E-002  
  697.00  2.9405E-002  
  697.50  2.9503E-002  
  698.00  2.9513E-002  
  698.50  2.9527E-002  
  699.00  2.9569E-002  
  699.50  2.9564E-002  
  700.00  2.9592E-002  
  700.50  2.9717E-002  
  701.00  2.9857E-002  
  701.50  2.9833E-002  
  702.00  2.9715E-002  
  702.50  2.9678E-002  
  703.00  2.9779E-002  
  703.50  2.9938E-002  
  704.00  3.0154E-002  
  704.50  3.0313E-002  
  705.00  3.0294E-002  
  705.50  3.0203E-002  
  706.00  3.0186E-002  
  706.50  3.0384E-002  
  707.00  3.0453E-002  
  707.50  3.0353E-002  
  708.00  3.0201E-002  
  708.50  3.0256E-002  
  709.00  3.0460E-002  
  709.50  3.0596E-002  
  710.00  3.0674E-002  
  710.50  3.0796E-002  
  711.00  3.0888E-002  
  711.50  3.0734E-002  
  712.00  3.0545E-002  
  712.50  3.0635E-002  
  713.00  3.0915E-002  
  713.50  3.1227E-002  
  714.00  3.1241E-002  
  714.50  3.1214E-002  
  715.00  3.1196E-002  
  715.50  3.1355E-002  
  716.00  3.1446E-002  
  716.50  3.1396E-002  
  717.00  3.1339E-002  
  717.50  3.1399E-002  
  718.00  3.1579E-002  
  718.50  3.1620E-002  
  719.00  3.1593E-002  
  719.50  3.1606E-002  
  720.00  3.1588E-002  
  720.50  3.1521E-002  
  721.00  3.1376E-002  
  721.50  3.1431E-002  
  722.00  3.1504E-002  
  722.50  3.1783E-002  
  723.00  3.2003E-002  
  723.50  3.2073E-002  
  724.00  3.2112E-002  
  724.50  3.2165E-002  
  725.00  3.2313E-002  
  725.50  3.2385E-002  
  726.00  3.2420E-002  
  726.50  3.2442E-002  
  727.00  3.2440E-002  
  727.50  3.2358E-002  
  728.00  3.2242E-002  
  728.50  3.2376E-002  
  729.00  3.2569E-002  
  729.50  3.2722E-002  
  730.00  3.2811E-002  
  730.50  3.3049E-002  
  731.00  3.3147E-002  
  731.50  3.3193E-002  
  732.00  3.3139E-002  
  732.50  3.3042E-002  
  733.00  3.2828E-002  
  733.50  3.2791E-002  
  734.00  3.3011E-002  
  734.50  3.3237E-002  
  735.00  3.3376E-002  
  735.50  3.3389E-002  
  736.00  3.3399E-002  
  736.50  3.3397E-002  
  737.00  3.3393E-002  
  737.50  3.3386E-002  
  738.00  3.3358E-002  
  738.50  3.3404E-002  
  739.00  3.3607E-002  
  739.50  3.3815E-002  
  740.00  3.4036E-002  
  740.50  3.4016E-002  
  741.00  3.3946E-002  
  741.50  3.3939E-002  
  742.00  3.4170E-002  
  742.50  3.4364E-002  
  743.00  3.4246E-002  
  743.50  3.4154E-002  
  744.00  3.4150E-002  
  744.50  3.4129E-002  
  745.00  3.4185E-002  
  745.50  3.4197E-002  
  746.00  3.4326E-002  
  746.50  3.4355E-002  
  747.00  3.4428E-002  
  747.50  3.4459E-002  
  748.00  3.4536E-002  
  748.50  3.4674E-002  
  749.00  3.4744E-002  
  749.50  3.4719E-002  
  750.00  3.4794E-002  
  750.50  3.4846E-002  
  751.00  3.4892E-002  
  751.50  3.4898E-002  
  752.00  3.5015E-002  
  752.50  3.4982E-002  
  753.00  3.4830E-002  
  753.50  3.4644E-002  
  754.00  3.4805E-002  
  754.50  3.5005E-002  
  755.00  3.5232E-002  
  755.50  3.5233E-002  
  756.00  3.5121E-002  
  756.50  3.5095E-002  
  757.00  3.5184E-002  
  757.50  3.5284E-002  
  758.00  3.5519E-002  
  758.50  3.5631E-002  
  759.00  3.5613E-002  
  759.50  3.5384E-002  
  760.00  3.5346E-002  
  760.50  3.5269E-002  
  761.00  3.5334E-002  
  761.50  3.5473E-002  
  762.00  3.5635E-002  
  762.50  3.5577E-002  
  763.00  3.5596E-002  
  763.50  3.5713E-002  
  764.00  3.5870E-002  
  764.50  3.5823E-002  
  765.00  3.5815E-002  
  765.50  3.5802E-002  
  766.00  3.5888E-002  
  766.50  3.5836E-002  
  767.00  3.5705E-002  
  767.50  3.5798E-002  
  768.00  3.6111E-002  
  768.50  3.6414E-002  
  769.00  3.6400E-002  
  769.50  3.6220E-002  
  770.00  3.6000E-002  
  770.50  3.6130E-002  
  771.00  3.6330E-002  
  771.50  3.6306E-002  
  772.00  3.6131E-002  
  772.50  3.6073E-002  
  773.00  3.6221E-002  
  773.50  3.6382E-002  
  774.00  3.6617E-002  
  774.50  3.6727E-002  
  775.00  3.6740E-002  
  775.50  3.6619E-002  
  776.00  3.6635E-002  
  776.50  3.6649E-002  
  777.00  3.6613E-002  
  777.50  3.6634E-002  
  778.00  3.6397E-002  
  778.50  3.6379E-002  
  779.00  3.6492E-002  
  779.50  3.6745E-002  
  780.00  3.6871E-002  
  780.50  3.7005E-002  
  781.00  3.7089E-002  
  781.50  3.6955E-002  
  782.00  3.6866E-002  
  782.50  3.6837E-002  
  783.00  3.6932E-002  
  783.50  3.6831E-002  
  784.00  3.7039E-002  
  784.50  3.7560E-002  
  785.00  3.7688E-002  
  785.50  3.7533E-002  
  786.00  3.7376E-002  
  786.50  3.7426E-002  
  787.00  3.7367E-002  
  787.50  3.7261E-002  
  788.00  3.7264E-002  
  788.50  3.7404E-002  
  789.00  3.7524E-002  
  789.50  3.7483E-002  
  790.00  3.7310E-002  
  790.50  3.7188E-002  
  791.00  3.7337E-002  
  791.50  3.7490E-002  
  792.00  3.7541E-002  
  792.50  3.7551E-002  
  793.00  3.7524E-002  
  793.50  3.7606E-002  
  794.00  3.7504E-002  
  794.50  3.7583E-002  
  795.00  3.7624E-002  
  795.50  3.7559E-002  
  796.00  3.7757E-002  
  796.50  3.8232E-002  
  797.00  3.8731E-002  
  797.50  3.8637E-002  
  798.00  3.8580E-002  
  798.50  3.8211E-002  
  799.00  3.8039E-002  
  799.50  3.8227E-002  
  800.00  3.8571E-002  
  800.50  3.8360E-002  
  801.00  3.8002E-002  
  801.50  3.7881E-002  
  802.00  3.7759E-002  
  802.50  3.7968E-002  
  803.00  3.8326E-002  
  803.50  3.8310E-002  
  804.00  3.8097E-002  
  804.50  3.8171E-002  
  805.00  3.8559E-002  
  805.50  3.8616E-002  
  806.00  3.8610E-002  
  806.50  3.8642E-002  
  807.00  3.8645E-002  
  807.50  3.8277E-002  
  808.00  3.8108E-002  
  808.50  3.8427E-002  
  809.00  3.8982E-002  
  809.50  3.8869E-002  
  810.00  3.8522E-002  
  810.50  3.8568E-002  
  811.00  3.8775E-002  
  811.50  3.9162E-002  
  812.00  3.9223E-002  
  812.50  3.8979E-002  
  813.00  3.8504E-002  
  813.50  3.8659E-002  
  814.00  3.9252E-002  
  814.50  3.9618E-002  
  815.00  3.9352E-002  
  815.50  3.9040E-002  
  816.00  3.9107E-002  
  816.50  3.9299E-002  
  817.00  3.9281E-002  
  817.50  3.8982E-002  
  818.00  3.8937E-002  
  818.50  3.8824E-002  
  819.00  3.8934E-002  
  819.50  3.8834E-002  
  820.00  3.9035E-002  
  820.50  3.9016E-002  
  821.00  3.9038E-002  
  821.50  3.8784E-002  
  822.00  3.8945E-002  
  822.50  3.9100E-002  
  823.00  3.9069E-002  
  823.50  3.9198E-002  
  824.00  3.9602E-002  
  824.50  3.9317E-002  
  825.00  3.8804E-002  
  825.50  3.9099E-002  
  826.00  3.9975E-002  
  826.50  3.9977E-002  
  827.00  3.9120E-002  
  827.50  3.8777E-002  
  828.00  3.9098E-002  
  828.50  3.9515E-002  
  829.00  3.9302E-002  
  829.50  3.8988E-002  
  830.00  3.9063E-002  
  830.50  3.9070E-002  
  831.00  3.9121E-002  
  831.50  3.9253E-002  
  832.00  3.9325E-002  
  832.50  3.9467E-002  
  833.00  4.0062E-002  
  833.50  4.0108E-002  
  834.00  4.0193E-002  
  834.50  4.0623E-002  
  835.00  4.0616E-002  
  835.50  3.9934E-002  
  836.00  3.9757E-002  
  836.50  4.0142E-002  
  837.00  4.0477E-002  
  837.50  3.9912E-002  
  838.00  3.9673E-002  
  838.50  3.9856E-002  
  839.00  3.9572E-002  
  839.50  3.9138E-002  
  840.00  3.9502E-002  
  840.50  3.9751E-002  
  841.00  4.0204E-002  
  841.50  4.0346E-002  
  842.00  4.0815E-002  
  842.50  4.1089E-002  
  843.00  4.0909E-002  
  843.50  4.0504E-002  
  844.00  4.0083E-002  
  844.50  4.0309E-002  
  845.00  4.0669E-002  
  845.50  4.0828E-002  
  846.00  4.0479E-002  
  846.50  4.0004E-002  
  847.00  4.0113E-002  
  847.50  4.0445E-002  
  848.00  4.0464E-002  
  848.50  4.0104E-002  
  849.00  3.9630E-002  
  849.50  3.9532E-002  
  850.00  3.9946E-002  
  850.50  4.0505E-002  
  851.00  4.0699E-002  
  851.50  4.0229E-002  
  852.00  4.0144E-002  
  852.50  3.9659E-002  
  853.00  3.9494E-002  
  853.50  3.9439E-002  
  854.00  3.9592E-002  
  854.50  3.9987E-002  
  855.00  4.0239E-002  
  855.50  4.0682E-002  
  856.00  4.0539E-002  
  856.50  4.0408E-002  
  857.00  4.0526E-002  
  857.50  4.0421E-002  
  858.00  4.0737E-002  
  858.50  4.1155E-002  
  859.00  4.1323E-002  
  859.50  4.1203E-002  
  860.00  4.1101E-002  
  860.50  4.1135E-002  
  861.00  4.1482E-002  
  861.50  4.1897E-002  
  862.00  4.1996E-002  
  862.50  4.1050E-002  
  863.00  4.0761E-002  
  863.50  4.0794E-002  
  864.00  4.0808E-002  
  864.50  4.0877E-002  
  865.00  4.1144E-002  
  865.50  4.0924E-002  
  866.00  4.1293E-002  
  866.50  4.1209E-002  
  867.00  4.0459E-002  
  867.50  4.0783E-002  
  868.00  4.1302E-002  
  868.50  4.0468E-002  
  869.00  3.9905E-002  
  869.50  3.9788E-002  
  870.00  4.0471E-002  
  870.50  4.1933E-002  
  871.00  4.2823E-002  
  871.50  4.2621E-002  
  872.00  4.2270E-002  
  872.50  4.1440E-002  
  873.00  4.1204E-002  
  873.50  4.1488E-002  
  874.00  4.2103E-002  
  874.50  4.2179E-002  
  875.00  4.1835E-002  
  875.50  4.1643E-002  
  876.00  4.1585E-002  
  876.50  4.0552E-002  
  877.00  4.0053E-002  
  877.50  4.0248E-002  
  878.00  4.1309E-002  
  878.50  4.1856E-002  
  879.00  4.2749E-002  
  879.50  4.2605E-002  
  880.00  4.1562E-002  
  880.50  4.0754E-002  
  881.00  4.1236E-002  
  881.50  4.1530E-002  
  882.00  4.1045E-002  
  882.50  4.0526E-002  
  883.00  3.9985E-002  
  883.50  3.9943E-002  
  884.00  4.0914E-002  
  884.50  4.1864E-002  
  885.00  4.2883E-002  
  885.50  4.2599E-002  
  886.00  4.2025E-002  
  886.50  4.1783E-002  
  887.00  4.2301E-002  
  887.50  4.2605E-002  
  888.00  4.2268E-002  
  888.50  4.2017E-002  
  889.00  4.1955E-002  
  889.50  4.1649E-002  
  890.00  4.1685E-002  
  890.50  4.1591E-002  
  891.00  4.0744E-002  
  891.50  4.0938E-002  
  892.00  4.3895E-002  
  892.50  4.3749E-002  
  893.00  4.1233E-002  
  893.50  4.0387E-002  
  894.00  4.1598E-002  
  894.50  4.1902E-002  
  895.00  4.1973E-002  
  895.50  4.1729E-002  
  896.00  4.2093E-002  
  896.50  4.2287E-002  
  897.00  4.1209E-002  
  897.50  4.1599E-002  
  898.00  4.2681E-002  
  898.50  4.2060E-002  
  899.00  4.0796E-002  
  899.50  8.1180E-004  
