
# From lspdd.org
# 
# Name: INC GE Candle-Crystalclear Domestique
# Indice spectral Valeur 
# MSI 0.27 
# SLI 0.49 
# IPI 0.95 
# Pourcentage de bleu 11.7 
# Caractéristique Valeur 
# CCT calculée (K) 2570 
# CCT du fabricant (K) 2574 
# Tension (V) 120 
# Puissance (W) 60.0 
# Efficacité lumineuse (Lum/W) ND 
#
# Image: '/app/system/img_1s/2585/medium_image1.JPG?1413486500'
# 

  273.00  0.0000E+000  
  273.50  0.0000E+000  
  274.00  0.0000E+000  
  274.50  0.0000E+000  
  275.00  0.0000E+000  
  275.50  0.0000E+000  
  276.00  0.0000E+000  
  276.50  0.0000E+000  
  277.00  0.0000E+000  
  277.50  0.0000E+000  
  278.00  0.0000E+000  
  278.50  0.0000E+000  
  279.00  0.0000E+000  
  279.50  0.0000E+000  
  280.00  0.0000E+000  
  280.50  0.0000E+000  
  281.00  0.0000E+000  
  281.50  0.0000E+000  
  282.00  0.0000E+000  
  282.50  0.0000E+000  
  283.00  0.0000E+000  
  283.50  0.0000E+000  
  284.00  0.0000E+000  
  284.50  0.0000E+000  
  285.00  0.0000E+000  
  285.50  0.0000E+000  
  286.00  0.0000E+000  
  286.50  0.0000E+000  
  287.00  0.0000E+000  
  287.50  0.0000E+000  
  288.00  0.0000E+000  
  288.50  0.0000E+000  
  289.00  0.0000E+000  
  289.50  0.0000E+000  
  290.00  0.0000E+000  
  290.50  0.0000E+000  
  291.00  0.0000E+000  
  291.50  0.0000E+000  
  292.00  0.0000E+000  
  292.50  0.0000E+000  
  293.00  0.0000E+000  
  293.50  0.0000E+000  
  294.00  0.0000E+000  
  294.50  0.0000E+000  
  295.00  0.0000E+000  
  295.50  0.0000E+000  
  296.00  0.0000E+000  
  296.50  0.0000E+000  
  297.00  0.0000E+000  
  297.50  0.0000E+000  
  298.00  0.0000E+000  
  298.50  0.0000E+000  
  299.00  0.0000E+000  
  299.50  0.0000E+000  
  300.00  8.2389E-005  
  300.50  1.9606E-004  
  301.00  1.2092E-004  
  301.50  4.8434E-005  
  302.00  2.8169E-005  
  302.50  7.4902E-005  
  303.00  1.1081E-004  
  303.50  1.5763E-004  
  304.00  1.9699E-004  
  304.50  1.7375E-004  
  305.00  1.3514E-004  
  305.50  9.3453E-005  
  306.00  5.0848E-005  
  306.50  2.6476E-005  
  307.00  5.1622E-005  
  307.50  1.0322E-004  
  308.00  1.1509E-004  
  308.50  1.7477E-004  
  309.00  2.0405E-004  
  309.50  1.9882E-004  
  310.00  1.7541E-004  
  310.50  1.1323E-004  
  311.00  8.7109E-005  
  311.50  3.7330E-005  
  312.00  4.5650E-006  
  312.50  1.4751E-005  
  313.00  2.3685E-005  
  313.50  9.5131E-005  
  314.00  1.4971E-004  
  314.50  1.6681E-004  
  315.00  1.4245E-004  
  315.50  9.0376E-005  
  316.00  5.8406E-005  
  316.50  7.4890E-005  
  317.00  1.2699E-004  
  317.50  1.4758E-004  
  318.00  1.4298E-004  
  318.50  9.0670E-005  
  319.00  6.6554E-005  
  319.50  8.7187E-005  
  320.00  1.5576E-004  
  320.50  2.1268E-004  
  321.00  2.5452E-004  
  321.50  2.7731E-004  
  322.00  2.4927E-004  
  322.50  2.2725E-004  
  323.00  1.9983E-004  
  323.50  1.8050E-004  
  324.00  2.3568E-004  
  324.50  3.2494E-004  
  325.00  3.6025E-004  
  325.50  3.9074E-004  
  326.00  3.2062E-004  
  326.50  2.5123E-004  
  327.00  2.2639E-004  
  327.50  2.3218E-004  
  328.00  2.2948E-004  
  328.50  2.5958E-004  
  329.00  2.8568E-004  
  329.50  2.9216E-004  
  330.00  2.9853E-004  
  330.50  3.2182E-004  
  331.00  3.8903E-004  
  331.50  4.6393E-004  
  332.00  4.9609E-004  
  332.50  4.4839E-004  
  333.00  3.6186E-004  
  333.50  3.4166E-004  
  334.00  3.6575E-004  
  334.50  4.0982E-004  
  335.00  4.3635E-004  
  335.50  4.5775E-004  
  336.00  4.6491E-004  
  336.50  4.3539E-004  
  337.00  4.0843E-004  
  337.50  4.3069E-004  
  338.00  5.1527E-004  
  338.50  6.1443E-004  
  339.00  7.0518E-004  
  339.50  6.9679E-004  
  340.00  7.1466E-004  
  340.50  6.9579E-004  
  341.00  6.5505E-004  
  341.50  6.0139E-004  
  342.00  5.0681E-004  
  342.50  4.8390E-004  
  343.00  4.7977E-004  
  343.50  5.2804E-004  
  344.00  5.7375E-004  
  344.50  5.8963E-004  
  345.00  6.3981E-004  
  345.50  6.5138E-004  
  346.00  7.2160E-004  
  346.50  7.6974E-004  
  347.00  7.3480E-004  
  347.50  6.5961E-004  
  348.00  6.0413E-004  
  348.50  5.8900E-004  
  349.00  6.2429E-004  
  349.50  6.8457E-004  
  350.00  7.1638E-004  
  350.50  7.0219E-004  
  351.00  7.1753E-004  
  351.50  7.3427E-004  
  352.00  7.7767E-004  
  352.50  8.3693E-004  
  353.00  8.7835E-004  
  353.50  8.8579E-004  
  354.00  8.7591E-004  
  354.50  8.2697E-004  
  355.00  8.0288E-004  
  355.50  8.1103E-004  
  356.00  8.3960E-004  
  356.50  8.5785E-004  
  357.00  8.4805E-004  
  357.50  8.5076E-004  
  358.00  8.4337E-004  
  358.50  9.0056E-004  
  359.00  9.0953E-004  
  359.50  9.3816E-004  
  360.00  9.7177E-004  
  360.50  9.4158E-004  
  361.00  9.4814E-004  
  361.50  9.1525E-004  
  362.00  8.9370E-004  
  362.50  9.0743E-004  
  363.00  1.0119E-003  
  363.50  1.1377E-003  
  364.00  1.2590E-003  
  364.50  1.2978E-003  
  365.00  1.2451E-003  
  365.50  1.2153E-003  
  366.00  1.1933E-003  
  366.50  1.1708E-003  
  367.00  1.1667E-003  
  367.50  1.1480E-003  
  368.00  1.2033E-003  
  368.50  1.2889E-003  
  369.00  1.3587E-003  
  369.50  1.4127E-003  
  370.00  1.4045E-003  
  370.50  1.3955E-003  
  371.00  1.3969E-003  
  371.50  1.3933E-003  
  372.00  1.4383E-003  
  372.50  1.4388E-003  
  373.00  1.4362E-003  
  373.50  1.4461E-003  
  374.00  1.4494E-003  
  374.50  1.4726E-003  
  375.00  1.5114E-003  
  375.50  1.5370E-003  
  376.00  1.5599E-003  
  376.50  1.5596E-003  
  377.00  1.5991E-003  
  377.50  1.6073E-003  
  378.00  1.6403E-003  
  378.50  1.6355E-003  
  379.00  1.6271E-003  
  379.50  1.6332E-003  
  380.00  1.6691E-003  
  380.50  1.6870E-003  
  381.00  1.6782E-003  
  381.50  1.7015E-003  
  382.00  1.6987E-003  
  382.50  1.7691E-003  
  383.00  1.8271E-003  
  383.50  1.8649E-003  
  384.00  1.9425E-003  
  384.50  1.9847E-003  
  385.00  1.9992E-003  
  385.50  2.0119E-003  
  386.00  2.0362E-003  
  386.50  2.0462E-003  
  387.00  2.1343E-003  
  387.50  2.1929E-003  
  388.00  2.1764E-003  
  388.50  2.1561E-003  
  389.00  2.1436E-003  
  389.50  2.1434E-003  
  390.00  2.2317E-003  
  390.50  2.3255E-003  
  391.00  2.4214E-003  
  391.50  2.4684E-003  
  392.00  2.4979E-003  
  392.50  2.4597E-003  
  393.00  2.4913E-003  
  393.50  2.5100E-003  
  394.00  2.5116E-003  
  394.50  2.5325E-003  
  395.00  2.5220E-003  
  395.50  2.5547E-003  
  396.00  2.5968E-003  
  396.50  2.6267E-003  
  397.00  2.6193E-003  
  397.50  2.5905E-003  
  398.00  2.5674E-003  
  398.50  2.6080E-003  
  399.00  2.7587E-003  
  399.50  2.9019E-003  
  400.00  2.9448E-003  
  400.50  2.9111E-003  
  401.00  2.8566E-003  
  401.50  2.8734E-003  
  402.00  2.8661E-003  
  402.50  2.8335E-003  
  403.00  2.8496E-003  
  403.50  2.9087E-003  
  404.00  2.9777E-003  
  404.50  3.0039E-003  
  405.00  3.0178E-003  
  405.50  3.0708E-003  
  406.00  3.1878E-003  
  406.50  3.2664E-003  
  407.00  3.3357E-003  
  407.50  3.3876E-003  
  408.00  3.4171E-003  
  408.50  3.4674E-003  
  409.00  3.4950E-003  
  409.50  3.5138E-003  
  410.00  3.5548E-003  
  410.50  3.6042E-003  
  411.00  3.6507E-003  
  411.50  3.6693E-003  
  412.00  3.6761E-003  
  412.50  3.6691E-003  
  413.00  3.7449E-003  
  413.50  3.8410E-003  
  414.00  3.9363E-003  
  414.50  3.9778E-003  
  415.00  3.9774E-003  
  415.50  3.9451E-003  
  416.00  3.9530E-003  
  416.50  3.9471E-003  
  417.00  3.9898E-003  
  417.50  4.0556E-003  
  418.00  4.0658E-003  
  418.50  4.1592E-003  
  419.00  4.1822E-003  
  419.50  4.2045E-003  
  420.00  4.2907E-003  
  420.50  4.3234E-003  
  421.00  4.3471E-003  
  421.50  4.3511E-003  
  422.00  4.3307E-003  
  422.50  4.3909E-003  
  423.00  4.5034E-003  
  423.50  4.6512E-003  
  424.00  4.7520E-003  
  424.50  4.7854E-003  
  425.00  4.8202E-003  
  425.50  4.8265E-003  
  426.00  4.8950E-003  
  426.50  4.9278E-003  
  427.00  4.9446E-003  
  427.50  4.9716E-003  
  428.00  5.0399E-003  
  428.50  5.0521E-003  
  429.00  5.0532E-003  
  429.50  5.1091E-003  
  430.00  5.2159E-003  
  430.50  5.3468E-003  
  431.00  5.4282E-003  
  431.50  5.4579E-003  
  432.00  5.4778E-003  
  432.50  5.5346E-003  
  433.00  5.5515E-003  
  433.50  5.5670E-003  
  434.00  5.5940E-003  
  434.50  5.6194E-003  
  435.00  5.6711E-003  
  435.50  5.7222E-003  
  436.00  5.7656E-003  
  436.50  5.8092E-003  
  437.00  5.8416E-003  
  437.50  5.9071E-003  
  438.00  5.9959E-003  
  438.50  6.0595E-003  
  439.00  6.1326E-003  
  439.50  6.2213E-003  
  440.00  6.2813E-003  
  440.50  6.3381E-003  
  441.00  6.3451E-003  
  441.50  6.3328E-003  
  442.00  6.4336E-003  
  442.50  6.5125E-003  
  443.00  6.5918E-003  
  443.50  6.5932E-003  
  444.00  6.6403E-003  
  444.50  6.7453E-003  
  445.00  6.8520E-003  
  445.50  6.9161E-003  
  446.00  6.8737E-003  
  446.50  6.8635E-003  
  447.00  6.9023E-003  
  447.50  6.9474E-003  
  448.00  7.0631E-003  
  448.50  7.1421E-003  
  449.00  7.2454E-003  
  449.50  7.3546E-003  
  450.00  7.3907E-003  
  450.50  7.4447E-003  
  451.00  7.5005E-003  
  451.50  7.5529E-003  
  452.00  7.6136E-003  
  452.50  7.7015E-003  
  453.00  7.7759E-003  
  453.50  7.9081E-003  
  454.00  7.9594E-003  
  454.50  7.9987E-003  
  455.00  8.0127E-003  
  455.50  8.0073E-003  
  456.00  8.0488E-003  
  456.50  8.0965E-003  
  457.00  8.2032E-003  
  457.50  8.3420E-003  
  458.00  8.3932E-003  
  458.50  8.4324E-003  
  459.00  8.4283E-003  
  459.50  8.4503E-003  
  460.00  8.5533E-003  
  460.50  8.5937E-003  
  461.00  8.6508E-003  
  461.50  8.7064E-003  
  462.00  8.7723E-003  
  462.50  8.8771E-003  
  463.00  9.0064E-003  
  463.50  9.1623E-003  
  464.00  9.2768E-003  
  464.50  9.3342E-003  
  465.00  9.3725E-003  
  465.50  9.4016E-003  
  466.00  9.5028E-003  
  466.50  9.5815E-003  
  467.00  9.6261E-003  
  467.50  9.6786E-003  
  468.00  9.6810E-003  
  468.50  9.7774E-003  
  469.00  9.8653E-003  
  469.50  9.9140E-003  
  470.00  1.0041E-002  
  470.50  1.0121E-002  
  471.00  1.0212E-002  
  471.50  1.0285E-002  
  472.00  1.0302E-002  
  472.50  1.0383E-002  
  473.00  1.0488E-002  
  473.50  1.0613E-002  
  474.00  1.0729E-002  
  474.50  1.0811E-002  
  475.00  1.0833E-002  
  475.50  1.0902E-002  
  476.00  1.0969E-002  
  476.50  1.1111E-002  
  477.00  1.1181E-002  
  477.50  1.1246E-002  
  478.00  1.1270E-002  
  478.50  1.1365E-002  
  479.00  1.1427E-002  
  479.50  1.1509E-002  
  480.00  1.1598E-002  
  480.50  1.1655E-002  
  481.00  1.1731E-002  
  481.50  1.1733E-002  
  482.00  1.1767E-002  
  482.50  1.1814E-002  
  483.00  1.1913E-002  
  483.50  1.2064E-002  
  484.00  1.2197E-002  
  484.50  1.2312E-002  
  485.00  1.2367E-002  
  485.50  1.2430E-002  
  486.00  1.2526E-002  
  486.50  1.2592E-002  
  487.00  1.2693E-002  
  487.50  1.2781E-002  
  488.00  1.2882E-002  
  488.50  1.2995E-002  
  489.00  1.3072E-002  
  489.50  1.3129E-002  
  490.00  1.3198E-002  
  490.50  1.3259E-002  
  491.00  1.3381E-002  
  491.50  1.3450E-002  
  492.00  1.3578E-002  
  492.50  1.3689E-002  
  493.00  1.3849E-002  
  493.50  1.3962E-002  
  494.00  1.4019E-002  
  494.50  1.4084E-002  
  495.00  1.4162E-002  
  495.50  1.4302E-002  
  496.00  1.4421E-002  
  496.50  1.4512E-002  
  497.00  1.4597E-002  
  497.50  1.4699E-002  
  498.00  1.4792E-002  
  498.50  1.4926E-002  
  499.00  1.5044E-002  
  499.50  1.5191E-002  
  500.00  1.5345E-002  
  500.50  1.5468E-002  
  501.00  1.5564E-002  
  501.50  1.5640E-002  
  502.00  1.5713E-002  
  502.50  1.5805E-002  
  503.00  1.5859E-002  
  503.50  1.5922E-002  
  504.00  1.6074E-002  
  504.50  1.6264E-002  
  505.00  1.6512E-002  
  505.50  1.6675E-002  
  506.00  1.6789E-002  
  506.50  1.6877E-002  
  507.00  1.6987E-002  
  507.50  1.7119E-002  
  508.00  1.7273E-002  
  508.50  1.7432E-002  
  509.00  1.7562E-002  
  509.50  1.7703E-002  
  510.00  1.7849E-002  
  510.50  1.7958E-002  
  511.00  1.8115E-002  
  511.50  1.8256E-002  
  512.00  1.8404E-002  
  512.50  1.8576E-002  
  513.00  1.8713E-002  
  513.50  1.8887E-002  
  514.00  1.9060E-002  
  514.50  1.9236E-002  
  515.00  1.9405E-002  
  515.50  1.9531E-002  
  516.00  1.9627E-002  
  516.50  1.9689E-002  
  517.00  1.9800E-002  
  517.50  1.9993E-002  
  518.00  2.0219E-002  
  518.50  2.0431E-002  
  519.00  2.0608E-002  
  519.50  2.0729E-002  
  520.00  2.0883E-002  
  520.50  2.1046E-002  
  521.00  2.1208E-002  
  521.50  2.1362E-002  
  522.00  2.1472E-002  
  522.50  2.1606E-002  
  523.00  2.1781E-002  
  523.50  2.1983E-002  
  524.00  2.2193E-002  
  524.50  2.2375E-002  
  525.00  2.2524E-002  
  525.50  2.2628E-002  
  526.00  2.2750E-002  
  526.50  2.2959E-002  
  527.00  2.3204E-002  
  527.50  2.3406E-002  
  528.00  2.3551E-002  
  528.50  2.3618E-002  
  529.00  2.3715E-002  
  529.50  2.3811E-002  
  530.00  2.3930E-002  
  530.50  2.4105E-002  
  531.00  2.4315E-002  
  531.50  2.4533E-002  
  532.00  2.4759E-002  
  532.50  2.4966E-002  
  533.00  2.5117E-002  
  533.50  2.5201E-002  
  534.00  2.5291E-002  
  534.50  2.5445E-002  
  535.00  2.5692E-002  
  535.50  2.5936E-002  
  536.00  2.6117E-002  
  536.50  2.6295E-002  
  537.00  2.6435E-002  
  537.50  2.6606E-002  
  538.00  2.6762E-002  
  538.50  2.6918E-002  
  539.00  2.7071E-002  
  539.50  2.7244E-002  
  540.00  2.7393E-002  
  540.50  2.7581E-002  
  541.00  2.7751E-002  
  541.50  2.7968E-002  
  542.00  2.8167E-002  
  542.50  2.8293E-002  
  543.00  2.8387E-002  
  543.50  2.8539E-002  
  544.00  2.8709E-002  
  544.50  2.8933E-002  
  545.00  2.9113E-002  
  545.50  2.9341E-002  
  546.00  2.9579E-002  
  546.50  2.9736E-002  
  547.00  2.9872E-002  
  547.50  3.0012E-002  
  548.00  3.0200E-002  
  548.50  3.0380E-002  
  549.00  3.0593E-002  
  549.50  3.0808E-002  
  550.00  3.1039E-002  
  550.50  3.1263E-002  
  551.00  3.1438E-002  
  551.50  3.1559E-002  
  552.00  3.1627E-002  
  552.50  3.1770E-002  
  553.00  3.1998E-002  
  553.50  3.2301E-002  
  554.00  3.2536E-002  
  554.50  3.2708E-002  
  555.00  3.2750E-002  
  555.50  3.2830E-002  
  556.00  3.2943E-002  
  556.50  3.3110E-002  
  557.00  3.3348E-002  
  557.50  3.3537E-002  
  558.00  3.3750E-002  
  558.50  3.3902E-002  
  559.00  3.4102E-002  
  559.50  3.4323E-002  
  560.00  3.4545E-002  
  560.50  3.4636E-002  
  561.00  3.4769E-002  
  561.50  3.4951E-002  
  562.00  3.5202E-002  
  562.50  3.5442E-002  
  563.00  3.5549E-002  
  563.50  3.5691E-002  
  564.00  3.5805E-002  
  564.50  3.5944E-002  
  565.00  3.6124E-002  
  565.50  3.6318E-002  
  566.00  3.6531E-002  
  566.50  3.6729E-002  
  567.00  3.6899E-002  
  567.50  3.7050E-002  
  568.00  3.7209E-002  
  568.50  3.7298E-002  
  569.00  3.7367E-002  
  569.50  3.7452E-002  
  570.00  3.7653E-002  
  570.50  3.7856E-002  
  571.00  3.8113E-002  
  571.50  3.8263E-002  
  572.00  3.8365E-002  
  572.50  3.8440E-002  
  573.00  3.8517E-002  
  573.50  3.8707E-002  
  574.00  3.8875E-002  
  574.50  3.9069E-002  
  575.00  3.9257E-002  
  575.50  3.9532E-002  
  576.00  3.9796E-002  
  576.50  3.9894E-002  
  577.00  3.9960E-002  
  577.50  3.9981E-002  
  578.00  4.0126E-002  
  578.50  4.0337E-002  
  579.00  4.0581E-002  
  579.50  4.0740E-002  
  580.00  4.0835E-002  
  580.50  4.0918E-002  
  581.00  4.1061E-002  
  581.50  4.1164E-002  
  582.00  4.1266E-002  
  582.50  4.1349E-002  
  583.00  4.1529E-002  
  583.50  4.1730E-002  
  584.00  4.1988E-002  
  584.50  4.2131E-002  
  585.00  4.2305E-002  
  585.50  4.2422E-002  
  586.00  4.2683E-002  
  586.50  4.2892E-002  
  587.00  4.3024E-002  
  587.50  4.3097E-002  
  588.00  4.3251E-002  
  588.50  4.3487E-002  
  589.00  4.3656E-002  
  589.50  4.3750E-002  
  590.00  4.3833E-002  
  590.50  4.3994E-002  
  591.00  4.4148E-002  
  591.50  4.4368E-002  
  592.00  4.4490E-002  
  592.50  4.4665E-002  
  593.00  4.4816E-002  
  593.50  4.4934E-002  
  594.00  4.5110E-002  
  594.50  4.5214E-002  
  595.00  4.5310E-002  
  595.50  4.5399E-002  
  596.00  4.5497E-002  
  596.50  4.5656E-002  
  597.00  4.5804E-002  
  597.50  4.5927E-002  
  598.00  4.6082E-002  
  598.50  4.6171E-002  
  599.00  4.6311E-002  
  599.50  4.6438E-002  
  600.00  4.6617E-002  
  600.50  4.6702E-002  
  601.00  4.6784E-002  
  601.50  4.6833E-002  
  602.00  4.6976E-002  
  602.50  4.7102E-002  
  603.00  4.7176E-002  
  603.50  4.7290E-002  
  604.00  4.7404E-002  
  604.50  4.7612E-002  
  605.00  4.7745E-002  
  605.50  4.7861E-002  
  606.00  4.7875E-002  
  606.50  4.7942E-002  
  607.00  4.8168E-002  
  607.50  4.8430E-002  
  608.00  4.8625E-002  
  608.50  4.8648E-002  
  609.00  4.8703E-002  
  609.50  4.8776E-002  
  610.00  4.8853E-002  
  610.50  4.8887E-002  
  611.00  4.8985E-002  
  611.50  4.9147E-002  
  612.00  4.9333E-002  
  612.50  4.9489E-002  
  613.00  4.9717E-002  
  613.50  4.9884E-002  
  614.00  5.0025E-002  
  614.50  5.0133E-002  
  615.00  5.0257E-002  
  615.50  5.0353E-002  
  616.00  5.0345E-002  
  616.50  5.0332E-002  
  617.00  5.0314E-002  
  617.50  5.0415E-002  
  618.00  5.0514E-002  
  618.50  5.0666E-002  
  619.00  5.0759E-002  
  619.50  5.0863E-002  
  620.00  5.0962E-002  
  620.50  5.1092E-002  
  621.00  5.1303E-002  
  621.50  5.1407E-002  
  622.00  5.1480E-002  
  622.50  5.1511E-002  
  623.00  5.1684E-002  
  623.50  5.1883E-002  
  624.00  5.2062E-002  
  624.50  5.2163E-002  
  625.00  5.2271E-002  
  625.50  5.2370E-002  
  626.00  5.2510E-002  
  626.50  5.2637E-002  
  627.00  5.2754E-002  
  627.50  5.2833E-002  
  628.00  5.2879E-002  
  628.50  5.2896E-002  
  629.00  5.2939E-002  
  629.50  5.3004E-002  
  630.00  5.3100E-002  
  630.50  5.3228E-002  
  631.00  5.3429E-002  
  631.50  5.3660E-002  
  632.00  5.3833E-002  
  632.50  5.3884E-002  
  633.00  5.3852E-002  
  633.50  5.3845E-002  
  634.00  5.3949E-002  
  634.50  5.4107E-002  
  635.00  5.4254E-002  
  635.50  5.4344E-002  
  636.00  5.4480E-002  
  636.50  5.4622E-002  
  637.00  5.4736E-002  
  637.50  5.4777E-002  
  638.00  5.4866E-002  
  638.50  5.5020E-002  
  639.00  5.5160E-002  
  639.50  5.5224E-002  
  640.00  5.5277E-002  
  640.50  5.5370E-002  
  641.00  5.5415E-002  
  641.50  5.5429E-002  
  642.00  5.5446E-002  
  642.50  5.5575E-002  
  643.00  5.5712E-002  
  643.50  5.5845E-002  
  644.00  5.5964E-002  
  644.50  5.6063E-002  
  645.00  5.6190E-002  
  645.50  5.6270E-002  
  646.00  5.6387E-002  
  646.50  5.6388E-002  
  647.00  5.6436E-002  
  647.50  5.6549E-002  
  648.00  5.6686E-002  
  648.50  5.6869E-002  
  649.00  5.6945E-002  
  649.50  5.7021E-002  
  650.00  5.7126E-002  
  650.50  5.7245E-002  
  651.00  5.7295E-002  
  651.50  5.7245E-002  
  652.00  5.7176E-002  
  652.50  5.7277E-002  
  653.00  5.7392E-002  
  653.50  5.7460E-002  
  654.00  5.7552E-002  
  654.50  5.7804E-002  
  655.00  5.8108E-002  
  655.50  5.8354E-002  
  656.00  5.8423E-002  
  656.50  5.8400E-002  
  657.00  5.8328E-002  
  657.50  5.8391E-002  
  658.00  5.8541E-002  
  658.50  5.8647E-002  
  659.00  5.8740E-002  
  659.50  5.8891E-002  
  660.00  5.9005E-002  
  660.50  5.8987E-002  
  661.00  5.8984E-002  
  661.50  5.9105E-002  
  662.00  5.9144E-002  
  662.50  5.9092E-002  
  663.00  5.9060E-002  
  663.50  5.9123E-002  
  664.00  5.9249E-002  
  664.50  5.9244E-002  
  665.00  5.9166E-002  
  665.50  5.9088E-002  
  666.00  5.9175E-002  
  666.50  5.9382E-002  
  667.00  5.9558E-002  
  667.50  5.9765E-002  
  668.00  5.9819E-002  
  668.50  5.9885E-002  
  669.00  5.9751E-002  
  669.50  5.9821E-002  
  670.00  6.0042E-002  
  670.50  6.0427E-002  
  671.00  6.0568E-002  
  671.50  6.0467E-002  
  672.00  6.0304E-002  
  672.50  6.0317E-002  
  673.00  6.0454E-002  
  673.50  6.0593E-002  
  674.00  6.0626E-002  
  674.50  6.0651E-002  
  675.00  6.0669E-002  
  675.50  6.0885E-002  
  676.00  6.0961E-002  
  676.50  6.1028E-002  
  677.00  6.1067E-002  
  677.50  6.1224E-002  
  678.00  6.1240E-002  
  678.50  6.1209E-002  
  679.00  6.1175E-002  
  679.50  6.1273E-002  
  680.00  6.1328E-002  
  680.50  6.1514E-002  
  681.00  6.1684E-002  
  681.50  6.1821E-002  
  682.00  6.1820E-002  
  682.50  6.1794E-002  
  683.00  6.1793E-002  
  683.50  6.1956E-002  
  684.00  6.2116E-002  
  684.50  6.2125E-002  
  685.00  6.2007E-002  
  685.50  6.1987E-002  
  686.00  6.2220E-002  
  686.50  6.2569E-002  
  687.00  6.2892E-002  
  687.50  6.3064E-002  
  688.00  6.3108E-002  
  688.50  6.3082E-002  
  689.00  6.2997E-002  
  689.50  6.2919E-002  
  690.00  6.2969E-002  
  690.50  6.3029E-002  
  691.00  6.3064E-002  
  691.50  6.3089E-002  
  692.00  6.3121E-002  
  692.50  6.3125E-002  
  693.00  6.3177E-002  
  693.50  6.3438E-002  
  694.00  6.3693E-002  
  694.50  6.3743E-002  
  695.00  6.3810E-002  
  695.50  6.3939E-002  
  696.00  6.4253E-002  
  696.50  6.4377E-002  
  697.00  6.4385E-002  
  697.50  6.4244E-002  
  698.00  6.4204E-002  
  698.50  6.4203E-002  
  699.00  6.4255E-002  
  699.50  6.4295E-002  
  700.00  6.4466E-002  
  700.50  6.4662E-002  
  701.00  6.4926E-002  
  701.50  6.5117E-002  
  702.00  6.5166E-002  
  702.50  6.5152E-002  
  703.00  6.5194E-002  
  703.50  6.5333E-002  
  704.00  6.5416E-002  
  704.50  6.5503E-002  
  705.00  6.5566E-002  
  705.50  6.5434E-002  
  706.00  6.5326E-002  
  706.50  6.5453E-002  
  707.00  6.5631E-002  
  707.50  6.5821E-002  
  708.00  6.5871E-002  
  708.50  6.6133E-002  
  709.00  6.6168E-002  
  709.50  6.6282E-002  
  710.00  6.6264E-002  
  710.50  6.6360E-002  
  711.00  6.6328E-002  
  711.50  6.6430E-002  
  712.00  6.6536E-002  
  712.50  6.6899E-002  
  713.00  6.7171E-002  
  713.50  6.7169E-002  
  714.00  6.6986E-002  
  714.50  6.6949E-002  
  715.00  6.7047E-002  
  715.50  6.7150E-002  
  716.00  6.7294E-002  
  716.50  6.7449E-002  
  717.00  6.7441E-002  
  717.50  6.7447E-002  
  718.00  6.7598E-002  
  718.50  6.7760E-002  
  719.00  6.7774E-002  
  719.50  6.7734E-002  
  720.00  6.7771E-002  
  720.50  6.7956E-002  
  721.00  6.8091E-002  
  721.50  6.8111E-002  
  722.00  6.7874E-002  
  722.50  6.7866E-002  
  723.00  6.8241E-002  
  723.50  6.8592E-002  
  724.00  6.8687E-002  
  724.50  6.8454E-002  
  725.00  6.8480E-002  
  725.50  6.8722E-002  
  726.00  6.8926E-002  
  726.50  6.9081E-002  
  727.00  6.9141E-002  
  727.50  6.9296E-002  
  728.00  6.9243E-002  
  728.50  6.9238E-002  
  729.00  6.9412E-002  
  729.50  6.9594E-002  
  730.00  6.9694E-002  
  730.50  6.9802E-002  
  731.00  6.9935E-002  
  731.50  6.9964E-002  
  732.00  6.9864E-002  
  732.50  6.9942E-002  
  733.00  7.0168E-002  
  733.50  7.0430E-002  
  734.00  7.0563E-002  
  734.50  7.0656E-002  
  735.00  7.0535E-002  
  735.50  7.0421E-002  
  736.00  7.0252E-002  
  736.50  7.0380E-002  
  737.00  7.0434E-002  
  737.50  7.0646E-002  
  738.00  7.0753E-002  
  738.50  7.1004E-002  
  739.00  7.1076E-002  
  739.50  7.1147E-002  
  740.00  7.1173E-002  
  740.50  7.1333E-002  
  741.00  7.1287E-002  
  741.50  7.1334E-002  
  742.00  7.1380E-002  
  742.50  7.1504E-002  
  743.00  7.1556E-002  
  743.50  7.1743E-002  
  744.00  7.1730E-002  
  744.50  7.1626E-002  
  745.00  7.1535E-002  
  745.50  7.1665E-002  
  746.00  7.1931E-002  
  746.50  7.1954E-002  
  747.00  7.1867E-002  
  747.50  7.1990E-002  
  748.00  7.2518E-002  
  748.50  7.2753E-002  
  749.00  7.2646E-002  
  749.50  7.2583E-002  
  750.00  7.2792E-002  
  750.50  7.3054E-002  
  751.00  7.3066E-002  
  751.50  7.2868E-002  
  752.00  7.2862E-002  
  752.50  7.3042E-002  
  753.00  7.3349E-002  
  753.50  7.3482E-002  
  754.00  7.3606E-002  
  754.50  7.3595E-002  
  755.00  7.3429E-002  
  755.50  7.3243E-002  
  756.00  7.3357E-002  
  756.50  7.3444E-002  
  757.00  7.3357E-002  
  757.50  7.3231E-002  
  758.00  7.3493E-002  
  758.50  7.3766E-002  
  759.00  7.3909E-002  
  759.50  7.3692E-002  
  760.00  7.3702E-002  
  760.50  7.3533E-002  
  761.00  7.3451E-002  
  761.50  7.3509E-002  
  762.00  7.3764E-002  
  762.50  7.4089E-002  
  763.00  7.3805E-002  
  763.50  7.3785E-002  
  764.00  7.3951E-002  
  764.50  7.4091E-002  
  765.00  7.4139E-002  
  765.50  7.4234E-002  
  766.00  7.4523E-002  
  766.50  7.4755E-002  
  767.00  7.4765E-002  
  767.50  7.4591E-002  
  768.00  7.4627E-002  
  768.50  7.4668E-002  
  769.00  7.4642E-002  
  769.50  7.4365E-002  
  770.00  7.4557E-002  
  770.50  7.4730E-002  
  771.00  7.4833E-002  
  771.50  7.4772E-002  
  772.00  7.4991E-002  
  772.50  7.5230E-002  
  773.00  7.5398E-002  
  773.50  7.5409E-002  
  774.00  7.5319E-002  
  774.50  7.5379E-002  
  775.00  7.5312E-002  
  775.50  7.5366E-002  
  776.00  7.5507E-002  
  776.50  7.5556E-002  
  777.00  7.5401E-002  
  777.50  7.5490E-002  
  778.00  7.5447E-002  
  778.50  7.5707E-002  
  779.00  7.5654E-002  
  779.50  7.5793E-002  
  780.00  7.5743E-002  
  780.50  7.5897E-002  
  781.00  7.5961E-002  
  781.50  7.6062E-002  
  782.00  7.6235E-002  
  782.50  7.6256E-002  
  783.00  7.6072E-002  
  783.50  7.5730E-002  
  784.00  7.5736E-002  
  784.50  7.6166E-002  
  785.00  7.6522E-002  
  785.50  7.6729E-002  
  786.00  7.6639E-002  
  786.50  7.6666E-002  
  787.00  7.6530E-002  
  787.50  7.6375E-002  
  788.00  7.6856E-002  
  788.50  7.7220E-002  
  789.00  7.7399E-002  
  789.50  7.7048E-002  
  790.00  7.7214E-002  
  790.50  7.7094E-002  
  791.00  7.6901E-002  
  791.50  7.6682E-002  
  792.00  7.6907E-002  
  792.50  7.7149E-002  
  793.00  7.7251E-002  
  793.50  7.7475E-002  
  794.00  7.7322E-002  
  794.50  7.7257E-002  
  795.00  7.7524E-002  
  795.50  7.7725E-002  
  796.00  7.7870E-002  
  796.50  7.8165E-002  
  797.00  7.8580E-002  
  797.50  7.8574E-002  
  798.00  7.8508E-002  
  798.50  7.8804E-002  
  799.00  7.9056E-002  
  799.50  7.9331E-002  
  800.00  7.9022E-002  
  800.50  7.8611E-002  
  801.00  7.8356E-002  
  801.50  7.8647E-002  
  802.00  7.8731E-002  
  802.50  7.8916E-002  
  803.00  7.8708E-002  
  803.50  7.8413E-002  
  804.00  7.8094E-002  
  804.50  7.8218E-002  
  805.00  7.8767E-002  
  805.50  7.9141E-002  
  806.00  7.9596E-002  
  806.50  7.9665E-002  
  807.00  7.9356E-002  
  807.50  7.8973E-002  
  808.00  7.9011E-002  
  808.50  7.9447E-002  
  809.00  7.9788E-002  
  809.50  7.9525E-002  
  810.00  7.9324E-002  
  810.50  7.9189E-002  
  811.00  7.9152E-002  
  811.50  7.9120E-002  
  812.00  7.9295E-002  
  812.50  7.9803E-002  
  813.00  8.0274E-002  
  813.50  8.0498E-002  
  814.00  8.0537E-002  
  814.50  8.0732E-002  
  815.00  8.0697E-002  
  815.50  8.0685E-002  
  816.00  8.0387E-002  
  816.50  8.0303E-002  
  817.00  8.0105E-002  
  817.50  7.9982E-002  
  818.00  8.0354E-002  
  818.50  8.1028E-002  
  819.00  8.0851E-002  
  819.50  8.0617E-002  
  820.00  8.0424E-002  
  820.50  8.0229E-002  
  821.00  8.0611E-002  
  821.50  8.0630E-002  
  822.00  8.0403E-002  
  822.50  8.0348E-002  
  823.00  8.0611E-002  
  823.50  8.0656E-002  
  824.00  8.0525E-002  
  824.50  8.0586E-002  
  825.00  8.1129E-002  
  825.50  8.1047E-002  
  826.00  8.0672E-002  
  826.50  8.0488E-002  
  827.00  8.0754E-002  
  827.50  8.0974E-002  
  828.00  8.0975E-002  
  828.50  8.0610E-002  
  829.00  8.0448E-002  
  829.50  8.0655E-002  
  830.00  8.1122E-002  
  830.50  8.1248E-002  
  831.00  8.1394E-002  
  831.50  8.1526E-002  
  832.00  8.1639E-002  
  832.50  8.1501E-002  
  833.00  8.1607E-002  
  833.50  8.1670E-002  
  834.00  8.1365E-002  
  834.50  8.1523E-002  
  835.00  8.1608E-002  
  835.50  8.1754E-002  
  836.00  8.1933E-002  
  836.50  8.1201E-002  
  837.00  8.0686E-002  
  837.50  8.0621E-002  
  838.00  8.0849E-002  
  838.50  8.1214E-002  
  839.00  8.0781E-002  
  839.50  8.0731E-002  
  840.00  8.1340E-002  
  840.50  8.1976E-002  
  841.00  8.2058E-002  
  841.50  8.2269E-002  
  842.00  8.2512E-002  
  842.50  8.2223E-002  
  843.00  8.2390E-002  
  843.50  8.2507E-002  
  844.00  8.2662E-002  
  844.50  8.2657E-002  
  845.00  8.2890E-002  
  845.50  8.2549E-002  
  846.00  8.1503E-002  
  846.50  8.1358E-002  
  847.00  8.2095E-002  
  847.50  8.1899E-002  
  848.00  8.1663E-002  
  848.50  8.2952E-002  
  849.00  8.3271E-002  
  849.50  8.2564E-002  
  850.00  8.2139E-002  
  850.50  8.2753E-002  
  851.00  8.2574E-002  
  851.50  8.2068E-002  
  852.00  8.1963E-002  
  852.50  8.1902E-002  
  853.00  8.1538E-002  
  853.50  8.1593E-002  
  854.00  8.1864E-002  
  854.50  8.1790E-002  
  855.00  8.2163E-002  
  855.50  8.3190E-002  
  856.00  8.3734E-002  
  856.50  8.3623E-002  
  857.00  8.3257E-002  
  857.50  8.2864E-002  
  858.00  8.2182E-002  
  858.50  8.2008E-002  
  859.00  8.2496E-002  
  859.50  8.2837E-002  
  860.00  8.3108E-002  
  860.50  8.3570E-002  
  861.00  8.3423E-002  
  861.50  8.2554E-002  
  862.00  8.2252E-002  
  862.50  8.2744E-002  
  863.00  8.3059E-002  
  863.50  8.3187E-002  
  864.00  8.3327E-002  
  864.50  8.3057E-002  
  865.00  8.3340E-002  
  865.50  8.4215E-002  
  866.00  8.4499E-002  
  866.50  8.3528E-002  
  867.00  8.2444E-002  
  867.50  8.3290E-002  
  868.00  8.4323E-002  
  868.50  8.3967E-002  
  869.00  8.3446E-002  
  869.50  8.3153E-002  
  870.00  8.3368E-002  
  870.50  8.4323E-002  
  871.00  8.4777E-002  
  871.50  8.5050E-002  
  872.00  8.4886E-002  
  872.50  8.3969E-002  
  873.00  8.2795E-002  
  873.50  8.2793E-002  
  874.00  8.3617E-002  
  874.50  8.4174E-002  
  875.00  8.4712E-002  
  875.50  8.5872E-002  
  876.00  8.6818E-002  
  876.50  8.5872E-002  
  877.00  8.5053E-002  
  877.50  8.5418E-002  
  878.00  8.5444E-002  
  878.50  8.5032E-002  
  879.00  8.5347E-002  
  879.50  8.5036E-002  
  880.00  8.3729E-002  
  880.50  8.3979E-002  
  881.00  8.5439E-002  
  881.50  8.6417E-002  
  882.00  8.5653E-002  
  882.50  8.4790E-002  
  883.00  8.4635E-002  
  883.50  8.4105E-002  
  884.00  8.4507E-002  
  884.50  8.6047E-002  
  885.00  8.6119E-002  
  885.50  8.4816E-002  
  886.00  8.5408E-002  
  886.50  8.5135E-002  
  887.00  8.5232E-002  
  887.50  8.5173E-002  
  888.00  8.5162E-002  
  888.50  8.4884E-002  
  889.00  8.5936E-002  
  889.50  8.6413E-002  
  890.00  8.6268E-002  
  890.50  8.6496E-002  
  891.00  8.7077E-002  
  891.50  8.7156E-002  
  892.00  8.7409E-002  
  892.50  8.6710E-002  
  893.00  8.6981E-002  
  893.50  8.7482E-002  
  894.00  8.6982E-002  
  894.50  8.5570E-002  
  895.00  8.5040E-002  
  895.50  8.6014E-002  
  896.00  8.6082E-002  
  896.50  8.5861E-002  
  897.00  8.5369E-002  
  897.50  8.4500E-002  
  898.00  8.6084E-002  
  898.50  8.7538E-002  
  899.00  8.7122E-002  
  899.50  1.7020E-003  
