
# From lspdd.org
# 
# Name: DEL Standard PAR30 LN Domestique
# Indice spectral Valeur 
# MSI 0.56 
# SLI 0.65 
# IPI 0.65 
# Pourcentage de bleu 34.3 
# Caractéristique Valeur 
# CCT calculée (K) 4722 
# CCT du fabricant (K) 5000 
# Tension (V) 120 
# Puissance (W) 15.0 
# Efficacité lumineuse (Lum/W) 56.0 
#
# Image: '/app/system/img_2s/2588/medium_image2.JPG?1413486514'
# Image: '/app/system/img_1s/2588/medium_image1.JPG?1413486518'
# 

  273.00  0.0000E+000  
  273.50  0.0000E+000  
  274.00  0.0000E+000  
  274.50  0.0000E+000  
  275.00  0.0000E+000  
  275.50  0.0000E+000  
  276.00  0.0000E+000  
  276.50  0.0000E+000  
  277.00  0.0000E+000  
  277.50  0.0000E+000  
  278.00  0.0000E+000  
  278.50  0.0000E+000  
  279.00  0.0000E+000  
  279.50  0.0000E+000  
  280.00  0.0000E+000  
  280.50  0.0000E+000  
  281.00  0.0000E+000  
  281.50  0.0000E+000  
  282.00  0.0000E+000  
  282.50  0.0000E+000  
  283.00  0.0000E+000  
  283.50  0.0000E+000  
  284.00  0.0000E+000  
  284.50  0.0000E+000  
  285.00  0.0000E+000  
  285.50  0.0000E+000  
  286.00  0.0000E+000  
  286.50  0.0000E+000  
  287.00  0.0000E+000  
  287.50  0.0000E+000  
  288.00  0.0000E+000  
  288.50  0.0000E+000  
  289.00  0.0000E+000  
  289.50  0.0000E+000  
  290.00  0.0000E+000  
  290.50  0.0000E+000  
  291.00  0.0000E+000  
  291.50  0.0000E+000  
  292.00  0.0000E+000  
  292.50  0.0000E+000  
  293.00  0.0000E+000  
  293.50  0.0000E+000  
  294.00  0.0000E+000  
  294.50  0.0000E+000  
  295.00  0.0000E+000  
  295.50  0.0000E+000  
  296.00  0.0000E+000  
  296.50  0.0000E+000  
  297.00  0.0000E+000  
  297.50  0.0000E+000  
  298.00  0.0000E+000  
  298.50  0.0000E+000  
  299.00  0.0000E+000  
  299.50  0.0000E+000  
  300.00  0.0000E+000  
  300.50  0.0000E+000  
  301.00  0.0000E+000  
  301.50  0.0000E+000  
  302.00  0.0000E+000  
  302.50  0.0000E+000  
  303.00  0.0000E+000  
  303.50  0.0000E+000  
  304.00  0.0000E+000  
  304.50  0.0000E+000  
  305.00  0.0000E+000  
  305.50  0.0000E+000  
  306.00  0.0000E+000  
  306.50  0.0000E+000  
  307.00  0.0000E+000  
  307.50  0.0000E+000  
  308.00  0.0000E+000  
  308.50  0.0000E+000  
  309.00  0.0000E+000  
  309.50  0.0000E+000  
  310.00  0.0000E+000  
  310.50  0.0000E+000  
  311.00  0.0000E+000  
  311.50  0.0000E+000  
  312.00  0.0000E+000  
  312.50  0.0000E+000  
  313.00  0.0000E+000  
  313.50  0.0000E+000  
  314.00  0.0000E+000  
  314.50  0.0000E+000  
  315.00  0.0000E+000  
  315.50  0.0000E+000  
  316.00  2.0808E-006  
  316.50  1.1843E-005  
  317.00  2.3252E-006  
  317.50  0.0000E+000  
  318.00  0.0000E+000  
  318.50  0.0000E+000  
  319.00  0.0000E+000  
  319.50  0.0000E+000  
  320.00  0.0000E+000  
  320.50  0.0000E+000  
  321.00  0.0000E+000  
  321.50  0.0000E+000  
  322.00  7.1304E-006  
  322.50  1.8059E-005  
  323.00  4.5838E-006  
  323.50  0.0000E+000  
  324.00  0.0000E+000  
  324.50  0.0000E+000  
  325.00  0.0000E+000  
  325.50  0.0000E+000  
  326.00  0.0000E+000  
  326.50  1.0993E-005  
  327.00  0.0000E+000  
  327.50  0.0000E+000  
  328.00  0.0000E+000  
  328.50  0.0000E+000  
  329.00  0.0000E+000  
  329.50  0.0000E+000  
  330.00  0.0000E+000  
  330.50  0.0000E+000  
  331.00  1.4696E-006  
  331.50  1.2098E-006  
  332.00  2.3898E-005  
  332.50  2.2862E-005  
  333.00  2.3983E-005  
  333.50  3.5036E-005  
  334.00  3.1683E-005  
  334.50  3.2806E-005  
  335.00  1.5861E-005  
  335.50  2.1151E-006  
  336.00  1.9962E-006  
  336.50  3.3559E-005  
  337.00  2.1376E-005  
  337.50  2.2557E-007  
  338.00  0.0000E+000  
  338.50  0.0000E+000  
  339.00  0.0000E+000  
  339.50  0.0000E+000  
  340.00  0.0000E+000  
  340.50  0.0000E+000  
  341.00  0.0000E+000  
  341.50  0.0000E+000  
  342.00  1.9690E-005  
  342.50  3.1117E-005  
  343.00  3.3090E-005  
  343.50  6.8826E-006  
  344.00  0.0000E+000  
  344.50  0.0000E+000  
  345.00  0.0000E+000  
  345.50  0.0000E+000  
  346.00  0.0000E+000  
  346.50  3.0320E-006  
  347.00  1.8336E-005  
  347.50  3.3217E-005  
  348.00  4.9331E-005  
  348.50  6.5046E-005  
  349.00  9.5070E-005  
  349.50  8.6628E-005  
  350.00  7.3382E-005  
  350.50  3.4285E-005  
  351.00  0.0000E+000  
  351.50  0.0000E+000  
  352.00  0.0000E+000  
  352.50  6.7681E-007  
  353.00  3.7740E-005  
  353.50  5.3934E-005  
  354.00  6.2741E-005  
  354.50  8.6670E-006  
  355.00  0.0000E+000  
  355.50  0.0000E+000  
  356.00  0.0000E+000  
  356.50  0.0000E+000  
  357.00  0.0000E+000  
  357.50  0.0000E+000  
  358.00  4.1560E-005  
  358.50  1.1658E-004  
  359.00  1.5966E-004  
  359.50  2.0800E-004  
  360.00  2.1433E-004  
  360.50  2.1279E-004  
  361.00  1.9916E-004  
  361.50  1.1295E-004  
  362.00  7.5766E-005  
  362.50  6.9027E-005  
  363.00  1.0088E-004  
  363.50  1.8371E-004  
  364.00  2.2585E-004  
  364.50  2.0822E-004  
  365.00  2.0380E-004  
  365.50  1.6007E-004  
  366.00  1.0910E-004  
  366.50  7.9518E-005  
  367.00  5.0985E-005  
  367.50  6.4720E-005  
  368.00  8.9286E-005  
  368.50  9.7880E-005  
  369.00  1.1230E-004  
  369.50  1.2081E-004  
  370.00  1.2777E-004  
  370.50  1.7508E-004  
  371.00  1.4351E-004  
  371.50  1.1553E-004  
  372.00  9.5177E-005  
  372.50  8.2308E-005  
  373.00  1.3670E-004  
  373.50  1.4752E-004  
  374.00  1.4743E-004  
  374.50  1.3369E-004  
  375.00  1.4472E-004  
  375.50  1.9844E-004  
  376.00  2.4085E-004  
  376.50  2.7999E-004  
  377.00  3.0395E-004  
  377.50  2.6163E-004  
  378.00  2.4015E-004  
  378.50  2.3944E-004  
  379.00  2.2143E-004  
  379.50  2.6835E-004  
  380.00  2.8554E-004  
  380.50  3.0382E-004  
  381.00  3.7228E-004  
  381.50  3.5564E-004  
  382.00  3.3275E-004  
  382.50  3.0467E-004  
  383.00  2.6244E-004  
  383.50  2.8012E-004  
  384.00  3.2624E-004  
  384.50  3.7116E-004  
  385.00  4.2055E-004  
  385.50  4.5743E-004  
  386.00  4.4423E-004  
  386.50  4.4692E-004  
  387.00  4.7292E-004  
  387.50  5.0999E-004  
  388.00  4.9347E-004  
  388.50  4.7561E-004  
  389.00  4.1185E-004  
  389.50  3.9122E-004  
  390.00  4.3999E-004  
  390.50  4.8368E-004  
  391.00  5.3392E-004  
  391.50  5.7854E-004  
  392.00  5.9600E-004  
  392.50  6.0338E-004  
  393.00  6.3111E-004  
  393.50  6.3976E-004  
  394.00  6.4877E-004  
  394.50  6.4610E-004  
  395.00  6.1450E-004  
  395.50  6.2319E-004  
  396.00  6.4048E-004  
  396.50  7.0125E-004  
  397.00  7.5826E-004  
  397.50  7.7763E-004  
  398.00  7.9682E-004  
  398.50  8.3945E-004  
  399.00  8.7679E-004  
  399.50  9.5249E-004  
  400.00  1.0248E-003  
  400.50  1.0965E-003  
  401.00  1.1796E-003  
  401.50  1.2614E-003  
  402.00  1.3532E-003  
  402.50  1.4079E-003  
  403.00  1.4658E-003  
  403.50  1.5459E-003  
  404.00  1.6731E-003  
  404.50  1.7850E-003  
  405.00  1.8852E-003  
  405.50  1.9482E-003  
  406.00  2.0585E-003  
  406.50  2.2545E-003  
  407.00  2.4662E-003  
  407.50  2.6834E-003  
  408.00  2.8859E-003  
  408.50  3.0642E-003  
  409.00  3.2389E-003  
  409.50  3.4627E-003  
  410.00  3.7518E-003  
  410.50  4.1461E-003  
  411.00  4.5371E-003  
  411.50  4.9317E-003  
  412.00  5.3329E-003  
  412.50  5.7080E-003  
  413.00  6.1243E-003  
  413.50  6.5765E-003  
  414.00  7.0703E-003  
  414.50  7.6803E-003  
  415.00  8.3428E-003  
  415.50  9.0385E-003  
  416.00  9.7787E-003  
  416.50  1.0552E-002  
  417.00  1.1331E-002  
  417.50  1.2189E-002  
  418.00  1.3125E-002  
  418.50  1.4116E-002  
  419.00  1.5195E-002  
  419.50  1.6399E-002  
  420.00  1.7671E-002  
  420.50  1.9100E-002  
  421.00  2.0581E-002  
  421.50  2.2080E-002  
  422.00  2.3618E-002  
  422.50  2.5229E-002  
  423.00  2.6950E-002  
  423.50  2.8809E-002  
  424.00  3.0717E-002  
  424.50  3.2636E-002  
  425.00  3.4725E-002  
  425.50  3.6935E-002  
  426.00  3.9304E-002  
  426.50  4.1834E-002  
  427.00  4.4420E-002  
  427.50  4.7244E-002  
  428.00  5.0236E-002  
  428.50  5.3135E-002  
  429.00  5.6108E-002  
  429.50  5.9071E-002  
  430.00  6.2193E-002  
  430.50  6.5414E-002  
  431.00  6.8628E-002  
  431.50  7.1854E-002  
  432.00  7.5323E-002  
  432.50  7.8915E-002  
  433.00  8.2581E-002  
  433.50  8.6215E-002  
  434.00  8.9989E-002  
  434.50  9.4252E-002  
  435.00  9.8875E-002  
  435.50  1.0351E-001  
  436.00  1.0828E-001  
  436.50  1.1299E-001  
  437.00  1.1807E-001  
  437.50  1.2327E-001  
  438.00  1.2855E-001  
  438.50  1.3363E-001  
  439.00  1.3891E-001  
  439.50  1.4472E-001  
  440.00  1.5094E-001  
  440.50  1.5786E-001  
  441.00  1.6450E-001  
  441.50  1.7077E-001  
  442.00  1.7690E-001  
  442.50  1.8236E-001  
  443.00  1.8811E-001  
  443.50  1.9329E-001  
  444.00  1.9800E-001  
  444.50  2.0216E-001  
  445.00  2.0582E-001  
  445.50  2.0868E-001  
  446.00  2.1078E-001  
  446.50  2.1158E-001  
  447.00  2.1132E-001  
  447.50  2.1032E-001  
  448.00  2.0850E-001  
  448.50  2.0579E-001  
  449.00  2.0227E-001  
  449.50  1.9760E-001  
  450.00  1.9230E-001  
  450.50  1.8592E-001  
  451.00  1.7892E-001  
  451.50  1.7114E-001  
  452.00  1.6313E-001  
  452.50  1.5522E-001  
  453.00  1.4722E-001  
  453.50  1.3936E-001  
  454.00  1.3164E-001  
  454.50  1.2408E-001  
  455.00  1.1731E-001  
  455.50  1.1073E-001  
  456.00  1.0464E-001  
  456.50  9.9193E-002  
  457.00  9.4224E-002  
  457.50  8.9809E-002  
  458.00  8.5525E-002  
  458.50  8.1421E-002  
  459.00  7.7736E-002  
  459.50  7.4363E-002  
  460.00  7.1357E-002  
  460.50  6.8542E-002  
  461.00  6.5865E-002  
  461.50  6.3275E-002  
  462.00  6.0872E-002  
  462.50  5.8494E-002  
  463.00  5.6178E-002  
  463.50  5.3873E-002  
  464.00  5.1671E-002  
  464.50  4.9608E-002  
  465.00  4.7662E-002  
  465.50  4.5714E-002  
  466.00  4.3610E-002  
  466.50  4.1543E-002  
  467.00  3.9532E-002  
  467.50  3.7771E-002  
  468.00  3.5990E-002  
  468.50  3.4276E-002  
  469.00  3.2632E-002  
  469.50  3.1096E-002  
  470.00  2.9657E-002  
  470.50  2.8341E-002  
  471.00  2.7053E-002  
  471.50  2.5815E-002  
  472.00  2.4639E-002  
  472.50  2.3603E-002  
  473.00  2.2694E-002  
  473.50  2.1956E-002  
  474.00  2.1237E-002  
  474.50  2.0463E-002  
  475.00  1.9706E-002  
  475.50  1.9017E-002  
  476.00  1.8372E-002  
  476.50  1.7857E-002  
  477.00  1.7380E-002  
  477.50  1.6938E-002  
  478.00  1.6479E-002  
  478.50  1.6098E-002  
  479.00  1.5747E-002  
  479.50  1.5503E-002  
  480.00  1.5283E-002  
  480.50  1.4977E-002  
  481.00  1.4667E-002  
  481.50  1.4346E-002  
  482.00  1.4115E-002  
  482.50  1.3921E-002  
  483.00  1.3756E-002  
  483.50  1.3618E-002  
  484.00  1.3484E-002  
  484.50  1.3321E-002  
  485.00  1.3185E-002  
  485.50  1.3129E-002  
  486.00  1.3087E-002  
  486.50  1.3136E-002  
  487.00  1.3121E-002  
  487.50  1.3119E-002  
  488.00  1.3190E-002  
  488.50  1.3333E-002  
  489.00  1.3572E-002  
  489.50  1.3809E-002  
  490.00  1.4059E-002  
  490.50  1.4304E-002  
  491.00  1.4613E-002  
  491.50  1.4950E-002  
  492.00  1.5332E-002  
  492.50  1.5749E-002  
  493.00  1.6226E-002  
  493.50  1.6727E-002  
  494.00  1.7253E-002  
  494.50  1.7879E-002  
  495.00  1.8514E-002  
  495.50  1.9222E-002  
  496.00  1.9946E-002  
  496.50  2.0757E-002  
  497.00  2.1604E-002  
  497.50  2.2521E-002  
  498.00  2.3378E-002  
  498.50  2.4281E-002  
  499.00  2.5252E-002  
  499.50  2.6247E-002  
  500.00  2.7325E-002  
  500.50  2.8367E-002  
  501.00  2.9430E-002  
  501.50  3.0564E-002  
  502.00  3.1791E-002  
  502.50  3.3076E-002  
  503.00  3.4390E-002  
  503.50  3.5691E-002  
  504.00  3.7087E-002  
  504.50  3.8565E-002  
  505.00  4.0117E-002  
  505.50  4.1657E-002  
  506.00  4.3198E-002  
  506.50  4.4604E-002  
  507.00  4.6064E-002  
  507.50  4.7541E-002  
  508.00  4.9202E-002  
  508.50  5.0925E-002  
  509.00  5.2677E-002  
  509.50  5.4453E-002  
  510.00  5.6205E-002  
  510.50  5.7937E-002  
  511.00  5.9697E-002  
  511.50  6.1480E-002  
  512.00  6.3292E-002  
  512.50  6.5037E-002  
  513.00  6.6774E-002  
  513.50  6.8500E-002  
  514.00  7.0214E-002  
  514.50  7.1924E-002  
  515.00  7.3658E-002  
  515.50  7.5459E-002  
  516.00  7.7278E-002  
  516.50  7.9026E-002  
  517.00  8.0694E-002  
  517.50  8.2337E-002  
  518.00  8.4021E-002  
  518.50  8.5755E-002  
  519.00  8.7434E-002  
  519.50  8.9002E-002  
  520.00  9.0417E-002  
  520.50  9.1873E-002  
  521.00  9.3365E-002  
  521.50  9.4888E-002  
  522.00  9.6315E-002  
  522.50  9.7692E-002  
  523.00  9.9011E-002  
  523.50  1.0039E-001  
  524.00  1.0179E-001  
  524.50  1.0304E-001  
  525.00  1.0418E-001  
  525.50  1.0525E-001  
  526.00  1.0627E-001  
  526.50  1.0741E-001  
  527.00  1.0849E-001  
  527.50  1.0952E-001  
  528.00  1.1039E-001  
  528.50  1.1129E-001  
  529.00  1.1215E-001  
  529.50  1.1300E-001  
  530.00  1.1377E-001  
  530.50  1.1448E-001  
  531.00  1.1528E-001  
  531.50  1.1610E-001  
  532.00  1.1687E-001  
  532.50  1.1765E-001  
  533.00  1.1838E-001  
  533.50  1.1906E-001  
  534.00  1.1956E-001  
  534.50  1.2006E-001  
  535.00  1.2060E-001  
  535.50  1.2117E-001  
  536.00  1.2173E-001  
  536.50  1.2218E-001  
  537.00  1.2270E-001  
  537.50  1.2325E-001  
  538.00  1.2385E-001  
  538.50  1.2439E-001  
  539.00  1.2490E-001  
  539.50  1.2533E-001  
  540.00  1.2577E-001  
  540.50  1.2622E-001  
  541.00  1.2666E-001  
  541.50  1.2709E-001  
  542.00  1.2747E-001  
  542.50  1.2787E-001  
  543.00  1.2827E-001  
  543.50  1.2865E-001  
  544.00  1.2905E-001  
  544.50  1.2940E-001  
  545.00  1.2971E-001  
  545.50  1.3000E-001  
  546.00  1.3023E-001  
  546.50  1.3058E-001  
  547.00  1.3093E-001  
  547.50  1.3132E-001  
  548.00  1.3162E-001  
  548.50  1.3192E-001  
  549.00  1.3223E-001  
  549.50  1.3254E-001  
  550.00  1.3277E-001  
  550.50  1.3301E-001  
  551.00  1.3328E-001  
  551.50  1.3361E-001  
  552.00  1.3388E-001  
  552.50  1.3412E-001  
  553.00  1.3437E-001  
  553.50  1.3463E-001  
  554.00  1.3492E-001  
  554.50  1.3513E-001  
  555.00  1.3532E-001  
  555.50  1.3555E-001  
  556.00  1.3581E-001  
  556.50  1.3599E-001  
  557.00  1.3623E-001  
  557.50  1.3654E-001  
  558.00  1.3688E-001  
  558.50  1.3723E-001  
  559.00  1.3742E-001  
  559.50  1.3754E-001  
  560.00  1.3764E-001  
  560.50  1.3773E-001  
  561.00  1.3781E-001  
  561.50  1.3796E-001  
  562.00  1.3817E-001  
  562.50  1.3834E-001  
  563.00  1.3844E-001  
  563.50  1.3857E-001  
  564.00  1.3873E-001  
  564.50  1.3888E-001  
  565.00  1.3887E-001  
  565.50  1.3882E-001  
  566.00  1.3875E-001  
  566.50  1.3878E-001  
  567.00  1.3879E-001  
  567.50  1.3883E-001  
  568.00  1.3886E-001  
  568.50  1.3890E-001  
  569.00  1.3893E-001  
  569.50  1.3898E-001  
  570.00  1.3899E-001  
  570.50  1.3905E-001  
  571.00  1.3909E-001  
  571.50  1.3906E-001  
  572.00  1.3901E-001  
  572.50  1.3886E-001  
  573.00  1.3867E-001  
  573.50  1.3853E-001  
  574.00  1.3854E-001  
  574.50  1.3860E-001  
  575.00  1.3857E-001  
  575.50  1.3835E-001  
  576.00  1.3816E-001  
  576.50  1.3809E-001  
  577.00  1.3812E-001  
  577.50  1.3811E-001  
  578.00  1.3795E-001  
  578.50  1.3772E-001  
  579.00  1.3735E-001  
  579.50  1.3702E-001  
  580.00  1.3665E-001  
  580.50  1.3635E-001  
  581.00  1.3610E-001  
  581.50  1.3585E-001  
  582.00  1.3562E-001  
  582.50  1.3534E-001  
  583.00  1.3499E-001  
  583.50  1.3471E-001  
  584.00  1.3441E-001  
  584.50  1.3403E-001  
  585.00  1.3354E-001  
  585.50  1.3306E-001  
  586.00  1.3270E-001  
  586.50  1.3241E-001  
  587.00  1.3215E-001  
  587.50  1.3185E-001  
  588.00  1.3147E-001  
  588.50  1.3096E-001  
  589.00  1.3048E-001  
  589.50  1.2999E-001  
  590.00  1.2954E-001  
  590.50  1.2901E-001  
  591.00  1.2847E-001  
  591.50  1.2800E-001  
  592.00  1.2744E-001  
  592.50  1.2683E-001  
  593.00  1.2621E-001  
  593.50  1.2548E-001  
  594.00  1.2492E-001  
  594.50  1.2430E-001  
  595.00  1.2383E-001  
  595.50  1.2319E-001  
  596.00  1.2253E-001  
  596.50  1.2195E-001  
  597.00  1.2150E-001  
  597.50  1.2092E-001  
  598.00  1.2019E-001  
  598.50  1.1944E-001  
  599.00  1.1882E-001  
  599.50  1.1824E-001  
  600.00  1.1755E-001  
  600.50  1.1675E-001  
  601.00  1.1601E-001  
  601.50  1.1532E-001  
  602.00  1.1479E-001  
  602.50  1.1423E-001  
  603.00  1.1353E-001  
  603.50  1.1270E-001  
  604.00  1.1192E-001  
  604.50  1.1119E-001  
  605.00  1.1054E-001  
  605.50  1.0985E-001  
  606.00  1.0920E-001  
  606.50  1.0866E-001  
  607.00  1.0797E-001  
  607.50  1.0715E-001  
  608.00  1.0629E-001  
  608.50  1.0557E-001  
  609.00  1.0496E-001  
  609.50  1.0425E-001  
  610.00  1.0347E-001  
  610.50  1.0265E-001  
  611.00  1.0195E-001  
  611.50  1.0130E-001  
  612.00  1.0069E-001  
  612.50  9.9937E-002  
  613.00  9.9157E-002  
  613.50  9.8292E-002  
  614.00  9.7510E-002  
  614.50  9.6786E-002  
  615.00  9.6077E-002  
  615.50  9.5406E-002  
  616.00  9.4564E-002  
  616.50  9.3780E-002  
  617.00  9.2928E-002  
  617.50  9.2242E-002  
  618.00  9.1529E-002  
  618.50  9.0765E-002  
  619.00  8.9899E-002  
  619.50  8.9049E-002  
  620.00  8.8346E-002  
  620.50  8.7601E-002  
  621.00  8.6883E-002  
  621.50  8.6145E-002  
  622.00  8.5540E-002  
  622.50  8.4829E-002  
  623.00  8.4041E-002  
  623.50  8.3302E-002  
  624.00  8.2762E-002  
  624.50  8.2028E-002  
  625.00  8.1159E-002  
  625.50  8.0308E-002  
  626.00  7.9641E-002  
  626.50  7.8923E-002  
  627.00  7.8123E-002  
  627.50  7.7411E-002  
  628.00  7.6860E-002  
  628.50  7.6294E-002  
  629.00  7.5580E-002  
  629.50  7.4844E-002  
  630.00  7.4120E-002  
  630.50  7.3582E-002  
  631.00  7.2970E-002  
  631.50  7.2349E-002  
  632.00  7.1445E-002  
  632.50  7.0513E-002  
  633.00  6.9719E-002  
  633.50  6.9270E-002  
  634.00  6.8769E-002  
  634.50  6.8255E-002  
  635.00  6.7556E-002  
  635.50  6.6791E-002  
  636.00  6.6062E-002  
  636.50  6.5297E-002  
  637.00  6.4627E-002  
  637.50  6.3924E-002  
  638.00  6.3269E-002  
  638.50  6.2755E-002  
  639.00  6.2174E-002  
  639.50  6.1504E-002  
  640.00  6.0810E-002  
  640.50  6.0189E-002  
  641.00  5.9521E-002  
  641.50  5.8873E-002  
  642.00  5.8249E-002  
  642.50  5.7636E-002  
  643.00  5.7027E-002  
  643.50  5.6360E-002  
  644.00  5.5797E-002  
  644.50  5.5258E-002  
  645.00  5.4838E-002  
  645.50  5.4220E-002  
  646.00  5.3642E-002  
  646.50  5.2866E-002  
  647.00  5.2287E-002  
  647.50  5.1679E-002  
  648.00  5.1152E-002  
  648.50  5.0550E-002  
  649.00  4.9959E-002  
  649.50  4.9396E-002  
  650.00  4.8915E-002  
  650.50  4.8412E-002  
  651.00  4.7903E-002  
  651.50  4.7324E-002  
  652.00  4.6817E-002  
  652.50  4.6307E-002  
  653.00  4.5810E-002  
  653.50  4.5353E-002  
  654.00  4.4986E-002  
  654.50  4.4481E-002  
  655.00  4.3830E-002  
  655.50  4.3163E-002  
  656.00  4.2695E-002  
  656.50  4.2247E-002  
  657.00  4.1742E-002  
  657.50  4.1323E-002  
  658.00  4.0904E-002  
  658.50  4.0478E-002  
  659.00  3.9909E-002  
  659.50  3.9327E-002  
  660.00  3.8740E-002  
  660.50  3.8281E-002  
  661.00  3.7862E-002  
  661.50  3.7496E-002  
  662.00  3.6966E-002  
  662.50  3.6477E-002  
  663.00  3.6019E-002  
  663.50  3.5627E-002  
  664.00  3.5149E-002  
  664.50  3.4628E-002  
  665.00  3.4127E-002  
  665.50  3.3716E-002  
  666.00  3.3407E-002  
  666.50  3.3065E-002  
  667.00  3.2800E-002  
  667.50  3.2505E-002  
  668.00  3.2128E-002  
  668.50  3.1614E-002  
  669.00  3.1092E-002  
  669.50  3.0629E-002  
  670.00  3.0283E-002  
  670.50  2.9978E-002  
  671.00  2.9735E-002  
  671.50  2.9363E-002  
  672.00  2.8934E-002  
  672.50  2.8453E-002  
  673.00  2.8028E-002  
  673.50  2.7583E-002  
  674.00  2.7296E-002  
  674.50  2.7045E-002  
  675.00  2.6736E-002  
  675.50  2.6395E-002  
  676.00  2.6038E-002  
  676.50  2.5741E-002  
  677.00  2.5391E-002  
  677.50  2.5021E-002  
  678.00  2.4669E-002  
  678.50  2.4296E-002  
  679.00  2.3948E-002  
  679.50  2.3650E-002  
  680.00  2.3399E-002  
  680.50  2.3160E-002  
  681.00  2.2904E-002  
  681.50  2.2619E-002  
  682.00  2.2312E-002  
  682.50  2.1972E-002  
  683.00  2.1632E-002  
  683.50  2.1285E-002  
  684.00  2.0981E-002  
  684.50  2.0641E-002  
  685.00  2.0394E-002  
  685.50  2.0148E-002  
  686.00  2.0013E-002  
  686.50  1.9780E-002  
  687.00  1.9558E-002  
  687.50  1.9329E-002  
  688.00  1.9022E-002  
  688.50  1.8729E-002  
  689.00  1.8380E-002  
  689.50  1.8168E-002  
  690.00  1.8013E-002  
  690.50  1.7939E-002  
  691.00  1.7771E-002  
  691.50  1.7540E-002  
  692.00  1.7272E-002  
  692.50  1.7057E-002  
  693.00  1.6823E-002  
  693.50  1.6626E-002  
  694.00  1.6455E-002  
  694.50  1.6213E-002  
  695.00  1.5958E-002  
  695.50  1.5744E-002  
  696.00  1.5521E-002  
  696.50  1.5312E-002  
  697.00  1.5094E-002  
  697.50  1.4938E-002  
  698.00  1.4759E-002  
  698.50  1.4537E-002  
  699.00  1.4327E-002  
  699.50  1.4148E-002  
  700.00  1.4010E-002  
  700.50  1.3835E-002  
  701.00  1.3637E-002  
  701.50  1.3395E-002  
  702.00  1.3140E-002  
  702.50  1.2912E-002  
  703.00  1.2734E-002  
  703.50  1.2631E-002  
  704.00  1.2456E-002  
  704.50  1.2326E-002  
  705.00  1.2174E-002  
  705.50  1.2056E-002  
  706.00  1.1819E-002  
  706.50  1.1558E-002  
  707.00  1.1337E-002  
  707.50  1.1298E-002  
  708.00  1.1227E-002  
  708.50  1.1103E-002  
  709.00  1.0868E-002  
  709.50  1.0775E-002  
  710.00  1.0595E-002  
  710.50  1.0396E-002  
  711.00  1.0240E-002  
  711.50  1.0223E-002  
  712.00  1.0107E-002  
  712.50  9.9226E-003  
  713.00  9.8044E-003  
  713.50  9.7170E-003  
  714.00  9.5935E-003  
  714.50  9.4466E-003  
  715.00  9.2835E-003  
  715.50  9.1524E-003  
  716.00  9.0580E-003  
  716.50  9.0186E-003  
  717.00  8.8793E-003  
  717.50  8.7776E-003  
  718.00  8.7158E-003  
  718.50  8.6898E-003  
  719.00  8.5854E-003  
  719.50  8.4397E-003  
  720.00  8.2688E-003  
  720.50  8.1140E-003  
  721.00  7.9385E-003  
  721.50  7.7202E-003  
  722.00  7.4749E-003  
  722.50  7.2552E-003  
  723.00  7.1271E-003  
  723.50  7.0639E-003  
  724.00  7.0591E-003  
  724.50  7.0760E-003  
  725.00  7.1576E-003  
  725.50  7.1017E-003  
  726.00  7.0302E-003  
  726.50  6.8390E-003  
  727.00  6.6401E-003  
  727.50  6.4120E-003  
  728.00  6.3953E-003  
  728.50  6.3889E-003  
  729.00  6.4028E-003  
  729.50  6.3364E-003  
  730.00  6.3178E-003  
  730.50  6.1950E-003  
  731.00  6.0677E-003  
  731.50  5.9314E-003  
  732.00  5.8058E-003  
  732.50  5.6581E-003  
  733.00  5.6744E-003  
  733.50  5.6732E-003  
  734.00  5.6330E-003  
  734.50  5.5186E-003  
  735.00  5.4108E-003  
  735.50  5.2865E-003  
  736.00  5.1206E-003  
  736.50  4.9658E-003  
  737.00  4.8853E-003  
  737.50  4.7955E-003  
  738.00  4.7226E-003  
  738.50  4.6472E-003  
  739.00  4.6226E-003  
  739.50  4.6750E-003  
  740.00  4.7447E-003  
  740.50  4.8098E-003  
  741.00  4.7551E-003  
  741.50  4.6332E-003  
  742.00  4.5441E-003  
  742.50  4.3824E-003  
  743.00  4.2265E-003  
  743.50  4.0419E-003  
  744.00  3.9324E-003  
  744.50  3.8854E-003  
  745.00  3.9137E-003  
  745.50  4.0056E-003  
  746.00  3.9741E-003  
  746.50  3.7450E-003  
  747.00  3.6334E-003  
  747.50  3.6185E-003  
  748.00  3.6190E-003  
  748.50  3.5338E-003  
  749.00  3.4783E-003  
  749.50  3.4895E-003  
  750.00  3.4665E-003  
  750.50  3.5058E-003  
  751.00  3.5988E-003  
  751.50  3.6504E-003  
  752.00  3.4746E-003  
  752.50  3.3016E-003  
  753.00  3.1730E-003  
  753.50  3.1257E-003  
  754.00  3.0888E-003  
  754.50  3.0262E-003  
  755.00  3.0738E-003  
  755.50  3.0634E-003  
  756.00  3.0225E-003  
  756.50  2.9267E-003  
  757.00  2.8290E-003  
  757.50  2.7295E-003  
  758.00  2.6470E-003  
  758.50  2.6379E-003  
  759.00  2.5982E-003  
  759.50  2.5288E-003  
  760.00  2.3854E-003  
  760.50  2.3226E-003  
  761.00  2.4589E-003  
  761.50  2.5980E-003  
  762.00  2.5376E-003  
  762.50  2.2609E-003  
  763.00  2.1506E-003  
  763.50  2.2910E-003  
  764.00  2.2494E-003  
  764.50  2.0265E-003  
  765.00  1.9216E-003  
  765.50  2.0295E-003  
  766.00  2.0567E-003  
  766.50  2.1236E-003  
  767.00  2.0409E-003  
  767.50  1.9204E-003  
  768.00  1.8549E-003  
  768.50  1.8683E-003  
  769.00  1.7742E-003  
  769.50  1.5918E-003  
  770.00  1.5303E-003  
  770.50  1.5658E-003  
  771.00  1.7073E-003  
  771.50  1.7501E-003  
  772.00  1.6094E-003  
  772.50  1.3844E-003  
  773.00  1.3874E-003  
  773.50  1.5579E-003  
  774.00  1.7644E-003  
  774.50  1.6052E-003  
  775.00  1.4105E-003  
  775.50  1.3481E-003  
  776.00  1.4198E-003  
  776.50  1.3073E-003  
  777.00  1.1276E-003  
  777.50  1.0410E-003  
  778.00  1.0155E-003  
  778.50  1.1919E-003  
  779.00  1.2193E-003  
  779.50  1.1496E-003  
  780.00  1.1060E-003  
  780.50  1.0890E-003  
  781.00  1.1000E-003  
  781.50  1.1322E-003  
  782.00  1.2196E-003  
  782.50  1.1686E-003  
  783.00  8.5021E-004  
  783.50  5.5977E-004  
  784.00  4.4023E-004  
  784.50  5.5537E-004  
  785.00  7.4487E-004  
  785.50  8.3976E-004  
  786.00  8.5054E-004  
  786.50  7.7593E-004  
  787.00  8.9051E-004  
  787.50  9.0126E-004  
  788.00  7.0213E-004  
  788.50  4.1527E-004  
  789.00  5.6703E-004  
  789.50  6.5746E-004  
  790.00  5.6866E-004  
  790.50  4.2297E-004  
  791.00  6.3966E-004  
  791.50  9.5975E-004  
  792.00  9.9864E-004  
  792.50  6.7664E-004  
  793.00  5.6726E-004  
  793.50  4.0472E-004  
  794.00  4.8196E-004  
  794.50  5.6335E-004  
  795.00  6.2564E-004  
  795.50  5.2788E-004  
  796.00  4.4827E-004  
  796.50  2.6294E-004  
  797.00  6.7232E-005  
  797.50  0.0000E+000  
  798.00  0.0000E+000  
  798.50  1.9941E-004  
  799.00  5.7712E-004  
  799.50  6.4634E-004  
  800.00  4.1264E-004  
  800.50  2.3356E-004  
  801.00  2.6325E-004  
  801.50  3.1342E-004  
  802.00  2.7436E-004  
  802.50  1.0536E-004  
  803.00  2.1646E-004  
  803.50  3.0126E-004  
  804.00  3.7719E-004  
  804.50  1.3075E-004  
  805.00  4.1138E-005  
  805.50  5.5819E-006  
  806.00  0.0000E+000  
  806.50  0.0000E+000  
  807.00  0.0000E+000  
  807.50  8.0463E-005  
  808.00  0.0000E+000  
  808.50  0.0000E+000  
  809.00  3.7387E-005  
  809.50  2.8522E-005  
  810.00  0.0000E+000  
  810.50  0.0000E+000  
  811.00  0.0000E+000  
  811.50  0.0000E+000  
  812.00  2.0619E-005  
  812.50  5.4605E-005  
  813.00  0.0000E+000  
  813.50  0.0000E+000  
  814.00  0.0000E+000  
  814.50  0.0000E+000  
  815.00  1.6397E-005  
  815.50  0.0000E+000  
  816.00  0.0000E+000  
  816.50  0.0000E+000  
  817.00  1.1972E-004  
  817.50  2.0037E-005  
  818.00  0.0000E+000  
  818.50  0.0000E+000  
  819.00  0.0000E+000  
  819.50  0.0000E+000  
  820.00  0.0000E+000  
  820.50  0.0000E+000  
  821.00  0.0000E+000  
  821.50  0.0000E+000  
  822.00  0.0000E+000  
  822.50  0.0000E+000  
  823.00  0.0000E+000  
  823.50  1.2514E-005  
  824.00  0.0000E+000  
  824.50  0.0000E+000  
  825.00  0.0000E+000  
  825.50  5.6610E-005  
  826.00  0.0000E+000  
  826.50  0.0000E+000  
  827.00  0.0000E+000  
  827.50  0.0000E+000  
  828.00  0.0000E+000  
  828.50  0.0000E+000  
  829.00  0.0000E+000  
  829.50  0.0000E+000  
  830.00  0.0000E+000  
  830.50  0.0000E+000  
  831.00  0.0000E+000  
  831.50  0.0000E+000  
  832.00  0.0000E+000  
  832.50  0.0000E+000  
  833.00  0.0000E+000  
  833.50  0.0000E+000  
  834.00  0.0000E+000  
  834.50  0.0000E+000  
  835.00  0.0000E+000  
  835.50  0.0000E+000  
  836.00  0.0000E+000  
  836.50  0.0000E+000  
  837.00  0.0000E+000  
  837.50  0.0000E+000  
  838.00  0.0000E+000  
  838.50  0.0000E+000  
  839.00  0.0000E+000  
  839.50  0.0000E+000  
  840.00  0.0000E+000  
  840.50  0.0000E+000  
  841.00  0.0000E+000  
  841.50  0.0000E+000  
  842.00  0.0000E+000  
  842.50  0.0000E+000  
  843.00  0.0000E+000  
  843.50  0.0000E+000  
  844.00  0.0000E+000  
  844.50  0.0000E+000  
  845.00  0.0000E+000  
  845.50  0.0000E+000  
  846.00  0.0000E+000  
  846.50  0.0000E+000  
  847.00  0.0000E+000  
  847.50  2.9766E-005  
  848.00  0.0000E+000  
  848.50  0.0000E+000  
  849.00  0.0000E+000  
  849.50  0.0000E+000  
  850.00  0.0000E+000  
  850.50  0.0000E+000  
  851.00  0.0000E+000  
  851.50  0.0000E+000  
  852.00  0.0000E+000  
  852.50  0.0000E+000  
  853.00  0.0000E+000  
  853.50  0.0000E+000  
  854.00  0.0000E+000  
  854.50  0.0000E+000  
  855.00  0.0000E+000  
  855.50  0.0000E+000  
  856.00  0.0000E+000  
  856.50  0.0000E+000  
  857.00  0.0000E+000  
  857.50  0.0000E+000  
  858.00  0.0000E+000  
  858.50  0.0000E+000  
  859.00  0.0000E+000  
  859.50  0.0000E+000  
  860.00  0.0000E+000  
  860.50  0.0000E+000  
  861.00  0.0000E+000  
  861.50  0.0000E+000  
  862.00  0.0000E+000  
  862.50  0.0000E+000  
  863.00  0.0000E+000  
  863.50  0.0000E+000  
  864.00  0.0000E+000  
  864.50  0.0000E+000  
  865.00  2.3585E-004  
  865.50  5.1242E-004  
  866.00  4.1514E-004  
  866.50  8.8622E-007  
  867.00  0.0000E+000  
  867.50  8.4028E-005  
  868.00  5.1666E-004  
  868.50  3.0356E-004  
  869.00  1.8749E-004  
  869.50  1.6037E-004  
  870.00  1.6531E-005  
  870.50  0.0000E+000  
  871.00  0.0000E+000  
  871.50  0.0000E+000  
  872.00  0.0000E+000  
  872.50  0.0000E+000  
  873.00  0.0000E+000  
  873.50  0.0000E+000  
  874.00  0.0000E+000  
  874.50  0.0000E+000  
  875.00  0.0000E+000  
  875.50  0.0000E+000  
  876.00  0.0000E+000  
  876.50  2.9669E-004  
  877.00  9.2093E-004  
  877.50  2.6421E-004  
  878.00  0.0000E+000  
  878.50  0.0000E+000  
  879.00  2.1876E-004  
  879.50  6.7258E-004  
  880.00  8.4194E-004  
  880.50  5.9172E-004  
  881.00  4.9442E-005  
  881.50  0.0000E+000  
  882.00  1.1570E-004  
  882.50  1.0113E-003  
  883.00  1.3495E-003  
  883.50  9.5110E-004  
  884.00  3.3428E-004  
  884.50  3.3447E-004  
  885.00  7.2581E-004  
  885.50  8.7528E-004  
  886.00  1.0581E-003  
  886.50  1.5627E-003  
  887.00  2.3402E-003  
  887.50  2.2750E-003  
  888.00  1.6796E-003  
  888.50  1.8841E-003  
  889.00  2.1227E-003  
  889.50  1.7372E-003  
  890.00  1.8572E-003  
  890.50  1.2830E-003  
  891.00  7.8846E-004  
  891.50  1.3336E-003  
  892.00  9.4530E-004  
  892.50  7.2738E-004  
  893.00  8.8551E-004  
  893.50  6.4637E-004  
  894.00  6.8048E-004  
  894.50  2.0257E-003  
  895.00  3.0887E-003  
  895.50  3.0365E-003  
  896.00  2.6711E-003  
  896.50  1.6177E-003  
  897.00  1.0532E-003  
  897.50  7.2056E-004  
  898.00  9.9083E-004  
  898.50  1.0308E-003  
  899.00  9.9370E-004  
  899.50  1.8453E-005  
