
# From lspdd.org
# 
# Name: DEL Globe A19 Domestique
# Indice spectral Valeur 
# MSI 0.60 
# SLI 0.75 
# IPI 0.69 
# Pourcentage de bleu 37.3 
# Caractéristique Valeur 
# CCT calculée (K) 5060 
# CCT du fabricant (K) 5000 
# Tension (V) 120 
# Puissance (W) 4.0 
# Efficacité lumineuse (Lum/W) 50.0 
#
# Image: '/app/system/img_1s/2592/medium_image1.jpg?1413486541'
# 

  273.00  0.0000E+000  
  273.50  0.0000E+000  
  274.00  0.0000E+000  
  274.50  0.0000E+000  
  275.00  0.0000E+000  
  275.50  0.0000E+000  
  276.00  0.0000E+000  
  276.50  0.0000E+000  
  277.00  0.0000E+000  
  277.50  0.0000E+000  
  278.00  0.0000E+000  
  278.50  0.0000E+000  
  279.00  0.0000E+000  
  279.50  0.0000E+000  
  280.00  0.0000E+000  
  280.50  0.0000E+000  
  281.00  0.0000E+000  
  281.50  0.0000E+000  
  282.00  0.0000E+000  
  282.50  0.0000E+000  
  283.00  0.0000E+000  
  283.50  0.0000E+000  
  284.00  0.0000E+000  
  284.50  0.0000E+000  
  285.00  0.0000E+000  
  285.50  0.0000E+000  
  286.00  0.0000E+000  
  286.50  0.0000E+000  
  287.00  0.0000E+000  
  287.50  0.0000E+000  
  288.00  0.0000E+000  
  288.50  0.0000E+000  
  289.00  0.0000E+000  
  289.50  0.0000E+000  
  290.00  0.0000E+000  
  290.50  0.0000E+000  
  291.00  0.0000E+000  
  291.50  0.0000E+000  
  292.00  0.0000E+000  
  292.50  0.0000E+000  
  293.00  0.0000E+000  
  293.50  0.0000E+000  
  294.00  0.0000E+000  
  294.50  0.0000E+000  
  295.00  0.0000E+000  
  295.50  0.0000E+000  
  296.00  0.0000E+000  
  296.50  0.0000E+000  
  297.00  0.0000E+000  
  297.50  0.0000E+000  
  298.00  0.0000E+000  
  298.50  0.0000E+000  
  299.00  0.0000E+000  
  299.50  0.0000E+000  
  300.00  2.2834E-005  
  300.50  9.4998E-005  
  301.00  1.4258E-004  
  301.50  1.0864E-004  
  302.00  1.3236E-004  
  302.50  1.3293E-004  
  303.00  1.0366E-004  
  303.50  1.3485E-004  
  304.00  1.1658E-004  
  304.50  7.6669E-005  
  305.00  8.9224E-005  
  305.50  1.0770E-004  
  306.00  1.4266E-004  
  306.50  1.9079E-004  
  307.00  1.6154E-004  
  307.50  1.2349E-004  
  308.00  4.9627E-005  
  308.50  5.8785E-006  
  309.00  2.0464E-005  
  309.50  3.1295E-005  
  310.00  9.1481E-005  
  310.50  1.4650E-004  
  311.00  1.8301E-004  
  311.50  2.6563E-004  
  312.00  2.9875E-004  
  312.50  3.0290E-004  
  313.00  3.3998E-004  
  313.50  3.0053E-004  
  314.00  2.5975E-004  
  314.50  1.9619E-004  
  315.00  9.5444E-005  
  315.50  3.3103E-005  
  316.00  2.2893E-005  
  316.50  3.2949E-005  
  317.00  4.5120E-005  
  317.50  1.1041E-004  
  318.00  1.9266E-004  
  318.50  2.5764E-004  
  319.00  2.9626E-004  
  319.50  2.8152E-004  
  320.00  2.7076E-004  
  320.50  2.2506E-004  
  321.00  1.9322E-004  
  321.50  1.4647E-004  
  322.00  1.0623E-004  
  322.50  1.5515E-004  
  323.00  2.0280E-004  
  323.50  2.5022E-004  
  324.00  2.1912E-004  
  324.50  1.7150E-004  
  325.00  1.4262E-004  
  325.50  1.3952E-004  
  326.00  1.5961E-004  
  326.50  1.7922E-004  
  327.00  1.8829E-004  
  327.50  2.0953E-004  
  328.00  2.6005E-004  
  328.50  2.7783E-004  
  329.00  2.6095E-004  
  329.50  2.2047E-004  
  330.00  2.0805E-004  
  330.50  2.1377E-004  
  331.00  2.4928E-004  
  331.50  2.7693E-004  
  332.00  2.6272E-004  
  332.50  2.3571E-004  
  333.00  1.6485E-004  
  333.50  1.3083E-004  
  334.00  1.0880E-004  
  334.50  1.1590E-004  
  335.00  1.7915E-004  
  335.50  2.1119E-004  
  336.00  2.3983E-004  
  336.50  2.2346E-004  
  337.00  1.5940E-004  
  337.50  1.5938E-004  
  338.00  1.4855E-004  
  338.50  1.5630E-004  
  339.00  2.0499E-004  
  339.50  1.9271E-004  
  340.00  1.9011E-004  
  340.50  2.3348E-004  
  341.00  2.1641E-004  
  341.50  2.2874E-004  
  342.00  2.4767E-004  
  342.50  2.4962E-004  
  343.00  2.5552E-004  
  343.50  2.4999E-004  
  344.00  2.8143E-004  
  344.50  3.1163E-004  
  345.00  3.1644E-004  
  345.50  3.2532E-004  
  346.00  3.1774E-004  
  346.50  3.5086E-004  
  347.00  3.8599E-004  
  347.50  3.6324E-004  
  348.00  2.7299E-004  
  348.50  2.2058E-004  
  349.00  2.2891E-004  
  349.50  2.8776E-004  
  350.00  3.7829E-004  
  350.50  3.8602E-004  
  351.00  3.8676E-004  
  351.50  3.8421E-004  
  352.00  3.5786E-004  
  352.50  3.7676E-004  
  353.00  3.3187E-004  
  353.50  2.7196E-004  
  354.00  2.5584E-004  
  354.50  2.4641E-004  
  355.00  2.6008E-004  
  355.50  2.9283E-004  
  356.00  2.8534E-004  
  356.50  2.7435E-004  
  357.00  2.8518E-004  
  357.50  3.0077E-004  
  358.00  3.2891E-004  
  358.50  3.3729E-004  
  359.00  2.7380E-004  
  359.50  2.1568E-004  
  360.00  2.1929E-004  
  360.50  2.7419E-004  
  361.00  3.5288E-004  
  361.50  3.6342E-004  
  362.00  3.5511E-004  
  362.50  3.5112E-004  
  363.00  3.1884E-004  
  363.50  3.3141E-004  
  364.00  3.0067E-004  
  364.50  3.0549E-004  
  365.00  3.6540E-004  
  365.50  3.7614E-004  
  366.00  3.5586E-004  
  366.50  3.6864E-004  
  367.00  3.6452E-004  
  367.50  3.5481E-004  
  368.00  3.8003E-004  
  368.50  3.9098E-004  
  369.00  4.0535E-004  
  369.50  4.1663E-004  
  370.00  4.3585E-004  
  370.50  4.1347E-004  
  371.00  4.2523E-004  
  371.50  4.9584E-004  
  372.00  4.8184E-004  
  372.50  4.8876E-004  
  373.00  4.5676E-004  
  373.50  4.6052E-004  
  374.00  4.8299E-004  
  374.50  4.4562E-004  
  375.00  4.1056E-004  
  375.50  3.1963E-004  
  376.00  3.0595E-004  
  376.50  3.3728E-004  
  377.00  3.3572E-004  
  377.50  3.1884E-004  
  378.00  3.1371E-004  
  378.50  3.4442E-004  
  379.00  3.6378E-004  
  379.50  3.9373E-004  
  380.00  3.8237E-004  
  380.50  3.7163E-004  
  381.00  3.8732E-004  
  381.50  4.0492E-004  
  382.00  3.9798E-004  
  382.50  4.0033E-004  
  383.00  4.0534E-004  
  383.50  3.7838E-004  
  384.00  3.6874E-004  
  384.50  3.7105E-004  
  385.00  3.6932E-004  
  385.50  3.6960E-004  
  386.00  3.4838E-004  
  386.50  3.3434E-004  
  387.00  3.6113E-004  
  387.50  3.7863E-004  
  388.00  4.0531E-004  
  388.50  4.1201E-004  
  389.00  4.2593E-004  
  389.50  4.5341E-004  
  390.00  4.8836E-004  
  390.50  5.4475E-004  
  391.00  5.3972E-004  
  391.50  5.1425E-004  
  392.00  4.9775E-004  
  392.50  4.9796E-004  
  393.00  4.9898E-004  
  393.50  5.2921E-004  
  394.00  4.9353E-004  
  394.50  4.6583E-004  
  395.00  5.0053E-004  
  395.50  5.4745E-004  
  396.00  6.1246E-004  
  396.50  6.6792E-004  
  397.00  6.7388E-004  
  397.50  6.4765E-004  
  398.00  6.5006E-004  
  398.50  6.3238E-004  
  399.00  6.1869E-004  
  399.50  6.1311E-004  
  400.00  6.2318E-004  
  400.50  6.7371E-004  
  401.00  7.3976E-004  
  401.50  7.4249E-004  
  402.00  7.3936E-004  
  402.50  7.3813E-004  
  403.00  7.6257E-004  
  403.50  8.1016E-004  
  404.00  8.8923E-004  
  404.50  9.4579E-004  
  405.00  9.8948E-004  
  405.50  1.0111E-003  
  406.00  1.0293E-003  
  406.50  1.0730E-003  
  407.00  1.1463E-003  
  407.50  1.1736E-003  
  408.00  1.1869E-003  
  408.50  1.1409E-003  
  409.00  1.1461E-003  
  409.50  1.1529E-003  
  410.00  1.2009E-003  
  410.50  1.2937E-003  
  411.00  1.4079E-003  
  411.50  1.5542E-003  
  412.00  1.6362E-003  
  412.50  1.7067E-003  
  413.00  1.7621E-003  
  413.50  1.8448E-003  
  414.00  1.9856E-003  
  414.50  2.1031E-003  
  415.00  2.2420E-003  
  415.50  2.3981E-003  
  416.00  2.5803E-003  
  416.50  2.7562E-003  
  417.00  2.9442E-003  
  417.50  3.2017E-003  
  418.00  3.4576E-003  
  418.50  3.7673E-003  
  419.00  4.0593E-003  
  419.50  4.3393E-003  
  420.00  4.6372E-003  
  420.50  4.9633E-003  
  421.00  5.2909E-003  
  421.50  5.6688E-003  
  422.00  6.1324E-003  
  422.50  6.6026E-003  
  423.00  7.1714E-003  
  423.50  7.6830E-003  
  424.00  8.2628E-003  
  424.50  8.8462E-003  
  425.00  9.4632E-003  
  425.50  1.0123E-002  
  426.00  1.0811E-002  
  426.50  1.1642E-002  
  427.00  1.2533E-002  
  427.50  1.3515E-002  
  428.00  1.4513E-002  
  428.50  1.5476E-002  
  429.00  1.6520E-002  
  429.50  1.7684E-002  
  430.00  1.9001E-002  
  430.50  2.0475E-002  
  431.00  2.1889E-002  
  431.50  2.3311E-002  
  432.00  2.4838E-002  
  432.50  2.6470E-002  
  433.00  2.8208E-002  
  433.50  2.9903E-002  
  434.00  3.1771E-002  
  434.50  3.3992E-002  
  435.00  3.6587E-002  
  435.50  3.9274E-002  
  436.00  4.1879E-002  
  436.50  4.4484E-002  
  437.00  4.7316E-002  
  437.50  5.0406E-002  
  438.00  5.3738E-002  
  438.50  5.7019E-002  
  439.00  6.0507E-002  
  439.50  6.4243E-002  
  440.00  6.8223E-002  
  440.50  7.2521E-002  
  441.00  7.6801E-002  
  441.50  8.1213E-002  
  442.00  8.5934E-002  
  442.50  9.0648E-002  
  443.00  9.5476E-002  
  443.50  1.0006E-001  
  444.00  1.0451E-001  
  444.50  1.0900E-001  
  445.00  1.1338E-001  
  445.50  1.1738E-001  
  446.00  1.2095E-001  
  446.50  1.2383E-001  
  447.00  1.2635E-001  
  447.50  1.2865E-001  
  448.00  1.3033E-001  
  448.50  1.3142E-001  
  449.00  1.3193E-001  
  449.50  1.3201E-001  
  450.00  1.3172E-001  
  450.50  1.3071E-001  
  451.00  1.2910E-001  
  451.50  1.2664E-001  
  452.00  1.2403E-001  
  452.50  1.2098E-001  
  453.00  1.1759E-001  
  453.50  1.1393E-001  
  454.00  1.1000E-001  
  454.50  1.0603E-001  
  455.00  1.0242E-001  
  455.50  9.8641E-002  
  456.00  9.4860E-002  
  456.50  9.1321E-002  
  457.00  8.8013E-002  
  457.50  8.4927E-002  
  458.00  8.1818E-002  
  458.50  7.8598E-002  
  459.00  7.5564E-002  
  459.50  7.2930E-002  
  460.00  7.0648E-002  
  460.50  6.8639E-002  
  461.00  6.6606E-002  
  461.50  6.4466E-002  
  462.00  6.2376E-002  
  462.50  6.0542E-002  
  463.00  5.8847E-002  
  463.50  5.7217E-002  
  464.00  5.5499E-002  
  464.50  5.3695E-002  
  465.00  5.2052E-002  
  465.50  5.0432E-002  
  466.00  4.8724E-002  
  466.50  4.7036E-002  
  467.00  4.5348E-002  
  467.50  4.3812E-002  
  468.00  4.2293E-002  
  468.50  4.0779E-002  
  469.00  3.9233E-002  
  469.50  3.7733E-002  
  470.00  3.6307E-002  
  470.50  3.4961E-002  
  471.00  3.3686E-002  
  471.50  3.2472E-002  
  472.00  3.1354E-002  
  472.50  3.0283E-002  
  473.00  2.9350E-002  
  473.50  2.8552E-002  
  474.00  2.7731E-002  
  474.50  2.6877E-002  
  475.00  2.5944E-002  
  475.50  2.5117E-002  
  476.00  2.4455E-002  
  476.50  2.3933E-002  
  477.00  2.3486E-002  
  477.50  2.3017E-002  
  478.00  2.2560E-002  
  478.50  2.2156E-002  
  479.00  2.1767E-002  
  479.50  2.1389E-002  
  480.00  2.1051E-002  
  480.50  2.0745E-002  
  481.00  2.0522E-002  
  481.50  2.0319E-002  
  482.00  2.0124E-002  
  482.50  1.9912E-002  
  483.00  1.9760E-002  
  483.50  1.9605E-002  
  484.00  1.9488E-002  
  484.50  1.9397E-002  
  485.00  1.9316E-002  
  485.50  1.9330E-002  
  486.00  1.9318E-002  
  486.50  1.9366E-002  
  487.00  1.9390E-002  
  487.50  1.9448E-002  
  488.00  1.9574E-002  
  488.50  1.9741E-002  
  489.00  1.9976E-002  
  489.50  2.0220E-002  
  490.00  2.0439E-002  
  490.50  2.0678E-002  
  491.00  2.0911E-002  
  491.50  2.1192E-002  
  492.00  2.1540E-002  
  492.50  2.1963E-002  
  493.00  2.2420E-002  
  493.50  2.2889E-002  
  494.00  2.3330E-002  
  494.50  2.3788E-002  
  495.00  2.4251E-002  
  495.50  2.4815E-002  
  496.00  2.5447E-002  
  496.50  2.6095E-002  
  497.00  2.6773E-002  
  497.50  2.7398E-002  
  498.00  2.7960E-002  
  498.50  2.8575E-002  
  499.00  2.9216E-002  
  499.50  2.9975E-002  
  500.00  3.0763E-002  
  500.50  3.1502E-002  
  501.00  3.2190E-002  
  501.50  3.2872E-002  
  502.00  3.3627E-002  
  502.50  3.4407E-002  
  503.00  3.5221E-002  
  503.50  3.6013E-002  
  504.00  3.6860E-002  
  504.50  3.7732E-002  
  505.00  3.8581E-002  
  505.50  3.9394E-002  
  506.00  4.0162E-002  
  506.50  4.0934E-002  
  507.00  4.1749E-002  
  507.50  4.2656E-002  
  508.00  4.3619E-002  
  508.50  4.4604E-002  
  509.00  4.5495E-002  
  509.50  4.6289E-002  
  510.00  4.7099E-002  
  510.50  4.7920E-002  
  511.00  4.8784E-002  
  511.50  4.9621E-002  
  512.00  5.0466E-002  
  512.50  5.1313E-002  
  513.00  5.2134E-002  
  513.50  5.2900E-002  
  514.00  5.3572E-002  
  514.50  5.4361E-002  
  515.00  5.5194E-002  
  515.50  5.6065E-002  
  516.00  5.6815E-002  
  516.50  5.7465E-002  
  517.00  5.8133E-002  
  517.50  5.8807E-002  
  518.00  5.9539E-002  
  518.50  6.0352E-002  
  519.00  6.1154E-002  
  519.50  6.1814E-002  
  520.00  6.2441E-002  
  520.50  6.2970E-002  
  521.00  6.3549E-002  
  521.50  6.4095E-002  
  522.00  6.4690E-002  
  522.50  6.5357E-002  
  523.00  6.6093E-002  
  523.50  6.6761E-002  
  524.00  6.7331E-002  
  524.50  6.7862E-002  
  525.00  6.8339E-002  
  525.50  6.8770E-002  
  526.00  6.9157E-002  
  526.50  6.9593E-002  
  527.00  7.0068E-002  
  527.50  7.0563E-002  
  528.00  7.0952E-002  
  528.50  7.1326E-002  
  529.00  7.1737E-002  
  529.50  7.2190E-002  
  530.00  7.2627E-002  
  530.50  7.2968E-002  
  531.00  7.3304E-002  
  531.50  7.3475E-002  
  532.00  7.3668E-002  
  532.50  7.3954E-002  
  533.00  7.4255E-002  
  533.50  7.4624E-002  
  534.00  7.4858E-002  
  534.50  7.5087E-002  
  535.00  7.5311E-002  
  535.50  7.5475E-002  
  536.00  7.5647E-002  
  536.50  7.5767E-002  
  537.00  7.5889E-002  
  537.50  7.5991E-002  
  538.00  7.6124E-002  
  538.50  7.6250E-002  
  539.00  7.6385E-002  
  539.50  7.6499E-002  
  540.00  7.6653E-002  
  540.50  7.6822E-002  
  541.00  7.6959E-002  
  541.50  7.7070E-002  
  542.00  7.7196E-002  
  542.50  7.7326E-002  
  543.00  7.7496E-002  
  543.50  7.7560E-002  
  544.00  7.7627E-002  
  544.50  7.7593E-002  
  545.00  7.7582E-002  
  545.50  7.7552E-002  
  546.00  7.7626E-002  
  546.50  7.7675E-002  
  547.00  7.7630E-002  
  547.50  7.7604E-002  
  548.00  7.7649E-002  
  548.50  7.7769E-002  
  549.00  7.7841E-002  
  549.50  7.7714E-002  
  550.00  7.7556E-002  
  550.50  7.7574E-002  
  551.00  7.7623E-002  
  551.50  7.7664E-002  
  552.00  7.7600E-002  
  552.50  7.7435E-002  
  553.00  7.7422E-002  
  553.50  7.7425E-002  
  554.00  7.7428E-002  
  554.50  7.7447E-002  
  555.00  7.7424E-002  
  555.50  7.7450E-002  
  556.00  7.7525E-002  
  556.50  7.7478E-002  
  557.00  7.7478E-002  
  557.50  7.7418E-002  
  558.00  7.7361E-002  
  558.50  7.7312E-002  
  559.00  7.7319E-002  
  559.50  7.7314E-002  
  560.00  7.7334E-002  
  560.50  7.7235E-002  
  561.00  7.7210E-002  
  561.50  7.7112E-002  
  562.00  7.7068E-002  
  562.50  7.6976E-002  
  563.00  7.6955E-002  
  563.50  7.6932E-002  
  564.00  7.6847E-002  
  564.50  7.6713E-002  
  565.00  7.6555E-002  
  565.50  7.6625E-002  
  566.00  7.6716E-002  
  566.50  7.6782E-002  
  567.00  7.6684E-002  
  567.50  7.6537E-002  
  568.00  7.6436E-002  
  568.50  7.6473E-002  
  569.00  7.6444E-002  
  569.50  7.6453E-002  
  570.00  7.6400E-002  
  570.50  7.6461E-002  
  571.00  7.6505E-002  
  571.50  7.6420E-002  
  572.00  7.6345E-002  
  572.50  7.6221E-002  
  573.00  7.6185E-002  
  573.50  7.6098E-002  
  574.00  7.6027E-002  
  574.50  7.6021E-002  
  575.00  7.6030E-002  
  575.50  7.6001E-002  
  576.00  7.5960E-002  
  576.50  7.5914E-002  
  577.00  7.5895E-002  
  577.50  7.5927E-002  
  578.00  7.5937E-002  
  578.50  7.5943E-002  
  579.00  7.5843E-002  
  579.50  7.5671E-002  
  580.00  7.5569E-002  
  580.50  7.5560E-002  
  581.00  7.5566E-002  
  581.50  7.5562E-002  
  582.00  7.5424E-002  
  582.50  7.5354E-002  
  583.00  7.5283E-002  
  583.50  7.5387E-002  
  584.00  7.5446E-002  
  584.50  7.5396E-002  
  585.00  7.5138E-002  
  585.50  7.4956E-002  
  586.00  7.4990E-002  
  586.50  7.5167E-002  
  587.00  7.5187E-002  
  587.50  7.4998E-002  
  588.00  7.4762E-002  
  588.50  7.4764E-002  
  589.00  7.4840E-002  
  589.50  7.4830E-002  
  590.00  7.4642E-002  
  590.50  7.4480E-002  
  591.00  7.4435E-002  
  591.50  7.4437E-002  
  592.00  7.4253E-002  
  592.50  7.4016E-002  
  593.00  7.3810E-002  
  593.50  7.3712E-002  
  594.00  7.3637E-002  
  594.50  7.3507E-002  
  595.00  7.3466E-002  
  595.50  7.3263E-002  
  596.00  7.3050E-002  
  596.50  7.2841E-002  
  597.00  7.2698E-002  
  597.50  7.2603E-002  
  598.00  7.2319E-002  
  598.50  7.2047E-002  
  599.00  7.1772E-002  
  599.50  7.1589E-002  
  600.00  7.1463E-002  
  600.50  7.1261E-002  
  601.00  7.0991E-002  
  601.50  7.0629E-002  
  602.00  7.0263E-002  
  602.50  7.0062E-002  
  603.00  6.9945E-002  
  603.50  6.9833E-002  
  604.00  6.9598E-002  
  604.50  6.9299E-002  
  605.00  6.9059E-002  
  605.50  6.8747E-002  
  606.00  6.8389E-002  
  606.50  6.8087E-002  
  607.00  6.7840E-002  
  607.50  6.7646E-002  
  608.00  6.7419E-002  
  608.50  6.7164E-002  
  609.00  6.6850E-002  
  609.50  6.6452E-002  
  610.00  6.5959E-002  
  610.50  6.5551E-002  
  611.00  6.5260E-002  
  611.50  6.4972E-002  
  612.00  6.4637E-002  
  612.50  6.4181E-002  
  613.00  6.3901E-002  
  613.50  6.3670E-002  
  614.00  6.3391E-002  
  614.50  6.3069E-002  
  615.00  6.2658E-002  
  615.50  6.2209E-002  
  616.00  6.1744E-002  
  616.50  6.1333E-002  
  617.00  6.0994E-002  
  617.50  6.0587E-002  
  618.00  6.0284E-002  
  618.50  6.0048E-002  
  619.00  5.9827E-002  
  619.50  5.9460E-002  
  620.00  5.8992E-002  
  620.50  5.8436E-002  
  621.00  5.7958E-002  
  621.50  5.7540E-002  
  622.00  5.7233E-002  
  622.50  5.6802E-002  
  623.00  5.6283E-002  
  623.50  5.5854E-002  
  624.00  5.5514E-002  
  624.50  5.5224E-002  
  625.00  5.4803E-002  
  625.50  5.4386E-002  
  626.00  5.3958E-002  
  626.50  5.3620E-002  
  627.00  5.3281E-002  
  627.50  5.2877E-002  
  628.00  5.2380E-002  
  628.50  5.1798E-002  
  629.00  5.1262E-002  
  629.50  5.0710E-002  
  630.00  5.0293E-002  
  630.50  4.9996E-002  
  631.00  4.9779E-002  
  631.50  4.9447E-002  
  632.00  4.8952E-002  
  632.50  4.8392E-002  
  633.00  4.7959E-002  
  633.50  4.7547E-002  
  634.00  4.7137E-002  
  634.50  4.6690E-002  
  635.00  4.6266E-002  
  635.50  4.5819E-002  
  636.00  4.5382E-002  
  636.50  4.4939E-002  
  637.00  4.4669E-002  
  637.50  4.4286E-002  
  638.00  4.3940E-002  
  638.50  4.3482E-002  
  639.00  4.3094E-002  
  639.50  4.2671E-002  
  640.00  4.2247E-002  
  640.50  4.1807E-002  
  641.00  4.1374E-002  
  641.50  4.0999E-002  
  642.00  4.0589E-002  
  642.50  4.0118E-002  
  643.00  3.9699E-002  
  643.50  3.9335E-002  
  644.00  3.9074E-002  
  644.50  3.8693E-002  
  645.00  3.8246E-002  
  645.50  3.7755E-002  
  646.00  3.7313E-002  
  646.50  3.6922E-002  
  647.00  3.6543E-002  
  647.50  3.6129E-002  
  648.00  3.5707E-002  
  648.50  3.5331E-002  
  649.00  3.4952E-002  
  649.50  3.4643E-002  
  650.00  3.4321E-002  
  650.50  3.3979E-002  
  651.00  3.3607E-002  
  651.50  3.3153E-002  
  652.00  3.2736E-002  
  652.50  3.2366E-002  
  653.00  3.2002E-002  
  653.50  3.1648E-002  
  654.00  3.1307E-002  
  654.50  3.1000E-002  
  655.00  3.0676E-002  
  655.50  3.0292E-002  
  656.00  2.9910E-002  
  656.50  2.9565E-002  
  657.00  2.9138E-002  
  657.50  2.8671E-002  
  658.00  2.8246E-002  
  658.50  2.7955E-002  
  659.00  2.7684E-002  
  659.50  2.7462E-002  
  660.00  2.7227E-002  
  660.50  2.7008E-002  
  661.00  2.6667E-002  
  661.50  2.6276E-002  
  662.00  2.5931E-002  
  662.50  2.5612E-002  
  663.00  2.5291E-002  
  663.50  2.4931E-002  
  664.00  2.4598E-002  
  664.50  2.4190E-002  
  665.00  2.3856E-002  
  665.50  2.3547E-002  
  666.00  2.3230E-002  
  666.50  2.2894E-002  
  667.00  2.2568E-002  
  667.50  2.2429E-002  
  668.00  2.2178E-002  
  668.50  2.1931E-002  
  669.00  2.1651E-002  
  669.50  2.1393E-002  
  670.00  2.1071E-002  
  670.50  2.0830E-002  
  671.00  2.0602E-002  
  671.50  2.0276E-002  
  672.00  1.9889E-002  
  672.50  1.9602E-002  
  673.00  1.9481E-002  
  673.50  1.9345E-002  
  674.00  1.9144E-002  
  674.50  1.8901E-002  
  675.00  1.8594E-002  
  675.50  1.8310E-002  
  676.00  1.7981E-002  
  676.50  1.7770E-002  
  677.00  1.7580E-002  
  677.50  1.7445E-002  
  678.00  1.7201E-002  
  678.50  1.6958E-002  
  679.00  1.6779E-002  
  679.50  1.6649E-002  
  680.00  1.6452E-002  
  680.50  1.6159E-002  
  681.00  1.5917E-002  
  681.50  1.5772E-002  
  682.00  1.5630E-002  
  682.50  1.5388E-002  
  683.00  1.5038E-002  
  683.50  1.4727E-002  
  684.00  1.4502E-002  
  684.50  1.4346E-002  
  685.00  1.4167E-002  
  685.50  1.3940E-002  
  686.00  1.3763E-002  
  686.50  1.3595E-002  
  687.00  1.3488E-002  
  687.50  1.3311E-002  
  688.00  1.3127E-002  
  688.50  1.2949E-002  
  689.00  1.2815E-002  
  689.50  1.2627E-002  
  690.00  1.2422E-002  
  690.50  1.2298E-002  
  691.00  1.2190E-002  
  691.50  1.2013E-002  
  692.00  1.1763E-002  
  692.50  1.1679E-002  
  693.00  1.1634E-002  
  693.50  1.1522E-002  
  694.00  1.1260E-002  
  694.50  1.0990E-002  
  695.00  1.0818E-002  
  695.50  1.0714E-002  
  696.00  1.0598E-002  
  696.50  1.0516E-002  
  697.00  1.0416E-002  
  697.50  1.0316E-002  
  698.00  1.0101E-002  
  698.50  9.9100E-003  
  699.00  9.7893E-003  
  699.50  9.7268E-003  
  700.00  9.6133E-003  
  700.50  9.4532E-003  
  701.00  9.2591E-003  
  701.50  9.1049E-003  
  702.00  8.9444E-003  
  702.50  8.8220E-003  
  703.00  8.7605E-003  
  703.50  8.6752E-003  
  704.00  8.5518E-003  
  704.50  8.3414E-003  
  705.00  8.1684E-003  
  705.50  8.0039E-003  
  706.00  7.9010E-003  
  706.50  7.8072E-003  
  707.00  7.7981E-003  
  707.50  7.7624E-003  
  708.00  7.6270E-003  
  708.50  7.3729E-003  
  709.00  7.1857E-003  
  709.50  7.1756E-003  
  710.00  7.2196E-003  
  710.50  7.2361E-003  
  711.00  7.1227E-003  
  711.50  7.0098E-003  
  712.00  6.8130E-003  
  712.50  6.7457E-003  
  713.00  6.6963E-003  
  713.50  6.6404E-003  
  714.00  6.4778E-003  
  714.50  6.3566E-003  
  715.00  6.3191E-003  
  715.50  6.2476E-003  
  716.00  6.1528E-003  
  716.50  6.0578E-003  
  717.00  5.9966E-003  
  717.50  5.9421E-003  
  718.00  5.9025E-003  
  718.50  5.8858E-003  
  719.00  5.8688E-003  
  719.50  5.7123E-003  
  720.00  5.5188E-003  
  720.50  5.3744E-003  
  721.00  5.3467E-003  
  721.50  5.2916E-003  
  722.00  5.0951E-003  
  722.50  5.0176E-003  
  723.00  5.1073E-003  
  723.50  5.3106E-003  
  724.00  5.2576E-003  
  724.50  5.1243E-003  
  725.00  4.9462E-003  
  725.50  4.7455E-003  
  726.00  4.5933E-003  
  726.50  4.5504E-003  
  727.00  4.6384E-003  
  727.50  4.7368E-003  
  728.00  4.7982E-003  
  728.50  4.6817E-003  
  729.00  4.4942E-003  
  729.50  4.3086E-003  
  730.00  4.2720E-003  
  730.50  4.2120E-003  
  731.00  4.1782E-003  
  731.50  4.1331E-003  
  732.00  4.1480E-003  
  732.50  4.2249E-003  
  733.00  4.2604E-003  
  733.50  4.1163E-003  
  734.00  3.8839E-003  
  734.50  3.6894E-003  
  735.00  3.6701E-003  
  735.50  3.7082E-003  
  736.00  3.6809E-003  
  736.50  3.6608E-003  
  737.00  3.7022E-003  
  737.50  3.6621E-003  
  738.00  3.5997E-003  
  738.50  3.4501E-003  
  739.00  3.3622E-003  
  739.50  3.3188E-003  
  740.00  3.3926E-003  
  740.50  3.5562E-003  
  741.00  3.4899E-003  
  741.50  3.3665E-003  
  742.00  3.2462E-003  
  742.50  3.1623E-003  
  743.00  3.1061E-003  
  743.50  3.0482E-003  
  744.00  3.0403E-003  
  744.50  2.9805E-003  
  745.00  2.9069E-003  
  745.50  2.8849E-003  
  746.00  2.9258E-003  
  746.50  2.8398E-003  
  747.00  2.8247E-003  
  747.50  2.7590E-003  
  748.00  2.7281E-003  
  748.50  2.5927E-003  
  749.00  2.6474E-003  
  749.50  2.6502E-003  
  750.00  2.6174E-003  
  750.50  2.5595E-003  
  751.00  2.5423E-003  
  751.50  2.4401E-003  
  752.00  2.2544E-003  
  752.50  2.2654E-003  
  753.00  2.3485E-003  
  753.50  2.3778E-003  
  754.00  2.2939E-003  
  754.50  2.2290E-003  
  755.00  2.1832E-003  
  755.50  2.2074E-003  
  756.00  2.2645E-003  
  756.50  2.3294E-003  
  757.00  2.2378E-003  
  757.50  2.0356E-003  
  758.00  2.0281E-003  
  758.50  2.1217E-003  
  759.00  2.2079E-003  
  759.50  2.1446E-003  
  760.00  1.9950E-003  
  760.50  1.8783E-003  
  761.00  1.9316E-003  
  761.50  2.1362E-003  
  762.00  2.2538E-003  
  762.50  2.1023E-003  
  763.00  1.8992E-003  
  763.50  1.7039E-003  
  764.00  1.6161E-003  
  764.50  1.6253E-003  
  765.00  1.7620E-003  
  765.50  1.8208E-003  
  766.00  1.8462E-003  
  766.50  1.7934E-003  
  767.00  1.7496E-003  
  767.50  1.7132E-003  
  768.00  1.7305E-003  
  768.50  1.6694E-003  
  769.00  1.5538E-003  
  769.50  1.4723E-003  
  770.00  1.5174E-003  
  770.50  1.5879E-003  
  771.00  1.6119E-003  
  771.50  1.5504E-003  
  772.00  1.4493E-003  
  772.50  1.4428E-003  
  773.00  1.3603E-003  
  773.50  1.1465E-003  
  774.00  9.3588E-004  
  774.50  1.0333E-003  
  775.00  1.1856E-003  
  775.50  1.3885E-003  
  776.00  1.5293E-003  
  776.50  1.6199E-003  
  777.00  1.5896E-003  
  777.50  1.2497E-003  
  778.00  1.0024E-003  
  778.50  9.3739E-004  
  779.00  1.1831E-003  
  779.50  1.2076E-003  
  780.00  1.2475E-003  
  780.50  1.3789E-003  
  781.00  1.4810E-003  
  781.50  1.3018E-003  
  782.00  1.1485E-003  
  782.50  1.1583E-003  
  783.00  1.2961E-003  
  783.50  1.2190E-003  
  784.00  1.0817E-003  
  784.50  1.0702E-003  
  785.00  1.0874E-003  
  785.50  1.0831E-003  
  786.00  1.2251E-003  
  786.50  1.3146E-003  
  787.00  1.2478E-003  
  787.50  1.0924E-003  
  788.00  1.2010E-003  
  788.50  1.2694E-003  
  789.00  1.1560E-003  
  789.50  9.7341E-004  
  790.00  8.3362E-004  
  790.50  8.1789E-004  
  791.00  8.7268E-004  
  791.50  1.0251E-003  
  792.00  1.1398E-003  
  792.50  1.1925E-003  
  793.00  1.1300E-003  
  793.50  9.5539E-004  
  794.00  9.3114E-004  
  794.50  9.3057E-004  
  795.00  8.3295E-004  
  795.50  7.3685E-004  
  796.00  7.0584E-004  
  796.50  8.1240E-004  
  797.00  1.0131E-003  
  797.50  1.0119E-003  
  798.00  8.7142E-004  
  798.50  7.1802E-004  
  799.00  8.7593E-004  
  799.50  9.4048E-004  
  800.00  9.1113E-004  
  800.50  6.2517E-004  
  801.00  2.8276E-004  
  801.50  3.7506E-004  
  802.00  4.9490E-004  
  802.50  7.3291E-004  
  803.00  8.4729E-004  
  803.50  9.6062E-004  
  804.00  9.4335E-004  
  804.50  8.5331E-004  
  805.00  8.9249E-004  
  805.50  1.0064E-003  
  806.00  8.2830E-004  
  806.50  6.9179E-004  
  807.00  5.7183E-004  
  807.50  5.3652E-004  
  808.00  7.7585E-004  
  808.50  1.0218E-003  
  809.00  9.4291E-004  
  809.50  8.6767E-004  
  810.00  8.9354E-004  
  810.50  9.5439E-004  
  811.00  7.1510E-004  
  811.50  3.5781E-004  
  812.00  3.9312E-004  
  812.50  6.3873E-004  
  813.00  6.8316E-004  
  813.50  5.2024E-004  
  814.00  4.9372E-004  
  814.50  8.0139E-004  
  815.00  1.1426E-003  
  815.50  7.0531E-004  
  816.00  5.1616E-004  
  816.50  4.1310E-004  
  817.00  3.0263E-004  
  817.50  7.7335E-005  
  818.00  5.5770E-005  
  818.50  4.6737E-005  
  819.00  1.2030E-004  
  819.50  2.9286E-004  
  820.00  3.9937E-004  
  820.50  4.6695E-004  
  821.00  2.4821E-004  
  821.50  1.3839E-005  
  822.00  0.0000E+000  
  822.50  1.9873E-004  
  823.00  6.4038E-004  
  823.50  8.3566E-004  
  824.00  4.9560E-004  
  824.50  3.5194E-004  
  825.00  4.4701E-004  
  825.50  4.3895E-004  
  826.00  3.6237E-004  
  826.50  1.1275E-005  
  827.00  6.4599E-005  
  827.50  4.0432E-004  
  828.00  9.6354E-004  
  828.50  1.0064E-003  
  829.00  6.3560E-004  
  829.50  4.7045E-004  
  830.00  5.0451E-004  
  830.50  6.3312E-004  
  831.00  6.9996E-004  
  831.50  5.5281E-004  
  832.00  2.6250E-004  
  832.50  1.8886E-004  
  833.00  1.5393E-005  
  833.50  0.0000E+000  
  834.00  2.7827E-004  
  834.50  7.7905E-004  
  835.00  5.9664E-004  
  835.50  3.7199E-004  
  836.00  4.4153E-004  
  836.50  8.8319E-004  
  837.00  1.0351E-003  
  837.50  1.1050E-003  
  838.00  9.4282E-004  
  838.50  5.6473E-004  
  839.00  6.5944E-004  
  839.50  7.5791E-004  
  840.00  8.0515E-004  
  840.50  6.2568E-004  
  841.00  4.6286E-004  
  841.50  3.1505E-004  
  842.00  5.3407E-004  
  842.50  7.7854E-004  
  843.00  6.9269E-004  
  843.50  5.9451E-004  
  844.00  3.5166E-004  
  844.50  2.6041E-004  
  845.00  1.3703E-005  
  845.50  0.0000E+000  
  846.00  0.0000E+000  
  846.50  2.6394E-004  
  847.00  7.2133E-004  
  847.50  1.0273E-003  
  848.00  8.6462E-004  
  848.50  3.4220E-004  
  849.00  1.4116E-004  
  849.50  2.5995E-004  
  850.00  7.8022E-004  
  850.50  1.2812E-003  
  851.00  1.4117E-003  
  851.50  1.2562E-003  
  852.00  8.6576E-004  
  852.50  0.0000E+000  
  853.00  0.0000E+000  
  853.50  1.3866E-004  
  854.00  5.9744E-004  
  854.50  7.0592E-004  
  855.00  6.0164E-004  
  855.50  4.4654E-004  
  856.00  4.1641E-004  
  856.50  1.8366E-004  
  857.00  3.9428E-004  
  857.50  6.9647E-004  
  858.00  1.0290E-003  
  858.50  7.5811E-004  
  859.00  4.5430E-004  
  859.50  4.3454E-004  
  860.00  3.2253E-004  
  860.50  4.4238E-004  
  861.00  1.0005E-003  
  861.50  9.4203E-004  
  862.00  8.5676E-004  
  862.50  5.5431E-004  
  863.00  4.6635E-004  
  863.50  5.4719E-004  
  864.00  5.1885E-004  
  864.50  6.5740E-004  
  865.00  9.6238E-004  
  865.50  1.2808E-003  
  866.00  7.3334E-004  
  866.50  3.2303E-004  
  867.00  3.3989E-004  
  867.50  2.4462E-004  
  868.00  4.3658E-004  
  868.50  7.6489E-004  
  869.00  7.4881E-004  
  869.50  5.7139E-004  
  870.00  8.7444E-004  
  870.50  7.5998E-004  
  871.00  3.3892E-004  
  871.50  4.6834E-004  
  872.00  1.7805E-003  
  872.50  2.4768E-003  
  873.00  2.0241E-003  
  873.50  1.1438E-003  
  874.00  1.0383E-003  
  874.50  1.4450E-003  
  875.00  1.4419E-003  
  875.50  2.0682E-003  
  876.00  2.2927E-003  
  876.50  1.4786E-003  
  877.00  1.2008E-003  
  877.50  1.5886E-003  
  878.00  1.5340E-003  
  878.50  1.8664E-003  
  879.00  2.1975E-003  
  879.50  2.3876E-003  
  880.00  2.3635E-003  
  880.50  1.9671E-003  
  881.00  1.7338E-003  
  881.50  2.0793E-003  
  882.00  2.7264E-003  
  882.50  3.0155E-003  
  883.00  2.8456E-003  
  883.50  2.3764E-003  
  884.00  1.7830E-003  
  884.50  1.4565E-003  
  885.00  1.9878E-003  
  885.50  3.5560E-003  
  886.00  3.7898E-003  
  886.50  2.8961E-003  
  887.00  2.7319E-003  
  887.50  3.2439E-003  
  888.00  4.0994E-003  
  888.50  4.0404E-003  
  889.00  3.2031E-003  
  889.50  2.4022E-003  
  890.00  2.4753E-003  
  890.50  2.7428E-003  
  891.00  3.2840E-003  
  891.50  3.3009E-003  
  892.00  3.5213E-003  
  892.50  3.1966E-003  
  893.00  3.2737E-003  
  893.50  3.3737E-003  
  894.00  3.7690E-003  
  894.50  3.4311E-003  
  895.00  3.7376E-003  
  895.50  4.4828E-003  
  896.00  4.6924E-003  
  896.50  4.1439E-003  
  897.00  3.1486E-003  
  897.50  3.0011E-003  
  898.00  3.3278E-003  
  898.50  3.5551E-003  
  899.00  4.0589E-003  
  899.50  8.4465E-005  
