
# From lspdd.org
# 
# Name: DEL Philips MR16 Domestique
# Indice spectral Valeur 
# MSI 0.23 
# SLI 0.43 
# IPI 0.64 
# Pourcentage de bleu 14.7 
# Caractéristique Valeur 
# CCT calculée (K) 2662 
# CCT du fabricant (K) 2700 
# Tension (V) 120 
# Puissance (W) 10.0 
# Efficacité lumineuse (Lum/W) 40.5 
#
# Image: '/app/system/img_2s/2601/medium_image2.jpg?1413486603'
# Image: '/app/system/img_1s/2601/medium_image1.JPG?1413486604'
# 

  273.00  0.0000E+000  
  273.50  0.0000E+000  
  274.00  0.0000E+000  
  274.50  0.0000E+000  
  275.00  0.0000E+000  
  275.50  0.0000E+000  
  276.00  0.0000E+000  
  276.50  0.0000E+000  
  277.00  0.0000E+000  
  277.50  0.0000E+000  
  278.00  0.0000E+000  
  278.50  0.0000E+000  
  279.00  0.0000E+000  
  279.50  0.0000E+000  
  280.00  0.0000E+000  
  280.50  0.0000E+000  
  281.00  0.0000E+000  
  281.50  0.0000E+000  
  282.00  0.0000E+000  
  282.50  0.0000E+000  
  283.00  0.0000E+000  
  283.50  0.0000E+000  
  284.00  0.0000E+000  
  284.50  0.0000E+000  
  285.00  0.0000E+000  
  285.50  0.0000E+000  
  286.00  0.0000E+000  
  286.50  0.0000E+000  
  287.00  0.0000E+000  
  287.50  0.0000E+000  
  288.00  0.0000E+000  
  288.50  0.0000E+000  
  289.00  0.0000E+000  
  289.50  0.0000E+000  
  290.00  0.0000E+000  
  290.50  0.0000E+000  
  291.00  0.0000E+000  
  291.50  0.0000E+000  
  292.00  0.0000E+000  
  292.50  0.0000E+000  
  293.00  0.0000E+000  
  293.50  0.0000E+000  
  294.00  0.0000E+000  
  294.50  0.0000E+000  
  295.00  0.0000E+000  
  295.50  0.0000E+000  
  296.00  0.0000E+000  
  296.50  0.0000E+000  
  297.00  0.0000E+000  
  297.50  0.0000E+000  
  298.00  0.0000E+000  
  298.50  0.0000E+000  
  299.00  0.0000E+000  
  299.50  0.0000E+000  
  300.00  0.0000E+000  
  300.50  0.0000E+000  
  301.00  0.0000E+000  
  301.50  0.0000E+000  
  302.00  0.0000E+000  
  302.50  0.0000E+000  
  303.00  0.0000E+000  
  303.50  0.0000E+000  
  304.00  0.0000E+000  
  304.50  0.0000E+000  
  305.00  0.0000E+000  
  305.50  0.0000E+000  
  306.00  0.0000E+000  
  306.50  0.0000E+000  
  307.00  0.0000E+000  
  307.50  0.0000E+000  
  308.00  0.0000E+000  
  308.50  0.0000E+000  
  309.00  0.0000E+000  
  309.50  0.0000E+000  
  310.00  0.0000E+000  
  310.50  0.0000E+000  
  311.00  0.0000E+000  
  311.50  0.0000E+000  
  312.00  0.0000E+000  
  312.50  0.0000E+000  
  313.00  0.0000E+000  
  313.50  0.0000E+000  
  314.00  0.0000E+000  
  314.50  0.0000E+000  
  315.00  0.0000E+000  
  315.50  0.0000E+000  
  316.00  0.0000E+000  
  316.50  0.0000E+000  
  317.00  0.0000E+000  
  317.50  0.0000E+000  
  318.00  0.0000E+000  
  318.50  0.0000E+000  
  319.00  0.0000E+000  
  319.50  0.0000E+000  
  320.00  0.0000E+000  
  320.50  0.0000E+000  
  321.00  0.0000E+000  
  321.50  0.0000E+000  
  322.00  0.0000E+000  
  322.50  0.0000E+000  
  323.00  0.0000E+000  
  323.50  0.0000E+000  
  324.00  0.0000E+000  
  324.50  0.0000E+000  
  325.00  0.0000E+000  
  325.50  0.0000E+000  
  326.00  0.0000E+000  
  326.50  0.0000E+000  
  327.00  0.0000E+000  
  327.50  0.0000E+000  
  328.00  0.0000E+000  
  328.50  0.0000E+000  
  329.00  0.0000E+000  
  329.50  0.0000E+000  
  330.00  0.0000E+000  
  330.50  0.0000E+000  
  331.00  0.0000E+000  
  331.50  0.0000E+000  
  332.00  0.0000E+000  
  332.50  0.0000E+000  
  333.00  0.0000E+000  
  333.50  0.0000E+000  
  334.00  0.0000E+000  
  334.50  0.0000E+000  
  335.00  0.0000E+000  
  335.50  0.0000E+000  
  336.00  0.0000E+000  
  336.50  0.0000E+000  
  337.00  0.0000E+000  
  337.50  0.0000E+000  
  338.00  0.0000E+000  
  338.50  0.0000E+000  
  339.00  0.0000E+000  
  339.50  0.0000E+000  
  340.00  0.0000E+000  
  340.50  0.0000E+000  
  341.00  0.0000E+000  
  341.50  0.0000E+000  
  342.00  0.0000E+000  
  342.50  0.0000E+000  
  343.00  0.0000E+000  
  343.50  0.0000E+000  
  344.00  0.0000E+000  
  344.50  0.0000E+000  
  345.00  0.0000E+000  
  345.50  0.0000E+000  
  346.00  0.0000E+000  
  346.50  0.0000E+000  
  347.00  0.0000E+000  
  347.50  0.0000E+000  
  348.00  0.0000E+000  
  348.50  0.0000E+000  
  349.00  0.0000E+000  
  349.50  0.0000E+000  
  350.00  0.0000E+000  
  350.50  0.0000E+000  
  351.00  0.0000E+000  
  351.50  0.0000E+000  
  352.00  0.0000E+000  
  352.50  0.0000E+000  
  353.00  0.0000E+000  
  353.50  0.0000E+000  
  354.00  0.0000E+000  
  354.50  0.0000E+000  
  355.00  0.0000E+000  
  355.50  0.0000E+000  
  356.00  0.0000E+000  
  356.50  0.0000E+000  
  357.00  0.0000E+000  
  357.50  0.0000E+000  
  358.00  0.0000E+000  
  358.50  0.0000E+000  
  359.00  0.0000E+000  
  359.50  0.0000E+000  
  360.00  0.0000E+000  
  360.50  0.0000E+000  
  361.00  0.0000E+000  
  361.50  0.0000E+000  
  362.00  0.0000E+000  
  362.50  0.0000E+000  
  363.00  0.0000E+000  
  363.50  0.0000E+000  
  364.00  0.0000E+000  
  364.50  0.0000E+000  
  365.00  0.0000E+000  
  365.50  0.0000E+000  
  366.00  0.0000E+000  
  366.50  0.0000E+000  
  367.00  0.0000E+000  
  367.50  0.0000E+000  
  368.00  0.0000E+000  
  368.50  0.0000E+000  
  369.00  0.0000E+000  
  369.50  0.0000E+000  
  370.00  0.0000E+000  
  370.50  0.0000E+000  
  371.00  0.0000E+000  
  371.50  0.0000E+000  
  372.00  0.0000E+000  
  372.50  0.0000E+000  
  373.00  0.0000E+000  
  373.50  0.0000E+000  
  374.00  0.0000E+000  
  374.50  0.0000E+000  
  375.00  0.0000E+000  
  375.50  0.0000E+000  
  376.00  0.0000E+000  
  376.50  0.0000E+000  
  377.00  0.0000E+000  
  377.50  0.0000E+000  
  378.00  0.0000E+000  
  378.50  0.0000E+000  
  379.00  0.0000E+000  
  379.50  0.0000E+000  
  380.00  0.0000E+000  
  380.50  0.0000E+000  
  381.00  0.0000E+000  
  381.50  0.0000E+000  
  382.00  0.0000E+000  
  382.50  0.0000E+000  
  383.00  0.0000E+000  
  383.50  0.0000E+000  
  384.00  0.0000E+000  
  384.50  0.0000E+000  
  385.00  0.0000E+000  
  385.50  0.0000E+000  
  386.00  0.0000E+000  
  386.50  0.0000E+000  
  387.00  0.0000E+000  
  387.50  0.0000E+000  
  388.00  0.0000E+000  
  388.50  0.0000E+000  
  389.00  0.0000E+000  
  389.50  0.0000E+000  
  390.00  0.0000E+000  
  390.50  0.0000E+000  
  391.00  0.0000E+000  
  391.50  0.0000E+000  
  392.00  0.0000E+000  
  392.50  0.0000E+000  
  393.00  1.6089E-005  
  393.50  1.4016E-005  
  394.00  5.6923E-006  
  394.50  0.0000E+000  
  395.00  0.0000E+000  
  395.50  0.0000E+000  
  396.00  0.0000E+000  
  396.50  6.1704E-006  
  397.00  1.9008E-005  
  397.50  4.0320E-005  
  398.00  1.0055E-004  
  398.50  1.1549E-004  
  399.00  1.0449E-004  
  399.50  8.4625E-005  
  400.00  4.8180E-005  
  400.50  9.7922E-005  
  401.00  1.4497E-004  
  401.50  1.6492E-004  
  402.00  1.9235E-004  
  402.50  1.7949E-004  
  403.00  1.6016E-004  
  403.50  1.2764E-004  
  404.00  1.3604E-004  
  404.50  1.9507E-004  
  405.00  2.6481E-004  
  405.50  3.3498E-004  
  406.00  3.4412E-004  
  406.50  4.0594E-004  
  407.00  4.8575E-004  
  407.50  5.5005E-004  
  408.00  5.7200E-004  
  408.50  4.7967E-004  
  409.00  4.3644E-004  
  409.50  5.1913E-004  
  410.00  6.8199E-004  
  410.50  8.8235E-004  
  411.00  1.0225E-003  
  411.50  1.1231E-003  
  412.00  1.1685E-003  
  412.50  1.1893E-003  
  413.00  1.2083E-003  
  413.50  1.2546E-003  
  414.00  1.3710E-003  
  414.50  1.5220E-003  
  415.00  1.6765E-003  
  415.50  1.8558E-003  
  416.00  2.0200E-003  
  416.50  2.2344E-003  
  417.00  2.4120E-003  
  417.50  2.5640E-003  
  418.00  2.7063E-003  
  418.50  2.8815E-003  
  419.00  3.1257E-003  
  419.50  3.4241E-003  
  420.00  3.6899E-003  
  420.50  3.9615E-003  
  421.00  4.2195E-003  
  421.50  4.5183E-003  
  422.00  4.9012E-003  
  422.50  5.2501E-003  
  423.00  5.6156E-003  
  423.50  5.9455E-003  
  424.00  6.2997E-003  
  424.50  6.6880E-003  
  425.00  7.1408E-003  
  425.50  7.6054E-003  
  426.00  8.0558E-003  
  426.50  8.4774E-003  
  427.00  8.9541E-003  
  427.50  9.4782E-003  
  428.00  1.0083E-002  
  428.50  1.0720E-002  
  429.00  1.1326E-002  
  429.50  1.1942E-002  
  430.00  1.2515E-002  
  430.50  1.3109E-002  
  431.00  1.3670E-002  
  431.50  1.4225E-002  
  432.00  1.4819E-002  
  432.50  1.5488E-002  
  433.00  1.6252E-002  
  433.50  1.6980E-002  
  434.00  1.7654E-002  
  434.50  1.8306E-002  
  435.00  1.8968E-002  
  435.50  1.9779E-002  
  436.00  2.0654E-002  
  436.50  2.1533E-002  
  437.00  2.2444E-002  
  437.50  2.3230E-002  
  438.00  2.4034E-002  
  438.50  2.4798E-002  
  439.00  2.5572E-002  
  439.50  2.6342E-002  
  440.00  2.7189E-002  
  440.50  2.8117E-002  
  441.00  2.9120E-002  
  441.50  3.0121E-002  
  442.00  3.1123E-002  
  442.50  3.1978E-002  
  443.00  3.2902E-002  
  443.50  3.3759E-002  
  444.00  3.4697E-002  
  444.50  3.5583E-002  
  445.00  3.6392E-002  
  445.50  3.7194E-002  
  446.00  3.8078E-002  
  446.50  3.8972E-002  
  447.00  3.9721E-002  
  447.50  4.0315E-002  
  448.00  4.0657E-002  
  448.50  4.0848E-002  
  449.00  4.1010E-002  
  449.50  4.1026E-002  
  450.00  4.1050E-002  
  450.50  4.1036E-002  
  451.00  4.0892E-002  
  451.50  4.0529E-002  
  452.00  3.9949E-002  
  452.50  3.9261E-002  
  453.00  3.8555E-002  
  453.50  3.7880E-002  
  454.00  3.7083E-002  
  454.50  3.6058E-002  
  455.00  3.5088E-002  
  455.50  3.4059E-002  
  456.00  3.3030E-002  
  456.50  3.2019E-002  
  457.00  3.0869E-002  
  457.50  2.9802E-002  
  458.00  2.8780E-002  
  458.50  2.7712E-002  
  459.00  2.6683E-002  
  459.50  2.5698E-002  
  460.00  2.4835E-002  
  460.50  2.4130E-002  
  461.00  2.3378E-002  
  461.50  2.2572E-002  
  462.00  2.1845E-002  
  462.50  2.1136E-002  
  463.00  2.0671E-002  
  463.50  2.0204E-002  
  464.00  1.9757E-002  
  464.50  1.9304E-002  
  465.00  1.8853E-002  
  465.50  1.8476E-002  
  466.00  1.8102E-002  
  466.50  1.7738E-002  
  467.00  1.7344E-002  
  467.50  1.7005E-002  
  468.00  1.6759E-002  
  468.50  1.6514E-002  
  469.00  1.6252E-002  
  469.50  1.5931E-002  
  470.00  1.5626E-002  
  470.50  1.5376E-002  
  471.00  1.5165E-002  
  471.50  1.4936E-002  
  472.00  1.4668E-002  
  472.50  1.4409E-002  
  473.00  1.4192E-002  
  473.50  1.4019E-002  
  474.00  1.3832E-002  
  474.50  1.3621E-002  
  475.00  1.3356E-002  
  475.50  1.3191E-002  
  476.00  1.3055E-002  
  476.50  1.2969E-002  
  477.00  1.2835E-002  
  477.50  1.2642E-002  
  478.00  1.2480E-002  
  478.50  1.2410E-002  
  479.00  1.2447E-002  
  479.50  1.2479E-002  
  480.00  1.2518E-002  
  480.50  1.2474E-002  
  481.00  1.2436E-002  
  481.50  1.2426E-002  
  482.00  1.2436E-002  
  482.50  1.2497E-002  
  483.00  1.2521E-002  
  483.50  1.2550E-002  
  484.00  1.2622E-002  
  484.50  1.2682E-002  
  485.00  1.2753E-002  
  485.50  1.2809E-002  
  486.00  1.2879E-002  
  486.50  1.3040E-002  
  487.00  1.3194E-002  
  487.50  1.3367E-002  
  488.00  1.3533E-002  
  488.50  1.3714E-002  
  489.00  1.3972E-002  
  489.50  1.4185E-002  
  490.00  1.4390E-002  
  490.50  1.4623E-002  
  491.00  1.4941E-002  
  491.50  1.5343E-002  
  492.00  1.5751E-002  
  492.50  1.6144E-002  
  493.00  1.6523E-002  
  493.50  1.6884E-002  
  494.00  1.7276E-002  
  494.50  1.7668E-002  
  495.00  1.8107E-002  
  495.50  1.8598E-002  
  496.00  1.9107E-002  
  496.50  1.9703E-002  
  497.00  2.0324E-002  
  497.50  2.0943E-002  
  498.00  2.1555E-002  
  498.50  2.2173E-002  
  499.00  2.2809E-002  
  499.50  2.3462E-002  
  500.00  2.4160E-002  
  500.50  2.4883E-002  
  501.00  2.5651E-002  
  501.50  2.6397E-002  
  502.00  2.7081E-002  
  502.50  2.7829E-002  
  503.00  2.8589E-002  
  503.50  2.9411E-002  
  504.00  3.0298E-002  
  504.50  3.1139E-002  
  505.00  3.2025E-002  
  505.50  3.2841E-002  
  506.00  3.3675E-002  
  506.50  3.4503E-002  
  507.00  3.5413E-002  
  507.50  3.6347E-002  
  508.00  3.7256E-002  
  508.50  3.8181E-002  
  509.00  3.9142E-002  
  509.50  4.0126E-002  
  510.00  4.1035E-002  
  510.50  4.1851E-002  
  511.00  4.2700E-002  
  511.50  4.3576E-002  
  512.00  4.4549E-002  
  512.50  4.5412E-002  
  513.00  4.6287E-002  
  513.50  4.7139E-002  
  514.00  4.8030E-002  
  514.50  4.8967E-002  
  515.00  4.9820E-002  
  515.50  5.0695E-002  
  516.00  5.1545E-002  
  516.50  5.2459E-002  
  517.00  5.3319E-002  
  517.50  5.4133E-002  
  518.00  5.4919E-002  
  518.50  5.5765E-002  
  519.00  5.6563E-002  
  519.50  5.7295E-002  
  520.00  5.8017E-002  
  520.50  5.8821E-002  
  521.00  5.9648E-002  
  521.50  6.0458E-002  
  522.00  6.1137E-002  
  522.50  6.1832E-002  
  523.00  6.2517E-002  
  523.50  6.3245E-002  
  524.00  6.4045E-002  
  524.50  6.4813E-002  
  525.00  6.5449E-002  
  525.50  6.5988E-002  
  526.00  6.6480E-002  
  526.50  6.7118E-002  
  527.00  6.7734E-002  
  527.50  6.8400E-002  
  528.00  6.9013E-002  
  528.50  6.9668E-002  
  529.00  7.0309E-002  
  529.50  7.1005E-002  
  530.00  7.1574E-002  
  530.50  7.2114E-002  
  531.00  7.2558E-002  
  531.50  7.3044E-002  
  532.00  7.3591E-002  
  532.50  7.4200E-002  
  533.00  7.4808E-002  
  533.50  7.5363E-002  
  534.00  7.5854E-002  
  534.50  7.6276E-002  
  535.00  7.6696E-002  
  535.50  7.7196E-002  
  536.00  7.7699E-002  
  536.50  7.8182E-002  
  537.00  7.8646E-002  
  537.50  7.9090E-002  
  538.00  7.9670E-002  
  538.50  8.0246E-002  
  539.00  8.0863E-002  
  539.50  8.1382E-002  
  540.00  8.1870E-002  
  540.50  8.2410E-002  
  541.00  8.2920E-002  
  541.50  8.3402E-002  
  542.00  8.3833E-002  
  542.50  8.4203E-002  
  543.00  8.4699E-002  
  543.50  8.5148E-002  
  544.00  8.5591E-002  
  544.50  8.6052E-002  
  545.00  8.6550E-002  
  545.50  8.7104E-002  
  546.00  8.7674E-002  
  546.50  8.8243E-002  
  547.00  8.8824E-002  
  547.50  8.9440E-002  
  548.00  8.9998E-002  
  548.50  9.0516E-002  
  549.00  9.0950E-002  
  549.50  9.1222E-002  
  550.00  9.1580E-002  
  550.50  9.2122E-002  
  551.00  9.2864E-002  
  551.50  9.3607E-002  
  552.00  9.4217E-002  
  552.50  9.4758E-002  
  553.00  9.5298E-002  
  553.50  9.5928E-002  
  554.00  9.6470E-002  
  554.50  9.7119E-002  
  555.00  9.7701E-002  
  555.50  9.8301E-002  
  556.00  9.8862E-002  
  556.50  9.9487E-002  
  557.00  1.0018E-001  
  557.50  1.0091E-001  
  558.00  1.0162E-001  
  558.50  1.0227E-001  
  559.00  1.0303E-001  
  559.50  1.0365E-001  
  560.00  1.0430E-001  
  560.50  1.0483E-001  
  561.00  1.0555E-001  
  561.50  1.0617E-001  
  562.00  1.0671E-001  
  562.50  1.0733E-001  
  563.00  1.0799E-001  
  563.50  1.0883E-001  
  564.00  1.0955E-001  
  564.50  1.1024E-001  
  565.00  1.1089E-001  
  565.50  1.1149E-001  
  566.00  1.1213E-001  
  566.50  1.1279E-001  
  567.00  1.1339E-001  
  567.50  1.1400E-001  
  568.00  1.1468E-001  
  568.50  1.1542E-001  
  569.00  1.1607E-001  
  569.50  1.1669E-001  
  570.00  1.1730E-001  
  570.50  1.1804E-001  
  571.00  1.1880E-001  
  571.50  1.1955E-001  
  572.00  1.2021E-001  
  572.50  1.2081E-001  
  573.00  1.2144E-001  
  573.50  1.2214E-001  
  574.00  1.2292E-001  
  574.50  1.2356E-001  
  575.00  1.2424E-001  
  575.50  1.2491E-001  
  576.00  1.2569E-001  
  576.50  1.2640E-001  
  577.00  1.2712E-001  
  577.50  1.2772E-001  
  578.00  1.2836E-001  
  578.50  1.2904E-001  
  579.00  1.2966E-001  
  579.50  1.3027E-001  
  580.00  1.3090E-001  
  580.50  1.3163E-001  
  581.00  1.3240E-001  
  581.50  1.3293E-001  
  582.00  1.3337E-001  
  582.50  1.3384E-001  
  583.00  1.3440E-001  
  583.50  1.3511E-001  
  584.00  1.3580E-001  
  584.50  1.3647E-001  
  585.00  1.3694E-001  
  585.50  1.3741E-001  
  586.00  1.3791E-001  
  586.50  1.3853E-001  
  587.00  1.3898E-001  
  587.50  1.3940E-001  
  588.00  1.3985E-001  
  588.50  1.4043E-001  
  589.00  1.4112E-001  
  589.50  1.4158E-001  
  590.00  1.4210E-001  
  590.50  1.4244E-001  
  591.00  1.4278E-001  
  591.50  1.4318E-001  
  592.00  1.4354E-001  
  592.50  1.4397E-001  
  593.00  1.4437E-001  
  593.50  1.4474E-001  
  594.00  1.4526E-001  
  594.50  1.4565E-001  
  595.00  1.4609E-001  
  595.50  1.4629E-001  
  596.00  1.4654E-001  
  596.50  1.4676E-001  
  597.00  1.4704E-001  
  597.50  1.4734E-001  
  598.00  1.4762E-001  
  598.50  1.4792E-001  
  599.00  1.4810E-001  
  599.50  1.4823E-001  
  600.00  1.4836E-001  
  600.50  1.4861E-001  
  601.00  1.4894E-001  
  601.50  1.4915E-001  
  602.00  1.4924E-001  
  602.50  1.4937E-001  
  603.00  1.4949E-001  
  603.50  1.4968E-001  
  604.00  1.4983E-001  
  604.50  1.4992E-001  
  605.00  1.4993E-001  
  605.50  1.4980E-001  
  606.00  1.4959E-001  
  606.50  1.4952E-001  
  607.00  1.4947E-001  
  607.50  1.4936E-001  
  608.00  1.4925E-001  
  608.50  1.4925E-001  
  609.00  1.4929E-001  
  609.50  1.4931E-001  
  610.00  1.4926E-001  
  610.50  1.4906E-001  
  611.00  1.4888E-001  
  611.50  1.4860E-001  
  612.00  1.4846E-001  
  612.50  1.4836E-001  
  613.00  1.4832E-001  
  613.50  1.4825E-001  
  614.00  1.4820E-001  
  614.50  1.4788E-001  
  615.00  1.4757E-001  
  615.50  1.4716E-001  
  616.00  1.4680E-001  
  616.50  1.4640E-001  
  617.00  1.4596E-001  
  617.50  1.4547E-001  
  618.00  1.4496E-001  
  618.50  1.4450E-001  
  619.00  1.4393E-001  
  619.50  1.4339E-001  
  620.00  1.4291E-001  
  620.50  1.4247E-001  
  621.00  1.4212E-001  
  621.50  1.4155E-001  
  622.00  1.4117E-001  
  622.50  1.4079E-001  
  623.00  1.4048E-001  
  623.50  1.4015E-001  
  624.00  1.3954E-001  
  624.50  1.3889E-001  
  625.00  1.3823E-001  
  625.50  1.3783E-001  
  626.00  1.3737E-001  
  626.50  1.3665E-001  
  627.00  1.3568E-001  
  627.50  1.3477E-001  
  628.00  1.3398E-001  
  628.50  1.3347E-001  
  629.00  1.3306E-001  
  629.50  1.3242E-001  
  630.00  1.3177E-001  
  630.50  1.3107E-001  
  631.00  1.3062E-001  
  631.50  1.2999E-001  
  632.00  1.2906E-001  
  632.50  1.2814E-001  
  633.00  1.2730E-001  
  633.50  1.2654E-001  
  634.00  1.2577E-001  
  634.50  1.2499E-001  
  635.00  1.2440E-001  
  635.50  1.2372E-001  
  636.00  1.2298E-001  
  636.50  1.2207E-001  
  637.00  1.2118E-001  
  637.50  1.2044E-001  
  638.00  1.1982E-001  
  638.50  1.1915E-001  
  639.00  1.1834E-001  
  639.50  1.1740E-001  
  640.00  1.1656E-001  
  640.50  1.1562E-001  
  641.00  1.1472E-001  
  641.50  1.1368E-001  
  642.00  1.1283E-001  
  642.50  1.1214E-001  
  643.00  1.1126E-001  
  643.50  1.1028E-001  
  644.00  1.0929E-001  
  644.50  1.0855E-001  
  645.00  1.0776E-001  
  645.50  1.0690E-001  
  646.00  1.0612E-001  
  646.50  1.0534E-001  
  647.00  1.0459E-001  
  647.50  1.0377E-001  
  648.00  1.0285E-001  
  648.50  1.0181E-001  
  649.00  1.0073E-001  
  649.50  9.9572E-002  
  650.00  9.8541E-002  
  650.50  9.7589E-002  
  651.00  9.6768E-002  
  651.50  9.5907E-002  
  652.00  9.5005E-002  
  652.50  9.4139E-002  
  653.00  9.3303E-002  
  653.50  9.2558E-002  
  654.00  9.1775E-002  
  654.50  9.0944E-002  
  655.00  9.0052E-002  
  655.50  8.9244E-002  
  656.00  8.8391E-002  
  656.50  8.7333E-002  
  657.00  8.6328E-002  
  657.50  8.5422E-002  
  658.00  8.4614E-002  
  658.50  8.3930E-002  
  659.00  8.3079E-002  
  659.50  8.2183E-002  
  660.00  8.1064E-002  
  660.50  8.0095E-002  
  661.00  7.9259E-002  
  661.50  7.8532E-002  
  662.00  7.7837E-002  
  662.50  7.7115E-002  
  663.00  7.6197E-002  
  663.50  7.5285E-002  
  664.00  7.4349E-002  
  664.50  7.3511E-002  
  665.00  7.2629E-002  
  665.50  7.1714E-002  
  666.00  7.0881E-002  
  666.50  7.0158E-002  
  667.00  6.9498E-002  
  667.50  6.8861E-002  
  668.00  6.7987E-002  
  668.50  6.7072E-002  
  669.00  6.6289E-002  
  669.50  6.5656E-002  
  670.00  6.5043E-002  
  670.50  6.4271E-002  
  671.00  6.3452E-002  
  671.50  6.2624E-002  
  672.00  6.1813E-002  
  672.50  6.1107E-002  
  673.00  6.0375E-002  
  673.50  5.9654E-002  
  674.00  5.8845E-002  
  674.50  5.8228E-002  
  675.00  5.7625E-002  
  675.50  5.7022E-002  
  676.00  5.6240E-002  
  676.50  5.5417E-002  
  677.00  5.4742E-002  
  677.50  5.4134E-002  
  678.00  5.3578E-002  
  678.50  5.2962E-002  
  679.00  5.2251E-002  
  679.50  5.1494E-002  
  680.00  5.0618E-002  
  680.50  4.9934E-002  
  681.00  4.9333E-002  
  681.50  4.8829E-002  
  682.00  4.8212E-002  
  682.50  4.7469E-002  
  683.00  4.6796E-002  
  683.50  4.6269E-002  
  684.00  4.5829E-002  
  684.50  4.5327E-002  
  685.00  4.4695E-002  
  685.50  4.4097E-002  
  686.00  4.3444E-002  
  686.50  4.2820E-002  
  687.00  4.2226E-002  
  687.50  4.1693E-002  
  688.00  4.1117E-002  
  688.50  4.0549E-002  
  689.00  4.0088E-002  
  689.50  3.9624E-002  
  690.00  3.9097E-002  
  690.50  3.8531E-002  
  691.00  3.7994E-002  
  691.50  3.7544E-002  
  692.00  3.7171E-002  
  692.50  3.6662E-002  
  693.00  3.6040E-002  
  693.50  3.5463E-002  
  694.00  3.5056E-002  
  694.50  3.4726E-002  
  695.00  3.4253E-002  
  695.50  3.3808E-002  
  696.00  3.3300E-002  
  696.50  3.2904E-002  
  697.00  3.2384E-002  
  697.50  3.1840E-002  
  698.00  3.1278E-002  
  698.50  3.0774E-002  
  699.00  3.0289E-002  
  699.50  2.9867E-002  
  700.00  2.9586E-002  
  700.50  2.9228E-002  
  701.00  2.8775E-002  
  701.50  2.8285E-002  
  702.00  2.7877E-002  
  702.50  2.7523E-002  
  703.00  2.7199E-002  
  703.50  2.6916E-002  
  704.00  2.6506E-002  
  704.50  2.6104E-002  
  705.00  2.5681E-002  
  705.50  2.5281E-002  
  706.00  2.4889E-002  
  706.50  2.4503E-002  
  707.00  2.4149E-002  
  707.50  2.3870E-002  
  708.00  2.3607E-002  
  708.50  2.3394E-002  
  709.00  2.3073E-002  
  709.50  2.2727E-002  
  710.00  2.2254E-002  
  710.50  2.1863E-002  
  711.00  2.1589E-002  
  711.50  2.1276E-002  
  712.00  2.0934E-002  
  712.50  2.0665E-002  
  713.00  2.0433E-002  
  713.50  2.0121E-002  
  714.00  1.9817E-002  
  714.50  1.9597E-002  
  715.00  1.9334E-002  
  715.50  1.8982E-002  
  716.00  1.8595E-002  
  716.50  1.8186E-002  
  717.00  1.7833E-002  
  717.50  1.7750E-002  
  718.00  1.7608E-002  
  718.50  1.7470E-002  
  719.00  1.7115E-002  
  719.50  1.6857E-002  
  720.00  1.6554E-002  
  720.50  1.6398E-002  
  721.00  1.6251E-002  
  721.50  1.5999E-002  
  722.00  1.5610E-002  
  722.50  1.5267E-002  
  723.00  1.4983E-002  
  723.50  1.4964E-002  
  724.00  1.4846E-002  
  724.50  1.4633E-002  
  725.00  1.4267E-002  
  725.50  1.4018E-002  
  726.00  1.3859E-002  
  726.50  1.3682E-002  
  727.00  1.3403E-002  
  727.50  1.3237E-002  
  728.00  1.3035E-002  
  728.50  1.2873E-002  
  729.00  1.2588E-002  
  729.50  1.2387E-002  
  730.00  1.2248E-002  
  730.50  1.2059E-002  
  731.00  1.1802E-002  
  731.50  1.1575E-002  
  732.00  1.1358E-002  
  732.50  1.1167E-002  
  733.00  1.0896E-002  
  733.50  1.0895E-002  
  734.00  1.0799E-002  
  734.50  1.0635E-002  
  735.00  1.0380E-002  
  735.50  1.0287E-002  
  736.00  1.0258E-002  
  736.50  1.0055E-002  
  737.00  9.8550E-003  
  737.50  9.6060E-003  
  738.00  9.3980E-003  
  738.50  9.2346E-003  
  739.00  9.1611E-003  
  739.50  9.1215E-003  
  740.00  8.9910E-003  
  740.50  8.8017E-003  
  741.00  8.6473E-003  
  741.50  8.5007E-003  
  742.00  8.3481E-003  
  742.50  8.1986E-003  
  743.00  8.0095E-003  
  743.50  7.8283E-003  
  744.00  7.6559E-003  
  744.50  7.6746E-003  
  745.00  7.7776E-003  
  745.50  7.7170E-003  
  746.00  7.5336E-003  
  746.50  7.3328E-003  
  747.00  7.2906E-003  
  747.50  7.2061E-003  
  748.00  7.0344E-003  
  748.50  6.7983E-003  
  749.00  6.6583E-003  
  749.50  6.5550E-003  
  750.00  6.6050E-003  
  750.50  6.7955E-003  
  751.00  6.8169E-003  
  751.50  6.5621E-003  
  752.00  6.1259E-003  
  752.50  5.8745E-003  
  753.00  5.7291E-003  
  753.50  5.6699E-003  
  754.00  5.5281E-003  
  754.50  5.5056E-003  
  755.00  5.4396E-003  
  755.50  5.3095E-003  
  756.00  5.1254E-003  
  756.50  5.0681E-003  
  757.00  5.0080E-003  
  757.50  5.0302E-003  
  758.00  4.9489E-003  
  758.50  4.8923E-003  
  759.00  4.7097E-003  
  759.50  4.4201E-003  
  760.00  4.2519E-003  
  760.50  4.1688E-003  
  761.00  4.1630E-003  
  761.50  4.0980E-003  
  762.00  3.9434E-003  
  762.50  3.9225E-003  
  763.00  4.0056E-003  
  763.50  4.0389E-003  
  764.00  4.0455E-003  
  764.50  4.0480E-003  
  765.00  4.0084E-003  
  765.50  3.7945E-003  
  766.00  3.5729E-003  
  766.50  3.3208E-003  
  767.00  3.2880E-003  
  767.50  3.1908E-003  
  768.00  3.1937E-003  
  768.50  3.1963E-003  
  769.00  3.2651E-003  
  769.50  3.2798E-003  
  770.00  3.1582E-003  
  770.50  3.0864E-003  
  771.00  3.0157E-003  
  771.50  2.8398E-003  
  772.00  2.7586E-003  
  772.50  2.6857E-003  
  773.00  2.5679E-003  
  773.50  2.4578E-003  
  774.00  2.3531E-003  
  774.50  2.4459E-003  
  775.00  2.4436E-003  
  775.50  2.3741E-003  
  776.00  2.2425E-003  
  776.50  2.0986E-003  
  777.00  1.9194E-003  
  777.50  1.9609E-003  
  778.00  2.0816E-003  
  778.50  2.1490E-003  
  779.00  2.1354E-003  
  779.50  2.1289E-003  
  780.00  2.1775E-003  
  780.50  2.1651E-003  
  781.00  2.1482E-003  
  781.50  1.9615E-003  
  782.00  1.5592E-003  
  782.50  1.2992E-003  
  783.00  1.4499E-003  
  783.50  1.5803E-003  
  784.00  1.5919E-003  
  784.50  1.3922E-003  
  785.00  1.3210E-003  
  785.50  1.2258E-003  
  786.00  1.2298E-003  
  786.50  1.2980E-003  
  787.00  1.3788E-003  
  787.50  1.4638E-003  
  788.00  1.4477E-003  
  788.50  1.3652E-003  
  789.00  1.2270E-003  
  789.50  1.0344E-003  
  790.00  1.0268E-003  
  790.50  1.0499E-003  
  791.00  1.0174E-003  
  791.50  9.5737E-004  
  792.00  1.1642E-003  
  792.50  1.2673E-003  
  793.00  1.1670E-003  
  793.50  7.4122E-004  
  794.00  5.1812E-004  
  794.50  4.7683E-004  
  795.00  3.6142E-004  
  795.50  2.8241E-004  
  796.00  3.7750E-004  
  796.50  6.0181E-004  
  797.00  7.1641E-004  
  797.50  6.7938E-004  
  798.00  7.1635E-004  
  798.50  8.1417E-004  
  799.00  7.9796E-004  
  799.50  6.8927E-004  
  800.00  6.8296E-004  
  800.50  5.9462E-004  
  801.00  7.7261E-004  
  801.50  5.8536E-004  
  802.00  2.8484E-004  
  802.50  1.9924E-004  
  803.00  5.3675E-004  
  803.50  4.9752E-004  
  804.00  2.7743E-004  
  804.50  2.6060E-004  
  805.00  5.2626E-004  
  805.50  5.7341E-004  
  806.00  4.1275E-004  
  806.50  4.3319E-005  
  807.00  0.0000E+000  
  807.50  0.0000E+000  
  808.00  0.0000E+000  
  808.50  0.0000E+000  
  809.00  0.0000E+000  
  809.50  0.0000E+000  
  810.00  0.0000E+000  
  810.50  0.0000E+000  
  811.00  0.0000E+000  
  811.50  0.0000E+000  
  812.00  0.0000E+000  
  812.50  0.0000E+000  
  813.00  0.0000E+000  
  813.50  0.0000E+000  
  814.00  1.1490E-005  
  814.50  2.2911E-005  
  815.00  0.0000E+000  
  815.50  0.0000E+000  
  816.00  0.0000E+000  
  816.50  0.0000E+000  
  817.00  0.0000E+000  
  817.50  0.0000E+000  
  818.00  0.0000E+000  
  818.50  0.0000E+000  
  819.00  0.0000E+000  
  819.50  0.0000E+000  
  820.00  0.0000E+000  
  820.50  0.0000E+000  
  821.00  0.0000E+000  
  821.50  0.0000E+000  
  822.00  0.0000E+000  
  822.50  0.0000E+000  
  823.00  0.0000E+000  
  823.50  0.0000E+000  
  824.00  0.0000E+000  
  824.50  0.0000E+000  
  825.00  0.0000E+000  
  825.50  0.0000E+000  
  826.00  0.0000E+000  
  826.50  0.0000E+000  
  827.00  0.0000E+000  
  827.50  0.0000E+000  
  828.00  0.0000E+000  
  828.50  0.0000E+000  
  829.00  0.0000E+000  
  829.50  0.0000E+000  
  830.00  0.0000E+000  
  830.50  0.0000E+000  
  831.00  0.0000E+000  
  831.50  0.0000E+000  
  832.00  0.0000E+000  
  832.50  0.0000E+000  
  833.00  0.0000E+000  
  833.50  0.0000E+000  
  834.00  0.0000E+000  
  834.50  0.0000E+000  
  835.00  0.0000E+000  
  835.50  0.0000E+000  
  836.00  0.0000E+000  
  836.50  0.0000E+000  
  837.00  0.0000E+000  
  837.50  0.0000E+000  
  838.00  0.0000E+000  
  838.50  0.0000E+000  
  839.00  0.0000E+000  
  839.50  0.0000E+000  
  840.00  0.0000E+000  
  840.50  0.0000E+000  
  841.00  0.0000E+000  
  841.50  0.0000E+000  
  842.00  0.0000E+000  
  842.50  0.0000E+000  
  843.00  0.0000E+000  
  843.50  0.0000E+000  
  844.00  0.0000E+000  
  844.50  0.0000E+000  
  845.00  0.0000E+000  
  845.50  0.0000E+000  
  846.00  0.0000E+000  
  846.50  0.0000E+000  
  847.00  0.0000E+000  
  847.50  0.0000E+000  
  848.00  0.0000E+000  
  848.50  0.0000E+000  
  849.00  0.0000E+000  
  849.50  0.0000E+000  
  850.00  0.0000E+000  
  850.50  0.0000E+000  
  851.00  0.0000E+000  
  851.50  0.0000E+000  
  852.00  0.0000E+000  
  852.50  0.0000E+000  
  853.00  0.0000E+000  
  853.50  0.0000E+000  
  854.00  0.0000E+000  
  854.50  0.0000E+000  
  855.00  0.0000E+000  
  855.50  0.0000E+000  
  856.00  0.0000E+000  
  856.50  0.0000E+000  
  857.00  0.0000E+000  
  857.50  0.0000E+000  
  858.00  0.0000E+000  
  858.50  0.0000E+000  
  859.00  0.0000E+000  
  859.50  0.0000E+000  
  860.00  0.0000E+000  
  860.50  0.0000E+000  
  861.00  0.0000E+000  
  861.50  0.0000E+000  
  862.00  0.0000E+000  
  862.50  0.0000E+000  
  863.00  0.0000E+000  
  863.50  0.0000E+000  
  864.00  0.0000E+000  
  864.50  0.0000E+000  
  865.00  0.0000E+000  
  865.50  0.0000E+000  
  866.00  0.0000E+000  
  866.50  0.0000E+000  
  867.00  0.0000E+000  
  867.50  0.0000E+000  
  868.00  0.0000E+000  
  868.50  0.0000E+000  
  869.00  0.0000E+000  
  869.50  0.0000E+000  
  870.00  0.0000E+000  
  870.50  0.0000E+000  
  871.00  0.0000E+000  
  871.50  0.0000E+000  
  872.00  0.0000E+000  
  872.50  0.0000E+000  
  873.00  0.0000E+000  
  873.50  0.0000E+000  
  874.00  0.0000E+000  
  874.50  0.0000E+000  
  875.00  0.0000E+000  
  875.50  0.0000E+000  
  876.00  0.0000E+000  
  876.50  0.0000E+000  
  877.00  0.0000E+000  
  877.50  0.0000E+000  
  878.00  0.0000E+000  
  878.50  0.0000E+000  
  879.00  0.0000E+000  
  879.50  0.0000E+000  
  880.00  0.0000E+000  
  880.50  0.0000E+000  
  881.00  0.0000E+000  
  881.50  0.0000E+000  
  882.00  0.0000E+000  
  882.50  0.0000E+000  
  883.00  0.0000E+000  
  883.50  0.0000E+000  
  884.00  0.0000E+000  
  884.50  0.0000E+000  
  885.00  0.0000E+000  
  885.50  0.0000E+000  
  886.00  0.0000E+000  
  886.50  0.0000E+000  
  887.00  0.0000E+000  
  887.50  0.0000E+000  
  888.00  0.0000E+000  
  888.50  0.0000E+000  
  889.00  0.0000E+000  
  889.50  0.0000E+000  
  890.00  0.0000E+000  
  890.50  0.0000E+000  
  891.00  0.0000E+000  
  891.50  0.0000E+000  
  892.00  0.0000E+000  
  892.50  0.0000E+000  
  893.00  0.0000E+000  
  893.50  0.0000E+000  
  894.00  0.0000E+000  
  894.50  0.0000E+000  
  895.00  0.0000E+000  
  895.50  0.0000E+000  
  896.00  0.0000E+000  
  896.50  0.0000E+000  
  897.00  0.0000E+000  
  897.50  0.0000E+000  
  898.00  0.0000E+000  
  898.50  0.0000E+000  
  899.00  0.0000E+000  
  899.50  0.0000E+000  
