
# From lspdd.org
# 
# Name: LFC Noma Twister Domestique
# Indice spectral Valeur 
# MSI 1.36 
# SLI 1.21 
# IPI 1.01 
# Pourcentage de bleu 57.4 
# Caractéristique Valeur 
# CCT calculée (K) 27760 
# CCT du fabricant (K) ND 
# Tension (V) 120 
# Puissance (W) 13.0 
# Efficacité lumineuse (Lum/W) ND 
#
# Image: '/app/system/img_1s/2602/medium_image1.JPG?1413486613'
# 

  273.00  0.0000E+000  
  273.50  0.0000E+000  
  274.00  0.0000E+000  
  274.50  0.0000E+000  
  275.00  0.0000E+000  
  275.50  0.0000E+000  
  276.00  0.0000E+000  
  276.50  0.0000E+000  
  277.00  0.0000E+000  
  277.50  0.0000E+000  
  278.00  0.0000E+000  
  278.50  0.0000E+000  
  279.00  0.0000E+000  
  279.50  0.0000E+000  
  280.00  0.0000E+000  
  280.50  0.0000E+000  
  281.00  0.0000E+000  
  281.50  0.0000E+000  
  282.00  0.0000E+000  
  282.50  0.0000E+000  
  283.00  0.0000E+000  
  283.50  0.0000E+000  
  284.00  0.0000E+000  
  284.50  0.0000E+000  
  285.00  0.0000E+000  
  285.50  0.0000E+000  
  286.00  0.0000E+000  
  286.50  0.0000E+000  
  287.00  0.0000E+000  
  287.50  0.0000E+000  
  288.00  0.0000E+000  
  288.50  0.0000E+000  
  289.00  0.0000E+000  
  289.50  0.0000E+000  
  290.00  0.0000E+000  
  290.50  0.0000E+000  
  291.00  0.0000E+000  
  291.50  0.0000E+000  
  292.00  0.0000E+000  
  292.50  0.0000E+000  
  293.00  0.0000E+000  
  293.50  0.0000E+000  
  294.00  0.0000E+000  
  294.50  0.0000E+000  
  295.00  0.0000E+000  
  295.50  0.0000E+000  
  296.00  0.0000E+000  
  296.50  0.0000E+000  
  297.00  0.0000E+000  
  297.50  0.0000E+000  
  298.00  0.0000E+000  
  298.50  0.0000E+000  
  299.00  0.0000E+000  
  299.50  0.0000E+000  
  300.00  0.0000E+000  
  300.50  0.0000E+000  
  301.00  0.0000E+000  
  301.50  0.0000E+000  
  302.00  0.0000E+000  
  302.50  0.0000E+000  
  303.00  0.0000E+000  
  303.50  0.0000E+000  
  304.00  0.0000E+000  
  304.50  0.0000E+000  
  305.00  0.0000E+000  
  305.50  0.0000E+000  
  306.00  0.0000E+000  
  306.50  0.0000E+000  
  307.00  0.0000E+000  
  307.50  0.0000E+000  
  308.00  0.0000E+000  
  308.50  0.0000E+000  
  309.00  0.0000E+000  
  309.50  0.0000E+000  
  310.00  0.0000E+000  
  310.50  0.0000E+000  
  311.00  0.0000E+000  
  311.50  0.0000E+000  
  312.00  0.0000E+000  
  312.50  3.4452E-007  
  313.00  4.0886E-005  
  313.50  6.1905E-005  
  314.00  4.8498E-005  
  314.50  2.9565E-005  
  315.00  0.0000E+000  
  315.50  0.0000E+000  
  316.00  0.0000E+000  
  316.50  0.0000E+000  
  317.00  0.0000E+000  
  317.50  0.0000E+000  
  318.00  0.0000E+000  
  318.50  2.3935E-005  
  319.00  5.3948E-005  
  319.50  4.6860E-005  
  320.00  2.8985E-005  
  320.50  0.0000E+000  
  321.00  0.0000E+000  
  321.50  0.0000E+000  
  322.00  0.0000E+000  
  322.50  0.0000E+000  
  323.00  3.9198E-006  
  323.50  4.7126E-007  
  324.00  0.0000E+000  
  324.50  0.0000E+000  
  325.00  0.0000E+000  
  325.50  5.7887E-007  
  326.00  1.4018E-005  
  326.50  1.2638E-005  
  327.00  0.0000E+000  
  327.50  0.0000E+000  
  328.00  0.0000E+000  
  328.50  0.0000E+000  
  329.00  0.0000E+000  
  329.50  0.0000E+000  
  330.00  0.0000E+000  
  330.50  0.0000E+000  
  331.00  0.0000E+000  
  331.50  0.0000E+000  
  332.00  0.0000E+000  
  332.50  0.0000E+000  
  333.00  0.0000E+000  
  333.50  0.0000E+000  
  334.00  0.0000E+000  
  334.50  0.0000E+000  
  335.00  0.0000E+000  
  335.50  0.0000E+000  
  336.00  0.0000E+000  
  336.50  0.0000E+000  
  337.00  0.0000E+000  
  337.50  2.9474E-005  
  338.00  2.1187E-005  
  338.50  3.3450E-006  
  339.00  0.0000E+000  
  339.50  0.0000E+000  
  340.00  0.0000E+000  
  340.50  0.0000E+000  
  341.00  0.0000E+000  
  341.50  0.0000E+000  
  342.00  0.0000E+000  
  342.50  0.0000E+000  
  343.00  0.0000E+000  
  343.50  0.0000E+000  
  344.00  0.0000E+000  
  344.50  0.0000E+000  
  345.00  0.0000E+000  
  345.50  0.0000E+000  
  346.00  0.0000E+000  
  346.50  0.0000E+000  
  347.00  0.0000E+000  
  347.50  0.0000E+000  
  348.00  0.0000E+000  
  348.50  0.0000E+000  
  349.00  0.0000E+000  
  349.50  0.0000E+000  
  350.00  0.0000E+000  
  350.50  0.0000E+000  
  351.00  0.0000E+000  
  351.50  0.0000E+000  
  352.00  0.0000E+000  
  352.50  0.0000E+000  
  353.00  0.0000E+000  
  353.50  0.0000E+000  
  354.00  0.0000E+000  
  354.50  0.0000E+000  
  355.00  0.0000E+000  
  355.50  2.1481E-007  
  356.00  1.8423E-005  
  356.50  5.4049E-005  
  357.00  0.0000E+000  
  357.50  0.0000E+000  
  358.00  0.0000E+000  
  358.50  0.0000E+000  
  359.00  0.0000E+000  
  359.50  0.0000E+000  
  360.00  0.0000E+000  
  360.50  0.0000E+000  
  361.00  0.0000E+000  
  361.50  0.0000E+000  
  362.00  0.0000E+000  
  362.50  0.0000E+000  
  363.00  0.0000E+000  
  363.50  1.9489E-005  
  364.00  1.1869E-004  
  364.50  2.1581E-004  
  365.00  2.7755E-004  
  365.50  3.0330E-004  
  366.00  2.9851E-004  
  366.50  2.5457E-004  
  367.00  1.9091E-004  
  367.50  8.5120E-005  
  368.00  5.6369E-006  
  368.50  0.0000E+000  
  369.00  0.0000E+000  
  369.50  1.1003E-005  
  370.00  3.2414E-005  
  370.50  1.3803E-005  
  371.00  1.3531E-005  
  371.50  1.0749E-005  
  372.00  2.5284E-005  
  372.50  1.7964E-006  
  373.00  4.1632E-006  
  373.50  1.9901E-005  
  374.00  2.0851E-005  
  374.50  2.1920E-005  
  375.00  1.6913E-006  
  375.50  0.0000E+000  
  376.00  0.0000E+000  
  376.50  0.0000E+000  
  377.00  0.0000E+000  
  377.50  0.0000E+000  
  378.00  0.0000E+000  
  378.50  0.0000E+000  
  379.00  0.0000E+000  
  379.50  0.0000E+000  
  380.00  0.0000E+000  
  380.50  0.0000E+000  
  381.00  0.0000E+000  
  381.50  0.0000E+000  
  382.00  2.6831E-005  
  382.50  1.8537E-005  
  383.00  5.4595E-005  
  383.50  1.3260E-004  
  384.00  1.3969E-004  
  384.50  1.1769E-004  
  385.00  1.0025E-005  
  385.50  0.0000E+000  
  386.00  0.0000E+000  
  386.50  0.0000E+000  
  387.00  0.0000E+000  
  387.50  0.0000E+000  
  388.00  2.0566E-006  
  388.50  7.8968E-006  
  389.00  4.0635E-007  
  389.50  0.0000E+000  
  390.00  0.0000E+000  
  390.50  0.0000E+000  
  391.00  0.0000E+000  
  391.50  0.0000E+000  
  392.00  0.0000E+000  
  392.50  0.0000E+000  
  393.00  0.0000E+000  
  393.50  0.0000E+000  
  394.00  0.0000E+000  
  394.50  0.0000E+000  
  395.00  0.0000E+000  
  395.50  9.2509E-006  
  396.00  4.6181E-006  
  396.50  3.2958E-005  
  397.00  3.5993E-006  
  397.50  0.0000E+000  
  398.00  0.0000E+000  
  398.50  0.0000E+000  
  399.00  0.0000E+000  
  399.50  9.4135E-007  
  400.00  3.6204E-005  
  400.50  3.0403E-005  
  401.00  4.6684E-005  
  401.50  5.7285E-006  
  402.00  9.2566E-006  
  402.50  4.1958E-005  
  403.00  2.0672E-004  
  403.50  5.3525E-004  
  404.00  8.0072E-004  
  404.50  9.3579E-004  
  405.00  8.3306E-004  
  405.50  5.3623E-004  
  406.00  2.9578E-004  
  406.50  1.7912E-004  
  407.00  1.3973E-004  
  407.50  1.5316E-004  
  408.00  1.3183E-004  
  408.50  6.2794E-005  
  409.00  4.7133E-005  
  409.50  8.2759E-005  
  410.00  1.1201E-004  
  410.50  7.9951E-005  
  411.00  7.1029E-006  
  411.50  0.0000E+000  
  412.00  0.0000E+000  
  412.50  0.0000E+000  
  413.00  0.0000E+000  
  413.50  0.0000E+000  
  414.00  0.0000E+000  
  414.50  0.0000E+000  
  415.00  0.0000E+000  
  415.50  1.3630E-006  
  416.00  3.1261E-005  
  416.50  4.8529E-005  
  417.00  3.6071E-005  
  417.50  1.7837E-005  
  418.00  1.1191E-005  
  418.50  6.2309E-005  
  419.00  8.8038E-005  
  419.50  8.2403E-005  
  420.00  1.9829E-005  
  420.50  0.0000E+000  
  421.00  1.2915E-005  
  421.50  6.6889E-005  
  422.00  1.0225E-004  
  422.50  1.0960E-004  
  423.00  1.0900E-004  
  423.50  1.3982E-004  
  424.00  1.5319E-004  
  424.50  1.3832E-004  
  425.00  1.2913E-004  
  425.50  1.3312E-004  
  426.00  1.3617E-004  
  426.50  1.1410E-004  
  427.00  7.7433E-005  
  427.50  8.9222E-005  
  428.00  1.1782E-004  
  428.50  1.6534E-004  
  429.00  2.0622E-004  
  429.50  1.9618E-004  
  430.00  2.1935E-004  
  430.50  2.4870E-004  
  431.00  2.9195E-004  
  431.50  3.1374E-004  
  432.00  2.2891E-004  
  432.50  1.8278E-004  
  433.00  1.6970E-004  
  433.50  2.7867E-004  
  434.00  5.7299E-004  
  434.50  1.2207E-003  
  435.00  2.0949E-003  
  435.50  2.7498E-003  
  436.00  2.6698E-003  
  436.50  2.0190E-003  
  437.00  1.1822E-003  
  437.50  6.4093E-004  
  438.00  4.4603E-004  
  438.50  3.9858E-004  
  439.00  3.3710E-004  
  439.50  3.1503E-004  
  440.00  2.9647E-004  
  440.50  3.1184E-004  
  441.00  3.3092E-004  
  441.50  3.6844E-004  
  442.00  4.3190E-004  
  442.50  4.3474E-004  
  443.00  4.0158E-004  
  443.50  3.4635E-004  
  444.00  3.0524E-004  
  444.50  3.1642E-004  
  445.00  3.4141E-004  
  445.50  3.7405E-004  
  446.00  3.7678E-004  
  446.50  3.4456E-004  
  447.00  3.1951E-004  
  447.50  3.3082E-004  
  448.00  3.8061E-004  
  448.50  4.3720E-004  
  449.00  4.3240E-004  
  449.50  4.0495E-004  
  450.00  3.5646E-004  
  450.50  3.4038E-004  
  451.00  3.3304E-004  
  451.50  3.3382E-004  
  452.00  3.2012E-004  
  452.50  3.0449E-004  
  453.00  3.2501E-004  
  453.50  3.2310E-004  
  454.00  2.9555E-004  
  454.50  2.9569E-004  
  455.00  2.7691E-004  
  455.50  2.9069E-004  
  456.00  2.7672E-004  
  456.50  2.3603E-004  
  457.00  2.5454E-004  
  457.50  2.5579E-004  
  458.00  2.6093E-004  
  458.50  2.6173E-004  
  459.00  2.9004E-004  
  459.50  3.1169E-004  
  460.00  3.1992E-004  
  460.50  3.1816E-004  
  461.00  3.2291E-004  
  461.50  3.1886E-004  
  462.00  3.2780E-004  
  462.50  3.1788E-004  
  463.00  3.1167E-004  
  463.50  3.2131E-004  
  464.00  2.9251E-004  
  464.50  3.0563E-004  
  465.00  3.3311E-004  
  465.50  3.4169E-004  
  466.00  3.4696E-004  
  466.50  3.2437E-004  
  467.00  3.1459E-004  
  467.50  2.7819E-004  
  468.00  2.7620E-004  
  468.50  2.9033E-004  
  469.00  2.7667E-004  
  469.50  2.7288E-004  
  470.00  2.6655E-004  
  470.50  2.6311E-004  
  471.00  2.9253E-004  
  471.50  2.6417E-004  
  472.00  2.4659E-004  
  472.50  2.2386E-004  
  473.00  2.1352E-004  
  473.50  1.8347E-004  
  474.00  1.7344E-004  
  474.50  1.6746E-004  
  475.00  1.9087E-004  
  475.50  2.1074E-004  
  476.00  2.3863E-004  
  476.50  2.4649E-004  
  477.00  2.5544E-004  
  477.50  2.1991E-004  
  478.00  2.0861E-004  
  478.50  1.8352E-004  
  479.00  1.5286E-004  
  479.50  1.4525E-004  
  480.00  1.6744E-004  
  480.50  1.9779E-004  
  481.00  1.9085E-004  
  481.50  1.7177E-004  
  482.00  1.8285E-004  
  482.50  2.1810E-004  
  483.00  2.4750E-004  
  483.50  2.5382E-004  
  484.00  2.5699E-004  
  484.50  3.1676E-004  
  485.00  3.6459E-004  
  485.50  3.9807E-004  
  486.00  4.2253E-004  
  486.50  4.1265E-004  
  487.00  3.9197E-004  
  487.50  3.5600E-004  
  488.00  3.4184E-004  
  488.50  3.5129E-004  
  489.00  3.7392E-004  
  489.50  3.3460E-004  
  490.00  3.1798E-004  
  490.50  2.8702E-004  
  491.00  2.6839E-004  
  491.50  2.5650E-004  
  492.00  2.3673E-004  
  492.50  2.4004E-004  
  493.00  2.3168E-004  
  493.50  2.3361E-004  
  494.00  2.4837E-004  
  494.50  2.5152E-004  
  495.00  2.5498E-004  
  495.50  2.2993E-004  
  496.00  2.0120E-004  
  496.50  1.7974E-004  
  497.00  1.7048E-004  
  497.50  1.4994E-004  
  498.00  1.5695E-004  
  498.50  1.4925E-004  
  499.00  1.4311E-004  
  499.50  1.4454E-004  
  500.00  1.3650E-004  
  500.50  1.2428E-004  
  501.00  1.0514E-004  
  501.50  8.4261E-005  
  502.00  5.6671E-005  
  502.50  5.4342E-005  
  503.00  8.2162E-005  
  503.50  1.0784E-004  
  504.00  1.2079E-004  
  504.50  1.1922E-004  
  505.00  1.1083E-004  
  505.50  1.1213E-004  
  506.00  9.7746E-005  
  506.50  9.4573E-005  
  507.00  9.3218E-005  
  507.50  9.7093E-005  
  508.00  1.0812E-004  
  508.50  1.0408E-004  
  509.00  1.1325E-004  
  509.50  1.2078E-004  
  510.00  1.2838E-004  
  510.50  1.2985E-004  
  511.00  1.1834E-004  
  511.50  1.2046E-004  
  512.00  1.3584E-004  
  512.50  1.4802E-004  
  513.00  1.4403E-004  
  513.50  1.3319E-004  
  514.00  1.0611E-004  
  514.50  8.3806E-005  
  515.00  7.3294E-005  
  515.50  7.6957E-005  
  516.00  1.0137E-004  
  516.50  9.3293E-005  
  517.00  8.3882E-005  
  517.50  6.7521E-005  
  518.00  8.0613E-005  
  518.50  8.7958E-005  
  519.00  7.6635E-005  
  519.50  6.1701E-005  
  520.00  4.3643E-005  
  520.50  6.9276E-005  
  521.00  1.0770E-004  
  521.50  1.4903E-004  
  522.00  1.5702E-004  
  522.50  1.2205E-004  
  523.00  8.6678E-005  
  523.50  7.1857E-005  
  524.00  6.5353E-005  
  524.50  3.8448E-005  
  525.00  2.2624E-005  
  525.50  1.5305E-005  
  526.00  4.2950E-005  
  526.50  6.9379E-005  
  527.00  7.0748E-005  
  527.50  4.7310E-005  
  528.00  1.2624E-005  
  528.50  9.5320E-006  
  529.00  2.2651E-005  
  529.50  4.1468E-005  
  530.00  6.4493E-005  
  530.50  7.2798E-005  
  531.00  9.7182E-005  
  531.50  8.6289E-005  
  532.00  6.0051E-005  
  532.50  3.7545E-005  
  533.00  4.4412E-005  
  533.50  5.8637E-005  
  534.00  8.1459E-005  
  534.50  7.6521E-005  
  535.00  7.8423E-005  
  535.50  9.3269E-005  
  536.00  1.0056E-004  
  536.50  1.0552E-004  
  537.00  1.1370E-004  
  537.50  1.2204E-004  
  538.00  1.4890E-004  
  538.50  1.9152E-004  
  539.00  2.5736E-004  
  539.50  3.5263E-004  
  540.00  4.9365E-004  
  540.50  6.5557E-004  
  541.00  8.3120E-004  
  541.50  9.7578E-004  
  542.00  1.0101E-003  
  542.50  9.6459E-004  
  543.00  8.7635E-004  
  543.50  8.0311E-004  
  544.00  8.4942E-004  
  544.50  1.0085E-003  
  545.00  1.3214E-003  
  545.50  1.6419E-003  
  546.00  1.7460E-003  
  546.50  1.5635E-003  
  547.00  1.1834E-003  
  547.50  8.3540E-004  
  548.00  6.2111E-004  
  548.50  5.0512E-004  
  549.00  4.0229E-004  
  549.50  3.4250E-004  
  550.00  3.1199E-004  
  550.50  2.8378E-004  
  551.00  2.7149E-004  
  551.50  2.7011E-004  
  552.00  2.6961E-004  
  552.50  2.3672E-004  
  553.00  1.9713E-004  
  553.50  1.8009E-004  
  554.00  1.5337E-004  
  554.50  1.0545E-004  
  555.00  3.0115E-005  
  555.50  1.2863E-005  
  556.00  1.4720E-005  
  556.50  2.9157E-005  
  557.00  1.3703E-005  
  557.50  0.0000E+000  
  558.00  0.0000E+000  
  558.50  0.0000E+000  
  559.00  1.1074E-005  
  559.50  4.0387E-005  
  560.00  5.6555E-005  
  560.50  4.3554E-005  
  561.00  1.4842E-005  
  561.50  3.5110E-006  
  562.00  1.4963E-005  
  562.50  5.5988E-006  
  563.00  1.0694E-005  
  563.50  5.6818E-007  
  564.00  2.3621E-005  
  564.50  2.1177E-005  
  565.00  3.2636E-005  
  565.50  3.6821E-005  
  566.00  1.6320E-005  
  566.50  8.8507E-006  
  567.00  1.1561E-006  
  567.50  0.0000E+000  
  568.00  4.6592E-006  
  568.50  8.2840E-006  
  569.00  1.1843E-005  
  569.50  3.1298E-005  
  570.00  1.9149E-005  
  570.50  3.8082E-005  
  571.00  4.3863E-005  
  571.50  3.5110E-005  
  572.00  2.3329E-005  
  572.50  0.0000E+000  
  573.00  0.0000E+000  
  573.50  0.0000E+000  
  574.00  0.0000E+000  
  574.50  0.0000E+000  
  575.00  0.0000E+000  
  575.50  0.0000E+000  
  576.00  4.3658E-005  
  576.50  1.1833E-004  
  577.00  1.5877E-004  
  577.50  1.4703E-004  
  578.00  1.5874E-004  
  578.50  1.9620E-004  
  579.00  2.4843E-004  
  579.50  2.2243E-004  
  580.00  1.5934E-004  
  580.50  8.9759E-005  
  581.00  4.8920E-005  
  581.50  2.8691E-005  
  582.00  3.8447E-005  
  582.50  5.5272E-005  
  583.00  6.6322E-005  
  583.50  7.3522E-005  
  584.00  5.7648E-005  
  584.50  6.3127E-005  
  585.00  7.1594E-005  
  585.50  8.5596E-005  
  586.00  8.4194E-005  
  586.50  8.1229E-005  
  587.00  1.1683E-004  
  587.50  1.6584E-004  
  588.00  1.8740E-004  
  588.50  1.5628E-004  
  589.00  9.6362E-005  
  589.50  6.5447E-005  
  590.00  2.8320E-005  
  590.50  1.8402E-005  
  591.00  2.2676E-006  
  591.50  2.3001E-005  
  592.00  5.7651E-005  
  592.50  7.7789E-005  
  593.00  5.4134E-005  
  593.50  2.1068E-006  
  594.00  0.0000E+000  
  594.50  3.0646E-005  
  595.00  5.9699E-005  
  595.50  3.6632E-005  
  596.00  6.3035E-006  
  596.50  2.3972E-006  
  597.00  3.5244E-005  
  597.50  5.5082E-005  
  598.00  6.0051E-005  
  598.50  2.0721E-005  
  599.00  4.2569E-006  
  599.50  2.7863E-005  
  600.00  5.1402E-005  
  600.50  4.7085E-005  
  601.00  3.8318E-005  
  601.50  3.5929E-005  
  602.00  1.7836E-005  
  602.50  0.0000E+000  
  603.00  0.0000E+000  
  603.50  0.0000E+000  
  604.00  0.0000E+000  
  604.50  0.0000E+000  
  605.00  0.0000E+000  
  605.50  0.0000E+000  
  606.00  9.5498E-006  
  606.50  6.4322E-005  
  607.00  5.8249E-005  
  607.50  4.9153E-005  
  608.00  5.2429E-005  
  608.50  1.1777E-004  
  609.00  1.9095E-004  
  609.50  3.2681E-004  
  610.00  5.7181E-004  
  610.50  8.7218E-004  
  611.00  1.1221E-003  
  611.50  1.1335E-003  
  612.00  9.5206E-004  
  612.50  7.3783E-004  
  613.00  5.5859E-004  
  613.50  4.7308E-004  
  614.00  3.5705E-004  
  614.50  2.9887E-004  
  615.00  2.2482E-004  
  615.50  1.5637E-004  
  616.00  1.1934E-004  
  616.50  1.0467E-004  
  617.00  8.1575E-005  
  617.50  6.0129E-005  
  618.00  3.5503E-005  
  618.50  2.2056E-005  
  619.00  9.3754E-006  
  619.50  0.0000E+000  
  620.00  6.9196E-006  
  620.50  4.4107E-005  
  621.00  4.8229E-005  
  621.50  4.8044E-005  
  622.00  3.1080E-005  
  622.50  7.2366E-005  
  623.00  1.2855E-004  
  623.50  1.5661E-004  
  624.00  1.8072E-004  
  624.50  1.3461E-004  
  625.00  1.1462E-004  
  625.50  7.7493E-005  
  626.00  8.3343E-005  
  626.50  8.0437E-005  
  627.00  5.8487E-005  
  627.50  5.1420E-005  
  628.00  2.9940E-005  
  628.50  1.0448E-005  
  629.00  1.2299E-005  
  629.50  5.6009E-005  
  630.00  1.1148E-004  
  630.50  1.5359E-004  
  631.00  1.5243E-004  
  631.50  1.2525E-004  
  632.00  7.3640E-005  
  632.50  4.3552E-005  
  633.00  0.0000E+000  
  633.50  0.0000E+000  
  634.00  0.0000E+000  
  634.50  0.0000E+000  
  635.00  0.0000E+000  
  635.50  0.0000E+000  
  636.00  1.1557E-005  
  636.50  5.4490E-005  
  637.00  7.2108E-005  
  637.50  3.6655E-005  
  638.00  0.0000E+000  
  638.50  0.0000E+000  
  639.00  0.0000E+000  
  639.50  0.0000E+000  
  640.00  0.0000E+000  
  640.50  0.0000E+000  
  641.00  0.0000E+000  
  641.50  0.0000E+000  
  642.00  0.0000E+000  
  642.50  0.0000E+000  
  643.00  0.0000E+000  
  643.50  0.0000E+000  
  644.00  0.0000E+000  
  644.50  0.0000E+000  
  645.00  0.0000E+000  
  645.50  0.0000E+000  
  646.00  0.0000E+000  
  646.50  0.0000E+000  
  647.00  0.0000E+000  
  647.50  0.0000E+000  
  648.00  0.0000E+000  
  648.50  0.0000E+000  
  649.00  0.0000E+000  
  649.50  0.0000E+000  
  650.00  5.5912E-006  
  650.50  5.0552E-005  
  651.00  6.9695E-005  
  651.50  7.7812E-005  
  652.00  2.8509E-005  
  652.50  5.3863E-006  
  653.00  0.0000E+000  
  653.50  0.0000E+000  
  654.00  0.0000E+000  
  654.50  0.0000E+000  
  655.00  0.0000E+000  
  655.50  0.0000E+000  
  656.00  0.0000E+000  
  656.50  1.8255E-005  
  657.00  8.1708E-006  
  657.50  1.1201E-006  
  658.00  0.0000E+000  
  658.50  0.0000E+000  
  659.00  0.0000E+000  
  659.50  0.0000E+000  
  660.00  0.0000E+000  
  660.50  0.0000E+000  
  661.00  2.6864E-005  
  661.50  2.0015E-005  
  662.00  2.7774E-005  
  662.50  4.3043E-006  
  663.00  0.0000E+000  
  663.50  3.0466E-006  
  664.00  1.5985E-005  
  664.50  0.0000E+000  
  665.00  0.0000E+000  
  665.50  0.0000E+000  
  666.00  0.0000E+000  
  666.50  0.0000E+000  
  667.00  0.0000E+000  
  667.50  0.0000E+000  
  668.00  0.0000E+000  
  668.50  0.0000E+000  
  669.00  0.0000E+000  
  669.50  0.0000E+000  
  670.00  0.0000E+000  
  670.50  0.0000E+000  
  671.00  0.0000E+000  
  671.50  0.0000E+000  
  672.00  0.0000E+000  
  672.50  0.0000E+000  
  673.00  4.3772E-006  
  673.50  3.4469E-006  
  674.00  0.0000E+000  
  674.50  0.0000E+000  
  675.00  0.0000E+000  
  675.50  1.3903E-005  
  676.00  0.0000E+000  
  676.50  0.0000E+000  
  677.00  0.0000E+000  
  677.50  0.0000E+000  
  678.00  0.0000E+000  
  678.50  0.0000E+000  
  679.00  0.0000E+000  
  679.50  0.0000E+000  
  680.00  0.0000E+000  
  680.50  0.0000E+000  
  681.00  0.0000E+000  
  681.50  2.6795E-008  
  682.00  3.1159E-005  
  682.50  3.6487E-005  
  683.00  5.0638E-006  
  683.50  0.0000E+000  
  684.00  0.0000E+000  
  684.50  0.0000E+000  
  685.00  0.0000E+000  
  685.50  2.9633E-005  
  686.00  9.0159E-005  
  686.50  8.8734E-005  
  687.00  7.5066E-005  
  687.50  2.6386E-006  
  688.00  0.0000E+000  
  688.50  0.0000E+000  
  689.00  0.0000E+000  
  689.50  1.8689E-005  
  690.00  8.1608E-005  
  690.50  1.0091E-004  
  691.00  1.1120E-004  
  691.50  2.6283E-007  
  692.00  0.0000E+000  
  692.50  0.0000E+000  
  693.00  0.0000E+000  
  693.50  0.0000E+000  
  694.00  0.0000E+000  
  694.50  2.0697E-005  
  695.00  0.0000E+000  
  695.50  0.0000E+000  
  696.00  1.0071E-005  
  696.50  5.6567E-005  
  697.00  7.9745E-005  
  697.50  2.9505E-005  
  698.00  0.0000E+000  
  698.50  0.0000E+000  
  699.00  0.0000E+000  
  699.50  0.0000E+000  
  700.00  0.0000E+000  
  700.50  0.0000E+000  
  701.00  0.0000E+000  
  701.50  0.0000E+000  
  702.00  0.0000E+000  
  702.50  0.0000E+000  
  703.00  0.0000E+000  
  703.50  4.1684E-005  
  704.00  0.0000E+000  
  704.50  0.0000E+000  
  705.00  0.0000E+000  
  705.50  0.0000E+000  
  706.00  1.3159E-005  
  706.50  6.0192E-005  
  707.00  1.1403E-004  
  707.50  1.3966E-004  
  708.00  1.4389E-004  
  708.50  1.4327E-004  
  709.00  1.5164E-004  
  709.50  1.6149E-004  
  710.00  7.4037E-005  
  710.50  1.3208E-005  
  711.00  1.8453E-005  
  711.50  6.1950E-005  
  712.00  7.6087E-005  
  712.50  6.6557E-005  
  713.00  4.5106E-005  
  713.50  3.5737E-005  
  714.00  0.0000E+000  
  714.50  0.0000E+000  
  715.00  0.0000E+000  
  715.50  0.0000E+000  
  716.00  0.0000E+000  
  716.50  4.4558E-006  
  717.00  1.7330E-007  
  717.50  0.0000E+000  
  718.00  0.0000E+000  
  718.50  0.0000E+000  
  719.00  0.0000E+000  
  719.50  0.0000E+000  
  720.00  0.0000E+000  
  720.50  0.0000E+000  
  721.00  0.0000E+000  
  721.50  0.0000E+000  
  722.00  0.0000E+000  
  722.50  0.0000E+000  
  723.00  0.0000E+000  
  723.50  1.0018E-005  
  724.00  4.2314E-005  
  724.50  9.8132E-005  
  725.00  4.0921E-006  
  725.50  0.0000E+000  
  726.00  0.0000E+000  
  726.50  0.0000E+000  
  727.00  0.0000E+000  
  727.50  0.0000E+000  
  728.00  5.4210E-006  
  728.50  4.5767E-005  
  729.00  3.4849E-005  
  729.50  1.6345E-005  
  730.00  0.0000E+000  
  730.50  0.0000E+000  
  731.00  0.0000E+000  
  731.50  0.0000E+000  
  732.00  0.0000E+000  
  732.50  0.0000E+000  
  733.00  0.0000E+000  
  733.50  0.0000E+000  
  734.00  0.0000E+000  
  734.50  0.0000E+000  
  735.00  0.0000E+000  
  735.50  0.0000E+000  
  736.00  0.0000E+000  
  736.50  0.0000E+000  
  737.00  0.0000E+000  
  737.50  0.0000E+000  
  738.00  0.0000E+000  
  738.50  0.0000E+000  
  739.00  0.0000E+000  
  739.50  0.0000E+000  
  740.00  0.0000E+000  
  740.50  0.0000E+000  
  741.00  0.0000E+000  
  741.50  0.0000E+000  
  742.00  0.0000E+000  
  742.50  0.0000E+000  
  743.00  0.0000E+000  
  743.50  0.0000E+000  
  744.00  0.0000E+000  
  744.50  0.0000E+000  
  745.00  0.0000E+000  
  745.50  0.0000E+000  
  746.00  0.0000E+000  
  746.50  0.0000E+000  
  747.00  0.0000E+000  
  747.50  3.2497E-005  
  748.00  0.0000E+000  
  748.50  0.0000E+000  
  749.00  0.0000E+000  
  749.50  0.0000E+000  
  750.00  0.0000E+000  
  750.50  0.0000E+000  
  751.00  0.0000E+000  
  751.50  0.0000E+000  
  752.00  0.0000E+000  
  752.50  0.0000E+000  
  753.00  0.0000E+000  
  753.50  0.0000E+000  
  754.00  0.0000E+000  
  754.50  0.0000E+000  
  755.00  0.0000E+000  
  755.50  0.0000E+000  
  756.00  0.0000E+000  
  756.50  0.0000E+000  
  757.00  0.0000E+000  
  757.50  0.0000E+000  
  758.00  0.0000E+000  
  758.50  0.0000E+000  
  759.00  0.0000E+000  
  759.50  0.0000E+000  
  760.00  0.0000E+000  
  760.50  0.0000E+000  
  761.00  0.0000E+000  
  761.50  0.0000E+000  
  762.00  0.0000E+000  
  762.50  0.0000E+000  
  763.00  4.9354E-006  
  763.50  0.0000E+000  
  764.00  0.0000E+000  
  764.50  0.0000E+000  
  765.00  0.0000E+000  
  765.50  0.0000E+000  
  766.00  0.0000E+000  
  766.50  0.0000E+000  
  767.00  0.0000E+000  
  767.50  0.0000E+000  
  768.00  0.0000E+000  
  768.50  0.0000E+000  
  769.00  0.0000E+000  
  769.50  0.0000E+000  
  770.00  0.0000E+000  
  770.50  0.0000E+000  
  771.00  0.0000E+000  
  771.50  0.0000E+000  
  772.00  0.0000E+000  
  772.50  0.0000E+000  
  773.00  0.0000E+000  
  773.50  0.0000E+000  
  774.00  0.0000E+000  
  774.50  0.0000E+000  
  775.00  0.0000E+000  
  775.50  0.0000E+000  
  776.00  0.0000E+000  
  776.50  0.0000E+000  
  777.00  1.2579E-005  
  777.50  4.8361E-005  
  778.00  2.6780E-007  
  778.50  0.0000E+000  
  779.00  0.0000E+000  
  779.50  0.0000E+000  
  780.00  0.0000E+000  
  780.50  0.0000E+000  
  781.00  9.3461E-007  
  781.50  1.0090E-004  
  782.00  2.6292E-005  
  782.50  3.8523E-005  
  783.00  0.0000E+000  
  783.50  0.0000E+000  
  784.00  0.0000E+000  
  784.50  0.0000E+000  
  785.00  0.0000E+000  
  785.50  0.0000E+000  
  786.00  0.0000E+000  
  786.50  0.0000E+000  
  787.00  0.0000E+000  
  787.50  0.0000E+000  
  788.00  0.0000E+000  
  788.50  0.0000E+000  
  789.00  0.0000E+000  
  789.50  0.0000E+000  
  790.00  0.0000E+000  
  790.50  3.4095E-005  
  791.00  4.7353E-005  
  791.50  0.0000E+000  
  792.00  0.0000E+000  
  792.50  0.0000E+000  
  793.00  0.0000E+000  
  793.50  0.0000E+000  
  794.00  0.0000E+000  
  794.50  0.0000E+000  
  795.00  0.0000E+000  
  795.50  0.0000E+000  
  796.00  0.0000E+000  
  796.50  0.0000E+000  
  797.00  0.0000E+000  
  797.50  0.0000E+000  
  798.00  0.0000E+000  
  798.50  0.0000E+000  
  799.00  0.0000E+000  
  799.50  0.0000E+000  
  800.00  0.0000E+000  
  800.50  0.0000E+000  
  801.00  0.0000E+000  
  801.50  0.0000E+000  
  802.00  0.0000E+000  
  802.50  0.0000E+000  
  803.00  0.0000E+000  
  803.50  0.0000E+000  
  804.00  0.0000E+000  
  804.50  0.0000E+000  
  805.00  1.7764E-004  
  805.50  3.0399E-004  
  806.00  2.1306E-004  
  806.50  8.8435E-006  
  807.00  0.0000E+000  
  807.50  0.0000E+000  
  808.00  0.0000E+000  
  808.50  0.0000E+000  
  809.00  0.0000E+000  
  809.50  0.0000E+000  
  810.00  3.2112E-005  
  810.50  1.0821E-005  
  811.00  0.0000E+000  
  811.50  0.0000E+000  
  812.00  0.0000E+000  
  812.50  0.0000E+000  
  813.00  0.0000E+000  
  813.50  0.0000E+000  
  814.00  0.0000E+000  
  814.50  0.0000E+000  
  815.00  0.0000E+000  
  815.50  0.0000E+000  
  816.00  0.0000E+000  
  816.50  0.0000E+000  
  817.00  0.0000E+000  
  817.50  0.0000E+000  
  818.00  0.0000E+000  
  818.50  0.0000E+000  
  819.00  0.0000E+000  
  819.50  0.0000E+000  
  820.00  0.0000E+000  
  820.50  0.0000E+000  
  821.00  0.0000E+000  
  821.50  0.0000E+000  
  822.00  0.0000E+000  
  822.50  0.0000E+000  
  823.00  0.0000E+000  
  823.50  0.0000E+000  
  824.00  0.0000E+000  
  824.50  0.0000E+000  
  825.00  0.0000E+000  
  825.50  1.5257E-004  
  826.00  1.7613E-004  
  826.50  1.6832E-004  
  827.00  1.0501E-004  
  827.50  1.5989E-006  
  828.00  0.0000E+000  
  828.50  0.0000E+000  
  829.00  0.0000E+000  
  829.50  0.0000E+000  
  830.00  0.0000E+000  
  830.50  0.0000E+000  
  831.00  0.0000E+000  
  831.50  4.0331E-005  
  832.00  2.6365E-004  
  832.50  3.4191E-004  
  833.00  2.0710E-005  
  833.50  0.0000E+000  
  834.00  0.0000E+000  
  834.50  1.0618E-004  
  835.00  0.0000E+000  
  835.50  0.0000E+000  
  836.00  0.0000E+000  
  836.50  0.0000E+000  
  837.00  0.0000E+000  
  837.50  0.0000E+000  
  838.00  0.0000E+000  
  838.50  0.0000E+000  
  839.00  0.0000E+000  
  839.50  0.0000E+000  
  840.00  0.0000E+000  
  840.50  0.0000E+000  
  841.00  0.0000E+000  
  841.50  0.0000E+000  
  842.00  0.0000E+000  
  842.50  0.0000E+000  
  843.00  0.0000E+000  
  843.50  0.0000E+000  
  844.00  0.0000E+000  
  844.50  0.0000E+000  
  845.00  0.0000E+000  
  845.50  0.0000E+000  
  846.00  0.0000E+000  
  846.50  0.0000E+000  
  847.00  0.0000E+000  
  847.50  0.0000E+000  
  848.00  0.0000E+000  
  848.50  0.0000E+000  
  849.00  0.0000E+000  
  849.50  0.0000E+000  
  850.00  0.0000E+000  
  850.50  0.0000E+000  
  851.00  0.0000E+000  
  851.50  0.0000E+000  
  852.00  3.6104E-004  
  852.50  4.2829E-004  
  853.00  0.0000E+000  
  853.50  0.0000E+000  
  854.00  5.8604E-004  
  854.50  2.2585E-004  
  855.00  0.0000E+000  
  855.50  0.0000E+000  
  856.00  0.0000E+000  
  856.50  0.0000E+000  
  857.00  0.0000E+000  
  857.50  0.0000E+000  
  858.00  0.0000E+000  
  858.50  0.0000E+000  
  859.00  0.0000E+000  
  859.50  0.0000E+000  
  860.00  0.0000E+000  
  860.50  0.0000E+000  
  861.00  0.0000E+000  
  861.50  0.0000E+000  
  862.00  0.0000E+000  
  862.50  0.0000E+000  
  863.00  0.0000E+000  
  863.50  0.0000E+000  
  864.00  0.0000E+000  
  864.50  0.0000E+000  
  865.00  0.0000E+000  
  865.50  0.0000E+000  
  866.00  2.8008E-005  
  866.50  0.0000E+000  
  867.00  0.0000E+000  
  867.50  2.7944E-004  
  868.00  9.0122E-004  
  868.50  3.6414E-005  
  869.00  0.0000E+000  
  869.50  0.0000E+000  
  870.00  0.0000E+000  
  870.50  0.0000E+000  
  871.00  0.0000E+000  
  871.50  0.0000E+000  
  872.00  1.0425E-005  
  872.50  2.3998E-004  
  873.00  0.0000E+000  
  873.50  0.0000E+000  
  874.00  0.0000E+000  
  874.50  0.0000E+000  
  875.00  0.0000E+000  
  875.50  0.0000E+000  
  876.00  0.0000E+000  
  876.50  0.0000E+000  
  877.00  0.0000E+000  
  877.50  0.0000E+000  
  878.00  0.0000E+000  
  878.50  0.0000E+000  
  879.00  0.0000E+000  
  879.50  0.0000E+000  
  880.00  0.0000E+000  
  880.50  0.0000E+000  
  881.00  0.0000E+000  
  881.50  0.0000E+000  
  882.00  0.0000E+000  
  882.50  0.0000E+000  
  883.00  0.0000E+000  
  883.50  0.0000E+000  
  884.00  0.0000E+000  
  884.50  0.0000E+000  
  885.00  0.0000E+000  
  885.50  0.0000E+000  
  886.00  0.0000E+000  
  886.50  0.0000E+000  
  887.00  0.0000E+000  
  887.50  0.0000E+000  
  888.00  0.0000E+000  
  888.50  0.0000E+000  
  889.00  0.0000E+000  
  889.50  0.0000E+000  
  890.00  0.0000E+000  
  890.50  0.0000E+000  
  891.00  0.0000E+000  
  891.50  0.0000E+000  
  892.00  0.0000E+000  
  892.50  0.0000E+000  
  893.00  1.4767E-005  
  893.50  0.0000E+000  
  894.00  0.0000E+000  
  894.50  0.0000E+000  
  895.00  0.0000E+000  
  895.50  4.7782E-005  
  896.00  3.9058E-004  
  896.50  1.3205E-005  
  897.00  0.0000E+000  
  897.50  0.0000E+000  
  898.00  0.0000E+000  
  898.50  0.0000E+000  
  899.00  0.0000E+000  
  899.50  0.0000E+000  
