
# From lspdd.org
# 
# Name: DEL LightingScience PAR20 Domestique
# Indice spectral Valeur 
# MSI 0.42 
# SLI 0.62 
# IPI 0.68 
# Pourcentage de bleu 26.4 
# Caractéristique Valeur 
# CCT calculée (K) 3816 
# CCT du fabricant (K) 4000 
# Tension (V) 120 
# Puissance (W) 8.0 
# Efficacité lumineuse (Lum/W) 46.9 
#
# Image: '/app/system/img_2s/2603/medium_image2.JPG?1413486617'
# Image: '/app/system/img_1s/2603/medium_image1.JPG?1413486621'
# 

  273.00  0.0000E+000  
  273.50  0.0000E+000  
  274.00  0.0000E+000  
  274.50  0.0000E+000  
  275.00  0.0000E+000  
  275.50  0.0000E+000  
  276.00  0.0000E+000  
  276.50  0.0000E+000  
  277.00  0.0000E+000  
  277.50  0.0000E+000  
  278.00  0.0000E+000  
  278.50  0.0000E+000  
  279.00  0.0000E+000  
  279.50  0.0000E+000  
  280.00  0.0000E+000  
  280.50  0.0000E+000  
  281.00  0.0000E+000  
  281.50  0.0000E+000  
  282.00  0.0000E+000  
  282.50  0.0000E+000  
  283.00  0.0000E+000  
  283.50  0.0000E+000  
  284.00  0.0000E+000  
  284.50  0.0000E+000  
  285.00  0.0000E+000  
  285.50  0.0000E+000  
  286.00  0.0000E+000  
  286.50  0.0000E+000  
  287.00  0.0000E+000  
  287.50  0.0000E+000  
  288.00  0.0000E+000  
  288.50  0.0000E+000  
  289.00  0.0000E+000  
  289.50  0.0000E+000  
  290.00  0.0000E+000  
  290.50  0.0000E+000  
  291.00  0.0000E+000  
  291.50  0.0000E+000  
  292.00  0.0000E+000  
  292.50  0.0000E+000  
  293.00  0.0000E+000  
  293.50  0.0000E+000  
  294.00  0.0000E+000  
  294.50  0.0000E+000  
  295.00  0.0000E+000  
  295.50  0.0000E+000  
  296.00  0.0000E+000  
  296.50  0.0000E+000  
  297.00  0.0000E+000  
  297.50  0.0000E+000  
  298.00  0.0000E+000  
  298.50  0.0000E+000  
  299.00  0.0000E+000  
  299.50  0.0000E+000  
  300.00  0.0000E+000  
  300.50  0.0000E+000  
  301.00  0.0000E+000  
  301.50  0.0000E+000  
  302.00  0.0000E+000  
  302.50  0.0000E+000  
  303.00  0.0000E+000  
  303.50  0.0000E+000  
  304.00  0.0000E+000  
  304.50  0.0000E+000  
  305.00  0.0000E+000  
  305.50  0.0000E+000  
  306.00  0.0000E+000  
  306.50  0.0000E+000  
  307.00  0.0000E+000  
  307.50  0.0000E+000  
  308.00  0.0000E+000  
  308.50  0.0000E+000  
  309.00  0.0000E+000  
  309.50  0.0000E+000  
  310.00  0.0000E+000  
  310.50  0.0000E+000  
  311.00  0.0000E+000  
  311.50  0.0000E+000  
  312.00  0.0000E+000  
  312.50  0.0000E+000  
  313.00  0.0000E+000  
  313.50  0.0000E+000  
  314.00  0.0000E+000  
  314.50  0.0000E+000  
  315.00  0.0000E+000  
  315.50  0.0000E+000  
  316.00  0.0000E+000  
  316.50  0.0000E+000  
  317.00  0.0000E+000  
  317.50  0.0000E+000  
  318.00  0.0000E+000  
  318.50  0.0000E+000  
  319.00  0.0000E+000  
  319.50  0.0000E+000  
  320.00  0.0000E+000  
  320.50  0.0000E+000  
  321.00  0.0000E+000  
  321.50  0.0000E+000  
  322.00  0.0000E+000  
  322.50  0.0000E+000  
  323.00  0.0000E+000  
  323.50  0.0000E+000  
  324.00  0.0000E+000  
  324.50  0.0000E+000  
  325.00  0.0000E+000  
  325.50  0.0000E+000  
  326.00  0.0000E+000  
  326.50  0.0000E+000  
  327.00  0.0000E+000  
  327.50  0.0000E+000  
  328.00  0.0000E+000  
  328.50  0.0000E+000  
  329.00  0.0000E+000  
  329.50  0.0000E+000  
  330.00  0.0000E+000  
  330.50  0.0000E+000  
  331.00  0.0000E+000  
  331.50  0.0000E+000  
  332.00  0.0000E+000  
  332.50  0.0000E+000  
  333.00  0.0000E+000  
  333.50  0.0000E+000  
  334.00  0.0000E+000  
  334.50  0.0000E+000  
  335.00  0.0000E+000  
  335.50  0.0000E+000  
  336.00  0.0000E+000  
  336.50  0.0000E+000  
  337.00  0.0000E+000  
  337.50  0.0000E+000  
  338.00  0.0000E+000  
  338.50  0.0000E+000  
  339.00  0.0000E+000  
  339.50  0.0000E+000  
  340.00  0.0000E+000  
  340.50  0.0000E+000  
  341.00  0.0000E+000  
  341.50  0.0000E+000  
  342.00  0.0000E+000  
  342.50  0.0000E+000  
  343.00  0.0000E+000  
  343.50  0.0000E+000  
  344.00  0.0000E+000  
  344.50  0.0000E+000  
  345.00  0.0000E+000  
  345.50  0.0000E+000  
  346.00  0.0000E+000  
  346.50  0.0000E+000  
  347.00  0.0000E+000  
  347.50  0.0000E+000  
  348.00  0.0000E+000  
  348.50  0.0000E+000  
  349.00  0.0000E+000  
  349.50  0.0000E+000  
  350.00  0.0000E+000  
  350.50  0.0000E+000  
  351.00  0.0000E+000  
  351.50  0.0000E+000  
  352.00  0.0000E+000  
  352.50  0.0000E+000  
  353.00  0.0000E+000  
  353.50  0.0000E+000  
  354.00  0.0000E+000  
  354.50  0.0000E+000  
  355.00  0.0000E+000  
  355.50  0.0000E+000  
  356.00  0.0000E+000  
  356.50  0.0000E+000  
  357.00  0.0000E+000  
  357.50  0.0000E+000  
  358.00  0.0000E+000  
  358.50  0.0000E+000  
  359.00  0.0000E+000  
  359.50  0.0000E+000  
  360.00  0.0000E+000  
  360.50  0.0000E+000  
  361.00  0.0000E+000  
  361.50  0.0000E+000  
  362.00  0.0000E+000  
  362.50  0.0000E+000  
  363.00  0.0000E+000  
  363.50  0.0000E+000  
  364.00  0.0000E+000  
  364.50  0.0000E+000  
  365.00  0.0000E+000  
  365.50  0.0000E+000  
  366.00  0.0000E+000  
  366.50  0.0000E+000  
  367.00  0.0000E+000  
  367.50  0.0000E+000  
  368.00  0.0000E+000  
  368.50  0.0000E+000  
  369.00  0.0000E+000  
  369.50  0.0000E+000  
  370.00  0.0000E+000  
  370.50  0.0000E+000  
  371.00  0.0000E+000  
  371.50  0.0000E+000  
  372.00  0.0000E+000  
  372.50  0.0000E+000  
  373.00  0.0000E+000  
  373.50  0.0000E+000  
  374.00  0.0000E+000  
  374.50  0.0000E+000  
  375.00  0.0000E+000  
  375.50  0.0000E+000  
  376.00  0.0000E+000  
  376.50  0.0000E+000  
  377.00  0.0000E+000  
  377.50  0.0000E+000  
  378.00  0.0000E+000  
  378.50  0.0000E+000  
  379.00  0.0000E+000  
  379.50  0.0000E+000  
  380.00  0.0000E+000  
  380.50  2.9534E-005  
  381.00  7.1110E-005  
  381.50  2.2208E-005  
  382.00  0.0000E+000  
  382.50  0.0000E+000  
  383.00  0.0000E+000  
  383.50  0.0000E+000  
  384.00  0.0000E+000  
  384.50  0.0000E+000  
  385.00  0.0000E+000  
  385.50  1.7373E-005  
  386.00  5.0005E-006  
  386.50  0.0000E+000  
  387.00  0.0000E+000  
  387.50  0.0000E+000  
  388.00  0.0000E+000  
  388.50  0.0000E+000  
  389.00  0.0000E+000  
  389.50  0.0000E+000  
  390.00  0.0000E+000  
  390.50  0.0000E+000  
  391.00  9.6064E-006  
  391.50  3.6189E-005  
  392.00  3.0522E-005  
  392.50  0.0000E+000  
  393.00  0.0000E+000  
  393.50  0.0000E+000  
  394.00  2.7645E-005  
  394.50  5.0654E-005  
  395.00  1.8955E-005  
  395.50  0.0000E+000  
  396.00  0.0000E+000  
  396.50  0.0000E+000  
  397.00  0.0000E+000  
  397.50  0.0000E+000  
  398.00  0.0000E+000  
  398.50  1.0070E-005  
  399.00  5.3131E-006  
  399.50  2.9606E-005  
  400.00  1.0810E-004  
  400.50  1.1633E-004  
  401.00  1.3343E-004  
  401.50  1.3648E-004  
  402.00  1.0607E-004  
  402.50  1.6390E-004  
  403.00  2.1909E-004  
  403.50  2.7126E-004  
  404.00  3.6911E-004  
  404.50  3.8796E-004  
  405.00  4.1846E-004  
  405.50  3.7702E-004  
  406.00  3.4408E-004  
  406.50  3.8598E-004  
  407.00  4.3327E-004  
  407.50  5.0077E-004  
  408.00  5.5877E-004  
  408.50  5.3963E-004  
  409.00  5.7621E-004  
  409.50  6.0577E-004  
  410.00  6.5358E-004  
  410.50  7.2388E-004  
  411.00  7.8665E-004  
  411.50  8.5325E-004  
  412.00  9.9546E-004  
  412.50  1.1020E-003  
  413.00  1.1732E-003  
  413.50  1.2192E-003  
  414.00  1.2497E-003  
  414.50  1.3544E-003  
  415.00  1.4577E-003  
  415.50  1.5692E-003  
  416.00  1.7013E-003  
  416.50  1.8317E-003  
  417.00  2.0434E-003  
  417.50  2.2218E-003  
  418.00  2.4175E-003  
  418.50  2.5686E-003  
  419.00  2.7527E-003  
  419.50  3.0442E-003  
  420.00  3.3497E-003  
  420.50  3.6668E-003  
  421.00  3.8604E-003  
  421.50  4.0405E-003  
  422.00  4.3141E-003  
  422.50  4.6722E-003  
  423.00  5.0689E-003  
  423.50  5.4661E-003  
  424.00  5.8282E-003  
  424.50  6.1809E-003  
  425.00  6.5540E-003  
  425.50  6.9400E-003  
  426.00  7.4011E-003  
  426.50  7.9233E-003  
  427.00  8.4738E-003  
  427.50  9.0515E-003  
  428.00  9.6910E-003  
  428.50  1.0297E-002  
  429.00  1.0979E-002  
  429.50  1.1717E-002  
  430.00  1.2464E-002  
  430.50  1.3280E-002  
  431.00  1.4082E-002  
  431.50  1.4890E-002  
  432.00  1.5733E-002  
  432.50  1.6671E-002  
  433.00  1.7575E-002  
  433.50  1.8558E-002  
  434.00  1.9567E-002  
  434.50  2.0595E-002  
  435.00  2.1800E-002  
  435.50  2.3112E-002  
  436.00  2.4532E-002  
  436.50  2.5975E-002  
  437.00  2.7408E-002  
  437.50  2.8764E-002  
  438.00  3.0232E-002  
  438.50  3.1853E-002  
  439.00  3.3586E-002  
  439.50  3.5549E-002  
  440.00  3.7512E-002  
  440.50  3.9559E-002  
  441.00  4.1632E-002  
  441.50  4.3712E-002  
  442.00  4.6059E-002  
  442.50  4.8318E-002  
  443.00  5.0783E-002  
  443.50  5.3212E-002  
  444.00  5.5675E-002  
  444.50  5.8293E-002  
  445.00  6.0690E-002  
  445.50  6.2993E-002  
  446.00  6.5208E-002  
  446.50  6.7213E-002  
  447.00  6.9043E-002  
  447.50  7.0574E-002  
  448.00  7.1774E-002  
  448.50  7.2844E-002  
  449.00  7.3625E-002  
  449.50  7.4143E-002  
  450.00  7.4298E-002  
  450.50  7.3969E-002  
  451.00  7.3328E-002  
  451.50  7.2104E-002  
  452.00  7.0678E-002  
  452.50  6.9094E-002  
  453.00  6.7168E-002  
  453.50  6.5154E-002  
  454.00  6.2942E-002  
  454.50  6.0679E-002  
  455.00  5.8585E-002  
  455.50  5.6279E-002  
  456.00  5.3975E-002  
  456.50  5.1789E-002  
  457.00  4.9720E-002  
  457.50  4.7836E-002  
  458.00  4.5996E-002  
  458.50  4.4197E-002  
  459.00  4.2565E-002  
  459.50  4.1034E-002  
  460.00  3.9612E-002  
  460.50  3.8383E-002  
  461.00  3.7329E-002  
  461.50  3.6266E-002  
  462.00  3.5302E-002  
  462.50  3.4329E-002  
  463.00  3.3492E-002  
  463.50  3.2735E-002  
  464.00  3.1954E-002  
  464.50  3.1149E-002  
  465.00  3.0424E-002  
  465.50  2.9695E-002  
  466.00  2.8896E-002  
  466.50  2.8043E-002  
  467.00  2.7231E-002  
  467.50  2.6510E-002  
  468.00  2.5754E-002  
  468.50  2.5025E-002  
  469.00  2.4266E-002  
  469.50  2.3595E-002  
  470.00  2.2904E-002  
  470.50  2.2262E-002  
  471.00  2.1611E-002  
  471.50  2.0956E-002  
  472.00  2.0308E-002  
  472.50  1.9734E-002  
  473.00  1.9301E-002  
  473.50  1.8978E-002  
  474.00  1.8557E-002  
  474.50  1.8041E-002  
  475.00  1.7517E-002  
  475.50  1.7102E-002  
  476.00  1.6776E-002  
  476.50  1.6536E-002  
  477.00  1.6333E-002  
  477.50  1.6188E-002  
  478.00  1.6036E-002  
  478.50  1.5959E-002  
  479.00  1.5966E-002  
  479.50  1.6023E-002  
  480.00  1.6085E-002  
  480.50  1.6016E-002  
  481.00  1.5887E-002  
  481.50  1.5778E-002  
  482.00  1.5699E-002  
  482.50  1.5667E-002  
  483.00  1.5635E-002  
  483.50  1.5735E-002  
  484.00  1.5884E-002  
  484.50  1.6016E-002  
  485.00  1.6129E-002  
  485.50  1.6196E-002  
  486.00  1.6320E-002  
  486.50  1.6511E-002  
  487.00  1.6715E-002  
  487.50  1.6935E-002  
  488.00  1.7120E-002  
  488.50  1.7311E-002  
  489.00  1.7533E-002  
  489.50  1.7747E-002  
  490.00  1.8038E-002  
  490.50  1.8323E-002  
  491.00  1.8705E-002  
  491.50  1.9092E-002  
  492.00  1.9500E-002  
  492.50  1.9873E-002  
  493.00  2.0232E-002  
  493.50  2.0636E-002  
  494.00  2.1116E-002  
  494.50  2.1645E-002  
  495.00  2.2135E-002  
  495.50  2.2613E-002  
  496.00  2.3062E-002  
  496.50  2.3628E-002  
  497.00  2.4188E-002  
  497.50  2.4717E-002  
  498.00  2.5193E-002  
  498.50  2.5690E-002  
  499.00  2.6252E-002  
  499.50  2.6835E-002  
  500.00  2.7386E-002  
  500.50  2.7866E-002  
  501.00  2.8407E-002  
  501.50  2.9011E-002  
  502.00  2.9670E-002  
  502.50  3.0303E-002  
  503.00  3.0899E-002  
  503.50  3.1491E-002  
  504.00  3.2117E-002  
  504.50  3.2783E-002  
  505.00  3.3486E-002  
  505.50  3.4199E-002  
  506.00  3.4850E-002  
  506.50  3.5420E-002  
  507.00  3.5976E-002  
  507.50  3.6530E-002  
  508.00  3.7138E-002  
  508.50  3.7701E-002  
  509.00  3.8259E-002  
  509.50  3.8809E-002  
  510.00  3.9445E-002  
  510.50  4.0126E-002  
  511.00  4.0820E-002  
  511.50  4.1439E-002  
  512.00  4.2038E-002  
  512.50  4.2634E-002  
  513.00  4.3254E-002  
  513.50  4.3871E-002  
  514.00  4.4417E-002  
  514.50  4.4970E-002  
  515.00  4.5441E-002  
  515.50  4.5976E-002  
  516.00  4.6535E-002  
  516.50  4.7126E-002  
  517.00  4.7779E-002  
  517.50  4.8381E-002  
  518.00  4.8977E-002  
  518.50  4.9526E-002  
  519.00  5.0020E-002  
  519.50  5.0433E-002  
  520.00  5.0880E-002  
  520.50  5.1426E-002  
  521.00  5.2035E-002  
  521.50  5.2572E-002  
  522.00  5.2960E-002  
  522.50  5.3354E-002  
  523.00  5.3809E-002  
  523.50  5.4289E-002  
  524.00  5.4750E-002  
  524.50  5.5163E-002  
  525.00  5.5629E-002  
  525.50  5.6115E-002  
  526.00  5.6545E-002  
  526.50  5.6913E-002  
  527.00  5.7279E-002  
  527.50  5.7739E-002  
  528.00  5.8183E-002  
  528.50  5.8609E-002  
  529.00  5.8977E-002  
  529.50  5.9339E-002  
  530.00  5.9714E-002  
  530.50  6.0039E-002  
  531.00  6.0413E-002  
  531.50  6.0763E-002  
  532.00  6.1175E-002  
  532.50  6.1576E-002  
  533.00  6.1882E-002  
  533.50  6.2129E-002  
  534.00  6.2310E-002  
  534.50  6.2610E-002  
  535.00  6.3045E-002  
  535.50  6.3401E-002  
  536.00  6.3724E-002  
  536.50  6.4001E-002  
  537.00  6.4295E-002  
  537.50  6.4572E-002  
  538.00  6.4816E-002  
  538.50  6.5022E-002  
  539.00  6.5268E-002  
  539.50  6.5471E-002  
  540.00  6.5775E-002  
  540.50  6.6181E-002  
  541.00  6.6576E-002  
  541.50  6.6890E-002  
  542.00  6.7080E-002  
  542.50  6.7307E-002  
  543.00  6.7587E-002  
  543.50  6.7873E-002  
  544.00  6.8084E-002  
  544.50  6.8210E-002  
  545.00  6.8355E-002  
  545.50  6.8491E-002  
  546.00  6.8664E-002  
  546.50  6.8876E-002  
  547.00  6.9046E-002  
  547.50  6.9231E-002  
  548.00  6.9477E-002  
  548.50  6.9707E-002  
  549.00  6.9945E-002  
  549.50  7.0116E-002  
  550.00  7.0190E-002  
  550.50  7.0414E-002  
  551.00  7.0599E-002  
  551.50  7.0827E-002  
  552.00  7.1046E-002  
  552.50  7.1226E-002  
  553.00  7.1452E-002  
  553.50  7.1688E-002  
  554.00  7.1839E-002  
  554.50  7.2004E-002  
  555.00  7.2084E-002  
  555.50  7.2325E-002  
  556.00  7.2632E-002  
  556.50  7.2762E-002  
  557.00  7.2852E-002  
  557.50  7.2834E-002  
  558.00  7.2962E-002  
  558.50  7.3193E-002  
  559.00  7.3396E-002  
  559.50  7.3470E-002  
  560.00  7.3577E-002  
  560.50  7.3660E-002  
  561.00  7.3845E-002  
  561.50  7.3884E-002  
  562.00  7.3842E-002  
  562.50  7.3864E-002  
  563.00  7.3943E-002  
  563.50  7.4017E-002  
  564.00  7.4030E-002  
  564.50  7.4063E-002  
  565.00  7.4100E-002  
  565.50  7.4107E-002  
  566.00  7.4111E-002  
  566.50  7.4144E-002  
  567.00  7.4187E-002  
  567.50  7.4216E-002  
  568.00  7.4230E-002  
  568.50  7.4248E-002  
  569.00  7.4261E-002  
  569.50  7.4360E-002  
  570.00  7.4445E-002  
  570.50  7.4484E-002  
  571.00  7.4523E-002  
  571.50  7.4479E-002  
  572.00  7.4575E-002  
  572.50  7.4455E-002  
  573.00  7.4464E-002  
  573.50  7.4440E-002  
  574.00  7.4410E-002  
  574.50  7.4381E-002  
  575.00  7.4296E-002  
  575.50  7.4344E-002  
  576.00  7.4341E-002  
  576.50  7.4336E-002  
  577.00  7.4297E-002  
  577.50  7.4370E-002  
  578.00  7.4370E-002  
  578.50  7.4429E-002  
  579.00  7.4431E-002  
  579.50  7.4513E-002  
  580.00  7.4473E-002  
  580.50  7.4420E-002  
  581.00  7.4270E-002  
  581.50  7.4238E-002  
  582.00  7.4124E-002  
  582.50  7.4036E-002  
  583.00  7.3991E-002  
  583.50  7.4092E-002  
  584.00  7.4196E-002  
  584.50  7.4125E-002  
  585.00  7.4001E-002  
  585.50  7.3933E-002  
  586.00  7.3966E-002  
  586.50  7.3962E-002  
  587.00  7.3824E-002  
  587.50  7.3631E-002  
  588.00  7.3519E-002  
  588.50  7.3496E-002  
  589.00  7.3487E-002  
  589.50  7.3388E-002  
  590.00  7.3308E-002  
  590.50  7.3261E-002  
  591.00  7.3174E-002  
  591.50  7.3113E-002  
  592.00  7.2924E-002  
  592.50  7.2903E-002  
  593.00  7.2942E-002  
  593.50  7.2923E-002  
  594.00  7.2940E-002  
  594.50  7.2853E-002  
  595.00  7.2759E-002  
  595.50  7.2541E-002  
  596.00  7.2301E-002  
  596.50  7.2237E-002  
  597.00  7.2247E-002  
  597.50  7.2270E-002  
  598.00  7.2201E-002  
  598.50  7.2111E-002  
  599.00  7.2049E-002  
  599.50  7.1970E-002  
  600.00  7.1844E-002  
  600.50  7.1725E-002  
  601.00  7.1577E-002  
  601.50  7.1562E-002  
  602.00  7.1519E-002  
  602.50  7.1395E-002  
  603.00  7.1234E-002  
  603.50  7.1103E-002  
  604.00  7.1125E-002  
  604.50  7.1122E-002  
  605.00  7.1060E-002  
  605.50  7.0851E-002  
  606.00  7.0593E-002  
  606.50  7.0452E-002  
  607.00  7.0386E-002  
  607.50  7.0384E-002  
  608.00  7.0197E-002  
  608.50  7.0113E-002  
  609.00  7.0106E-002  
  609.50  7.0161E-002  
  610.00  7.0092E-002  
  610.50  6.9887E-002  
  611.00  6.9674E-002  
  611.50  6.9547E-002  
  612.00  6.9453E-002  
  612.50  6.9258E-002  
  613.00  6.9085E-002  
  613.50  6.8965E-002  
  614.00  6.8917E-002  
  614.50  6.8839E-002  
  615.00  6.8728E-002  
  615.50  6.8600E-002  
  616.00  6.8484E-002  
  616.50  6.8369E-002  
  617.00  6.8170E-002  
  617.50  6.7891E-002  
  618.00  6.7473E-002  
  618.50  6.7207E-002  
  619.00  6.7006E-002  
  619.50  6.7010E-002  
  620.00  6.7000E-002  
  620.50  6.6991E-002  
  621.00  6.6887E-002  
  621.50  6.6663E-002  
  622.00  6.6457E-002  
  622.50  6.6220E-002  
  623.00  6.5987E-002  
  623.50  6.5775E-002  
  624.00  6.5607E-002  
  624.50  6.5568E-002  
  625.00  6.5552E-002  
  625.50  6.5496E-002  
  626.00  6.5266E-002  
  626.50  6.4958E-002  
  627.00  6.4640E-002  
  627.50  6.4353E-002  
  628.00  6.4121E-002  
  628.50  6.4010E-002  
  629.00  6.3956E-002  
  629.50  6.3926E-002  
  630.00  6.3628E-002  
  630.50  6.3331E-002  
  631.00  6.3029E-002  
  631.50  6.2915E-002  
  632.00  6.2721E-002  
  632.50  6.2512E-002  
  633.00  6.2264E-002  
  633.50  6.2068E-002  
  634.00  6.1876E-002  
  634.50  6.1665E-002  
  635.00  6.1451E-002  
  635.50  6.1166E-002  
  636.00  6.0827E-002  
  636.50  6.0468E-002  
  637.00  6.0163E-002  
  637.50  5.9936E-002  
  638.00  5.9712E-002  
  638.50  5.9416E-002  
  639.00  5.9171E-002  
  639.50  5.8960E-002  
  640.00  5.8732E-002  
  640.50  5.8344E-002  
  641.00  5.7986E-002  
  641.50  5.7669E-002  
  642.00  5.7424E-002  
  642.50  5.7163E-002  
  643.00  5.6907E-002  
  643.50  5.6689E-002  
  644.00  5.6496E-002  
  644.50  5.6269E-002  
  645.00  5.6032E-002  
  645.50  5.5696E-002  
  646.00  5.5310E-002  
  646.50  5.4998E-002  
  647.00  5.4660E-002  
  647.50  5.4429E-002  
  648.00  5.4022E-002  
  648.50  5.3666E-002  
  649.00  5.3274E-002  
  649.50  5.2935E-002  
  650.00  5.2580E-002  
  650.50  5.2270E-002  
  651.00  5.2004E-002  
  651.50  5.1700E-002  
  652.00  5.1274E-002  
  652.50  5.0798E-002  
  653.00  5.0368E-002  
  653.50  5.0077E-002  
  654.00  4.9763E-002  
  654.50  4.9407E-002  
  655.00  4.9030E-002  
  655.50  4.8785E-002  
  656.00  4.8601E-002  
  656.50  4.8321E-002  
  657.00  4.7898E-002  
  657.50  4.7441E-002  
  658.00  4.6988E-002  
  658.50  4.6615E-002  
  659.00  4.6290E-002  
  659.50  4.6074E-002  
  660.00  4.5701E-002  
  660.50  4.5309E-002  
  661.00  4.4811E-002  
  661.50  4.4523E-002  
  662.00  4.4140E-002  
  662.50  4.3785E-002  
  663.00  4.3345E-002  
  663.50  4.3018E-002  
  664.00  4.2622E-002  
  664.50  4.2259E-002  
  665.00  4.1925E-002  
  665.50  4.1675E-002  
  666.00  4.1255E-002  
  666.50  4.0799E-002  
  667.00  4.0337E-002  
  667.50  4.0007E-002  
  668.00  3.9605E-002  
  668.50  3.9173E-002  
  669.00  3.8707E-002  
  669.50  3.8329E-002  
  670.00  3.8037E-002  
  670.50  3.7796E-002  
  671.00  3.7342E-002  
  671.50  3.6814E-002  
  672.00  3.6311E-002  
  672.50  3.6012E-002  
  673.00  3.5780E-002  
  673.50  3.5466E-002  
  674.00  3.5171E-002  
  674.50  3.4895E-002  
  675.00  3.4586E-002  
  675.50  3.4240E-002  
  676.00  3.3837E-002  
  676.50  3.3503E-002  
  677.00  3.3078E-002  
  677.50  3.2658E-002  
  678.00  3.2236E-002  
  678.50  3.1871E-002  
  679.00  3.1520E-002  
  679.50  3.1161E-002  
  680.00  3.0841E-002  
  680.50  3.0557E-002  
  681.00  3.0262E-002  
  681.50  2.9938E-002  
  682.00  2.9584E-002  
  682.50  2.9275E-002  
  683.00  2.8941E-002  
  683.50  2.8576E-002  
  684.00  2.8230E-002  
  684.50  2.7999E-002  
  685.00  2.7761E-002  
  685.50  2.7375E-002  
  686.00  2.6992E-002  
  686.50  2.6664E-002  
  687.00  2.6449E-002  
  687.50  2.6115E-002  
  688.00  2.5747E-002  
  688.50  2.5412E-002  
  689.00  2.5134E-002  
  689.50  2.4882E-002  
  690.00  2.4605E-002  
  690.50  2.4330E-002  
  691.00  2.4037E-002  
  691.50  2.3727E-002  
  692.00  2.3442E-002  
  692.50  2.3171E-002  
  693.00  2.2801E-002  
  693.50  2.2562E-002  
  694.00  2.2453E-002  
  694.50  2.2329E-002  
  695.00  2.2024E-002  
  695.50  2.1656E-002  
  696.00  2.1314E-002  
  696.50  2.1025E-002  
  697.00  2.0802E-002  
  697.50  2.0724E-002  
  698.00  2.0526E-002  
  698.50  2.0199E-002  
  699.00  1.9871E-002  
  699.50  1.9550E-002  
  700.00  1.9252E-002  
  700.50  1.8933E-002  
  701.00  1.8610E-002  
  701.50  1.8370E-002  
  702.00  1.8162E-002  
  702.50  1.7994E-002  
  703.00  1.7660E-002  
  703.50  1.7352E-002  
  704.00  1.7070E-002  
  704.50  1.6893E-002  
  705.00  1.6646E-002  
  705.50  1.6446E-002  
  706.00  1.6313E-002  
  706.50  1.6157E-002  
  707.00  1.5969E-002  
  707.50  1.5713E-002  
  708.00  1.5558E-002  
  708.50  1.5363E-002  
  709.00  1.5102E-002  
  709.50  1.4903E-002  
  710.00  1.4728E-002  
  710.50  1.4563E-002  
  711.00  1.4380E-002  
  711.50  1.4188E-002  
  712.00  1.3936E-002  
  712.50  1.3650E-002  
  713.00  1.3408E-002  
  713.50  1.3275E-002  
  714.00  1.3105E-002  
  714.50  1.2937E-002  
  715.00  1.2589E-002  
  715.50  1.2285E-002  
  716.00  1.2118E-002  
  716.50  1.2093E-002  
  717.00  1.1964E-002  
  717.50  1.1796E-002  
  718.00  1.1596E-002  
  718.50  1.1506E-002  
  719.00  1.1413E-002  
  719.50  1.1347E-002  
  720.00  1.1124E-002  
  720.50  1.0981E-002  
  721.00  1.0821E-002  
  721.50  1.0673E-002  
  722.00  1.0390E-002  
  722.50  1.0097E-002  
  723.00  9.8698E-003  
  723.50  9.6876E-003  
  724.00  9.5544E-003  
  724.50  9.4762E-003  
  725.00  9.4996E-003  
  725.50  9.4668E-003  
  726.00  9.3500E-003  
  726.50  9.0965E-003  
  727.00  8.9954E-003  
  727.50  8.8866E-003  
  728.00  8.8258E-003  
  728.50  8.6188E-003  
  729.00  8.4873E-003  
  729.50  8.4094E-003  
  730.00  8.3804E-003  
  730.50  8.2143E-003  
  731.00  7.8933E-003  
  731.50  7.6562E-003  
  732.00  7.5005E-003  
  732.50  7.4494E-003  
  733.00  7.4059E-003  
  733.50  7.3692E-003  
  734.00  7.2888E-003  
  734.50  7.1472E-003  
  735.00  7.0291E-003  
  735.50  6.8276E-003  
  736.00  6.7650E-003  
  736.50  6.6670E-003  
  737.00  6.5110E-003  
  737.50  6.3241E-003  
  738.00  6.2310E-003  
  738.50  6.2585E-003  
  739.00  6.1867E-003  
  739.50  6.0501E-003  
  740.00  5.8355E-003  
  740.50  5.7887E-003  
  741.00  5.7183E-003  
  741.50  5.5743E-003  
  742.00  5.4251E-003  
  742.50  5.3950E-003  
  743.00  5.3417E-003  
  743.50  5.2286E-003  
  744.00  5.1108E-003  
  744.50  4.9159E-003  
  745.00  4.8294E-003  
  745.50  4.7586E-003  
  746.00  4.7603E-003  
  746.50  4.6318E-003  
  747.00  4.5700E-003  
  747.50  4.4699E-003  
  748.00  4.3249E-003  
  748.50  4.2190E-003  
  749.00  4.3180E-003  
  749.50  4.4336E-003  
  750.00  4.4567E-003  
  750.50  4.3613E-003  
  751.00  4.3366E-003  
  751.50  4.2423E-003  
  752.00  3.9518E-003  
  752.50  3.7769E-003  
  753.00  3.7253E-003  
  753.50  3.7671E-003  
  754.00  3.7593E-003  
  754.50  3.7580E-003  
  755.00  3.7403E-003  
  755.50  3.5757E-003  
  756.00  3.5437E-003  
  756.50  3.5118E-003  
  757.00  3.4841E-003  
  757.50  3.2788E-003  
  758.00  3.2180E-003  
  758.50  3.2789E-003  
  759.00  3.2806E-003  
  759.50  3.1256E-003  
  760.00  2.8397E-003  
  760.50  2.8302E-003  
  761.00  2.9656E-003  
  761.50  3.0298E-003  
  762.00  2.8824E-003  
  762.50  2.5968E-003  
  763.00  2.5344E-003  
  763.50  2.5623E-003  
  764.00  2.5406E-003  
  764.50  2.2690E-003  
  765.00  2.1518E-003  
  765.50  2.2448E-003  
  766.00  2.2757E-003  
  766.50  2.1789E-003  
  767.00  1.9295E-003  
  767.50  1.7670E-003  
  768.00  1.8061E-003  
  768.50  1.9846E-003  
  769.00  1.9879E-003  
  769.50  1.8479E-003  
  770.00  1.7264E-003  
  770.50  1.7248E-003  
  771.00  1.7769E-003  
  771.50  1.6983E-003  
  772.00  1.5330E-003  
  772.50  1.4453E-003  
  773.00  1.4986E-003  
  773.50  1.5753E-003  
  774.00  1.6405E-003  
  774.50  1.6050E-003  
  775.00  1.5558E-003  
  775.50  1.5814E-003  
  776.00  1.5400E-003  
  776.50  1.3748E-003  
  777.00  1.1456E-003  
  777.50  1.0800E-003  
  778.00  1.0377E-003  
  778.50  1.1236E-003  
  779.00  1.2009E-003  
  779.50  1.2489E-003  
  780.00  1.2850E-003  
  780.50  1.2536E-003  
  781.00  1.1945E-003  
  781.50  1.2193E-003  
  782.00  1.2573E-003  
  782.50  1.1146E-003  
  783.00  7.6236E-004  
  783.50  6.6853E-004  
  784.00  7.3097E-004  
  784.50  7.5796E-004  
  785.00  6.1845E-004  
  785.50  4.6382E-004  
  786.00  4.4657E-004  
  786.50  6.0789E-004  
  787.00  7.3618E-004  
  787.50  7.8655E-004  
  788.00  5.6239E-004  
  788.50  4.0027E-004  
  789.00  3.0853E-004  
  789.50  1.7754E-004  
  790.00  8.7639E-005  
  790.50  1.4147E-004  
  791.00  3.4979E-004  
  791.50  5.3401E-004  
  792.00  6.6419E-004  
  792.50  5.5055E-004  
  793.00  4.1646E-004  
  793.50  1.6677E-004  
  794.00  3.4393E-004  
  794.50  3.3798E-004  
  795.00  3.8142E-004  
  795.50  3.5242E-004  
  796.00  3.0063E-004  
  796.50  1.0087E-004  
  797.00  0.0000E+000  
  797.50  0.0000E+000  
  798.00  0.0000E+000  
  798.50  8.4123E-007  
  799.00  1.0358E-004  
  799.50  1.8231E-004  
  800.00  2.3462E-005  
  800.50  0.0000E+000  
  801.00  0.0000E+000  
  801.50  0.0000E+000  
  802.00  0.0000E+000  
  802.50  0.0000E+000  
  803.00  0.0000E+000  
  803.50  0.0000E+000  
  804.00  0.0000E+000  
  804.50  0.0000E+000  
  805.00  0.0000E+000  
  805.50  0.0000E+000  
  806.00  0.0000E+000  
  806.50  0.0000E+000  
  807.00  0.0000E+000  
  807.50  0.0000E+000  
  808.00  0.0000E+000  
  808.50  0.0000E+000  
  809.00  0.0000E+000  
  809.50  0.0000E+000  
  810.00  0.0000E+000  
  810.50  0.0000E+000  
  811.00  0.0000E+000  
  811.50  0.0000E+000  
  812.00  0.0000E+000  
  812.50  0.0000E+000  
  813.00  0.0000E+000  
  813.50  0.0000E+000  
  814.00  0.0000E+000  
  814.50  0.0000E+000  
  815.00  0.0000E+000  
  815.50  0.0000E+000  
  816.00  0.0000E+000  
  816.50  0.0000E+000  
  817.00  0.0000E+000  
  817.50  0.0000E+000  
  818.00  0.0000E+000  
  818.50  0.0000E+000  
  819.00  0.0000E+000  
  819.50  0.0000E+000  
  820.00  0.0000E+000  
  820.50  0.0000E+000  
  821.00  0.0000E+000  
  821.50  0.0000E+000  
  822.00  0.0000E+000  
  822.50  0.0000E+000  
  823.00  0.0000E+000  
  823.50  0.0000E+000  
  824.00  0.0000E+000  
  824.50  0.0000E+000  
  825.00  0.0000E+000  
  825.50  0.0000E+000  
  826.00  0.0000E+000  
  826.50  0.0000E+000  
  827.00  0.0000E+000  
  827.50  0.0000E+000  
  828.00  0.0000E+000  
  828.50  0.0000E+000  
  829.00  0.0000E+000  
  829.50  0.0000E+000  
  830.00  0.0000E+000  
  830.50  0.0000E+000  
  831.00  0.0000E+000  
  831.50  0.0000E+000  
  832.00  0.0000E+000  
  832.50  0.0000E+000  
  833.00  0.0000E+000  
  833.50  0.0000E+000  
  834.00  0.0000E+000  
  834.50  0.0000E+000  
  835.00  0.0000E+000  
  835.50  0.0000E+000  
  836.00  0.0000E+000  
  836.50  0.0000E+000  
  837.00  0.0000E+000  
  837.50  0.0000E+000  
  838.00  0.0000E+000  
  838.50  0.0000E+000  
  839.00  0.0000E+000  
  839.50  0.0000E+000  
  840.00  0.0000E+000  
  840.50  0.0000E+000  
  841.00  0.0000E+000  
  841.50  0.0000E+000  
  842.00  0.0000E+000  
  842.50  0.0000E+000  
  843.00  0.0000E+000  
  843.50  0.0000E+000  
  844.00  0.0000E+000  
  844.50  0.0000E+000  
  845.00  0.0000E+000  
  845.50  0.0000E+000  
  846.00  0.0000E+000  
  846.50  0.0000E+000  
  847.00  0.0000E+000  
  847.50  0.0000E+000  
  848.00  0.0000E+000  
  848.50  0.0000E+000  
  849.00  0.0000E+000  
  849.50  0.0000E+000  
  850.00  0.0000E+000  
  850.50  0.0000E+000  
  851.00  0.0000E+000  
  851.50  0.0000E+000  
  852.00  0.0000E+000  
  852.50  0.0000E+000  
  853.00  0.0000E+000  
  853.50  0.0000E+000  
  854.00  0.0000E+000  
  854.50  0.0000E+000  
  855.00  0.0000E+000  
  855.50  0.0000E+000  
  856.00  0.0000E+000  
  856.50  0.0000E+000  
  857.00  0.0000E+000  
  857.50  0.0000E+000  
  858.00  0.0000E+000  
  858.50  0.0000E+000  
  859.00  0.0000E+000  
  859.50  0.0000E+000  
  860.00  0.0000E+000  
  860.50  0.0000E+000  
  861.00  0.0000E+000  
  861.50  0.0000E+000  
  862.00  0.0000E+000  
  862.50  0.0000E+000  
  863.00  0.0000E+000  
  863.50  0.0000E+000  
  864.00  0.0000E+000  
  864.50  0.0000E+000  
  865.00  0.0000E+000  
  865.50  0.0000E+000  
  866.00  0.0000E+000  
  866.50  0.0000E+000  
  867.00  0.0000E+000  
  867.50  0.0000E+000  
  868.00  0.0000E+000  
  868.50  0.0000E+000  
  869.00  0.0000E+000  
  869.50  0.0000E+000  
  870.00  0.0000E+000  
  870.50  0.0000E+000  
  871.00  0.0000E+000  
  871.50  0.0000E+000  
  872.00  0.0000E+000  
  872.50  0.0000E+000  
  873.00  0.0000E+000  
  873.50  0.0000E+000  
  874.00  0.0000E+000  
  874.50  0.0000E+000  
  875.00  0.0000E+000  
  875.50  0.0000E+000  
  876.00  0.0000E+000  
  876.50  0.0000E+000  
  877.00  0.0000E+000  
  877.50  0.0000E+000  
  878.00  0.0000E+000  
  878.50  0.0000E+000  
  879.00  0.0000E+000  
  879.50  0.0000E+000  
  880.00  0.0000E+000  
  880.50  0.0000E+000  
  881.00  0.0000E+000  
  881.50  0.0000E+000  
  882.00  0.0000E+000  
  882.50  0.0000E+000  
  883.00  0.0000E+000  
  883.50  0.0000E+000  
  884.00  0.0000E+000  
  884.50  0.0000E+000  
  885.00  0.0000E+000  
  885.50  0.0000E+000  
  886.00  0.0000E+000  
  886.50  0.0000E+000  
  887.00  0.0000E+000  
  887.50  0.0000E+000  
  888.00  0.0000E+000  
  888.50  0.0000E+000  
  889.00  0.0000E+000  
  889.50  0.0000E+000  
  890.00  0.0000E+000  
  890.50  0.0000E+000  
  891.00  0.0000E+000  
  891.50  0.0000E+000  
  892.00  0.0000E+000  
  892.50  0.0000E+000  
  893.00  0.0000E+000  
  893.50  0.0000E+000  
  894.00  0.0000E+000  
  894.50  0.0000E+000  
  895.00  0.0000E+000  
  895.50  0.0000E+000  
  896.00  0.0000E+000  
  896.50  0.0000E+000  
  897.00  0.0000E+000  
  897.50  0.0000E+000  
  898.00  0.0000E+000  
  898.50  0.0000E+000  
  899.00  0.0000E+000  
  899.50  0.0000E+000  
