
# From lspdd.org
# 
# Name: DEL Tlsanli A19 Domestique
# Indice spectral Valeur 
# MSI 0.61 
# SLI 0.70 
# IPI 0.67 
# Pourcentage de bleu 37.0 
# Caractéristique Valeur 
# CCT calculée (K) 5114 
# CCT du fabricant (K) 4930 
# Tension (V) 120 
# Puissance (W) 5.0 
# Efficacité lumineuse (Lum/W) 100.0 
#
# Image: '/app/system/img_2s/2604/medium_image2.jpg?1413486625'
# Image: '/app/system/img_1s/2604/medium_image1.jpg?1413486625'
# 

  273.00  0.0000E+000  
  273.50  0.0000E+000  
  274.00  0.0000E+000  
  274.50  0.0000E+000  
  275.00  0.0000E+000  
  275.50  0.0000E+000  
  276.00  0.0000E+000  
  276.50  0.0000E+000  
  277.00  0.0000E+000  
  277.50  0.0000E+000  
  278.00  0.0000E+000  
  278.50  0.0000E+000  
  279.00  0.0000E+000  
  279.50  0.0000E+000  
  280.00  0.0000E+000  
  280.50  0.0000E+000  
  281.00  0.0000E+000  
  281.50  0.0000E+000  
  282.00  0.0000E+000  
  282.50  0.0000E+000  
  283.00  0.0000E+000  
  283.50  0.0000E+000  
  284.00  0.0000E+000  
  284.50  0.0000E+000  
  285.00  0.0000E+000  
  285.50  0.0000E+000  
  286.00  0.0000E+000  
  286.50  0.0000E+000  
  287.00  0.0000E+000  
  287.50  0.0000E+000  
  288.00  0.0000E+000  
  288.50  0.0000E+000  
  289.00  0.0000E+000  
  289.50  0.0000E+000  
  290.00  0.0000E+000  
  290.50  0.0000E+000  
  291.00  0.0000E+000  
  291.50  0.0000E+000  
  292.00  0.0000E+000  
  292.50  0.0000E+000  
  293.00  0.0000E+000  
  293.50  0.0000E+000  
  294.00  0.0000E+000  
  294.50  0.0000E+000  
  295.00  0.0000E+000  
  295.50  0.0000E+000  
  296.00  0.0000E+000  
  296.50  0.0000E+000  
  297.00  0.0000E+000  
  297.50  0.0000E+000  
  298.00  0.0000E+000  
  298.50  0.0000E+000  
  299.00  0.0000E+000  
  299.50  0.0000E+000  
  300.00  3.6055E-006  
  300.50  3.2427E-006  
  301.00  0.0000E+000  
  301.50  0.0000E+000  
  302.00  0.0000E+000  
  302.50  0.0000E+000  
  303.00  0.0000E+000  
  303.50  0.0000E+000  
  304.00  2.9256E-005  
  304.50  2.9853E-005  
  305.00  3.8819E-005  
  305.50  1.5432E-005  
  306.00  0.0000E+000  
  306.50  0.0000E+000  
  307.00  0.0000E+000  
  307.50  6.4502E-006  
  308.00  3.7291E-005  
  308.50  5.2794E-005  
  309.00  4.3927E-005  
  309.50  3.8420E-005  
  310.00  3.0348E-005  
  310.50  5.8333E-006  
  311.00  0.0000E+000  
  311.50  0.0000E+000  
  312.00  0.0000E+000  
  312.50  0.0000E+000  
  313.00  0.0000E+000  
  313.50  0.0000E+000  
  314.00  0.0000E+000  
  314.50  4.2743E-005  
  315.00  6.1570E-005  
  315.50  2.7196E-005  
  316.00  0.0000E+000  
  316.50  0.0000E+000  
  317.00  0.0000E+000  
  317.50  0.0000E+000  
  318.00  0.0000E+000  
  318.50  0.0000E+000  
  319.00  0.0000E+000  
  319.50  0.0000E+000  
  320.00  0.0000E+000  
  320.50  3.1567E-005  
  321.00  0.0000E+000  
  321.50  0.0000E+000  
  322.00  0.0000E+000  
  322.50  0.0000E+000  
  323.00  0.0000E+000  
  323.50  0.0000E+000  
  324.00  0.0000E+000  
  324.50  1.7908E-005  
  325.00  2.7055E-005  
  325.50  5.3798E-005  
  326.00  2.5200E-005  
  326.50  1.1891E-005  
  327.00  4.0808E-005  
  327.50  3.2094E-005  
  328.00  1.8184E-005  
  328.50  7.9607E-007  
  329.00  8.5460E-006  
  329.50  2.2643E-005  
  330.00  0.0000E+000  
  330.50  0.0000E+000  
  331.00  0.0000E+000  
  331.50  0.0000E+000  
  332.00  0.0000E+000  
  332.50  0.0000E+000  
  333.00  0.0000E+000  
  333.50  0.0000E+000  
  334.00  9.7765E-006  
  334.50  8.1802E-005  
  335.00  1.3818E-004  
  335.50  1.5003E-004  
  336.00  1.1735E-004  
  336.50  6.4049E-006  
  337.00  0.0000E+000  
  337.50  0.0000E+000  
  338.00  3.9056E-006  
  338.50  4.5144E-005  
  339.00  7.5997E-005  
  339.50  9.2615E-005  
  340.00  1.3838E-004  
  340.50  1.5434E-004  
  341.00  1.5032E-004  
  341.50  9.4819E-005  
  342.00  3.2924E-005  
  342.50  2.6709E-005  
  343.00  2.2555E-005  
  343.50  5.8247E-005  
  344.00  8.0571E-005  
  344.50  9.6586E-005  
  345.00  8.7602E-005  
  345.50  2.8490E-005  
  346.00  3.8897E-006  
  346.50  0.0000E+000  
  347.00  2.4404E-006  
  347.50  0.0000E+000  
  348.00  2.1727E-005  
  348.50  4.0963E-005  
  349.00  7.5379E-005  
  349.50  8.4981E-005  
  350.00  3.4306E-005  
  350.50  1.1584E-007  
  351.00  0.0000E+000  
  351.50  0.0000E+000  
  352.00  0.0000E+000  
  352.50  0.0000E+000  
  353.00  0.0000E+000  
  353.50  0.0000E+000  
  354.00  0.0000E+000  
  354.50  0.0000E+000  
  355.00  0.0000E+000  
  355.50  1.9572E-006  
  356.00  5.3038E-005  
  356.50  9.9719E-005  
  357.00  1.0237E-004  
  357.50  7.4239E-005  
  358.00  7.7538E-006  
  358.50  7.2335E-005  
  359.00  1.3324E-004  
  359.50  1.5651E-004  
  360.00  1.6887E-004  
  360.50  7.5560E-005  
  361.00  7.6625E-006  
  361.50  0.0000E+000  
  362.00  0.0000E+000  
  362.50  0.0000E+000  
  363.00  2.3904E-005  
  363.50  9.1821E-005  
  364.00  1.4815E-004  
  364.50  1.6504E-004  
  365.00  1.2043E-004  
  365.50  9.3704E-005  
  366.00  5.5487E-005  
  366.50  3.8206E-005  
  367.00  7.3948E-005  
  367.50  9.0749E-005  
  368.00  1.1329E-004  
  368.50  1.0757E-004  
  369.00  7.9621E-005  
  369.50  6.3058E-005  
  370.00  5.4704E-005  
  370.50  9.3491E-005  
  371.00  1.1802E-004  
  371.50  1.2865E-004  
  372.00  1.2495E-004  
  372.50  6.1767E-005  
  373.00  3.7558E-005  
  373.50  5.4276E-006  
  374.00  7.6231E-006  
  374.50  2.0840E-005  
  375.00  6.3468E-005  
  375.50  9.5620E-005  
  376.00  9.7727E-005  
  376.50  9.9172E-005  
  377.00  1.2239E-004  
  377.50  1.3750E-004  
  378.00  1.4537E-004  
  378.50  7.2503E-005  
  379.00  2.1368E-005  
  379.50  2.9759E-007  
  380.00  6.6586E-006  
  380.50  2.3562E-005  
  381.00  2.7276E-005  
  381.50  2.2965E-005  
  382.00  1.9653E-006  
  382.50  4.1533E-006  
  383.00  4.9435E-005  
  383.50  9.8874E-005  
  384.00  1.4137E-004  
  384.50  1.3437E-004  
  385.00  8.8591E-005  
  385.50  5.1590E-005  
  386.00  5.3799E-005  
  386.50  7.6166E-005  
  387.00  1.0235E-004  
  387.50  1.0651E-004  
  388.00  4.9395E-005  
  388.50  4.2200E-005  
  389.00  6.5544E-005  
  389.50  7.3450E-005  
  390.00  1.0172E-004  
  390.50  1.3556E-004  
  391.00  1.1768E-004  
  391.50  8.5718E-005  
  392.00  6.6558E-005  
  392.50  1.9978E-005  
  393.00  5.4088E-005  
  393.50  7.7362E-005  
  394.00  5.6408E-005  
  394.50  6.9451E-005  
  395.00  6.6621E-005  
  395.50  7.9495E-005  
  396.00  6.9910E-005  
  396.50  3.8149E-005  
  397.00  3.7106E-006  
  397.50  0.0000E+000  
  398.00  0.0000E+000  
  398.50  1.4010E-007  
  399.00  3.4804E-005  
  399.50  9.5770E-005  
  400.00  1.4934E-004  
  400.50  1.7354E-004  
  401.00  1.6826E-004  
  401.50  1.8081E-004  
  402.00  1.8930E-004  
  402.50  1.8089E-004  
  403.00  1.3370E-004  
  403.50  9.3700E-005  
  404.00  7.0566E-005  
  404.50  9.2441E-005  
  405.00  1.5742E-004  
  405.50  2.2802E-004  
  406.00  2.9459E-004  
  406.50  3.0308E-004  
  407.00  2.8097E-004  
  407.50  2.7274E-004  
  408.00  2.3940E-004  
  408.50  2.8367E-004  
  409.00  3.2520E-004  
  409.50  3.6288E-004  
  410.00  4.2393E-004  
  410.50  4.6813E-004  
  411.00  4.7758E-004  
  411.50  4.5087E-004  
  412.00  4.2811E-004  
  412.50  3.9091E-004  
  413.00  4.6430E-004  
  413.50  5.1871E-004  
  414.00  5.8933E-004  
  414.50  6.6109E-004  
  415.00  7.4219E-004  
  415.50  8.2461E-004  
  416.00  9.0782E-004  
  416.50  9.7424E-004  
  417.00  1.0357E-003  
  417.50  1.1189E-003  
  418.00  1.1791E-003  
  418.50  1.2882E-003  
  419.00  1.3764E-003  
  419.50  1.4283E-003  
  420.00  1.5322E-003  
  420.50  1.5841E-003  
  421.00  1.6630E-003  
  421.50  1.7917E-003  
  422.00  1.9018E-003  
  422.50  2.0982E-003  
  423.00  2.3137E-003  
  423.50  2.4843E-003  
  424.00  2.6283E-003  
  424.50  2.7585E-003  
  425.00  2.8740E-003  
  425.50  3.0147E-003  
  426.00  3.1838E-003  
  426.50  3.3336E-003  
  427.00  3.5241E-003  
  427.50  3.7169E-003  
  428.00  3.9633E-003  
  428.50  4.2393E-003  
  429.00  4.5143E-003  
  429.50  4.8178E-003  
  430.00  5.1115E-003  
  430.50  5.3862E-003  
  431.00  5.6726E-003  
  431.50  5.9507E-003  
  432.00  6.2753E-003  
  432.50  6.6035E-003  
  433.00  6.9259E-003  
  433.50  7.1915E-003  
  434.00  7.5022E-003  
  434.50  7.8505E-003  
  435.00  8.2599E-003  
  435.50  8.6607E-003  
  436.00  9.0857E-003  
  436.50  9.4955E-003  
  437.00  9.9181E-003  
  437.50  1.0372E-002  
  438.00  1.0820E-002  
  438.50  1.1283E-002  
  439.00  1.1790E-002  
  439.50  1.2294E-002  
  440.00  1.2822E-002  
  440.50  1.3313E-002  
  441.00  1.3751E-002  
  441.50  1.4120E-002  
  442.00  1.4498E-002  
  442.50  1.4780E-002  
  443.00  1.5064E-002  
  443.50  1.5342E-002  
  444.00  1.5578E-002  
  444.50  1.5823E-002  
  445.00  1.5977E-002  
  445.50  1.6066E-002  
  446.00  1.6057E-002  
  446.50  1.5945E-002  
  447.00  1.5744E-002  
  447.50  1.5484E-002  
  448.00  1.5216E-002  
  448.50  1.4881E-002  
  449.00  1.4529E-002  
  449.50  1.4109E-002  
  450.00  1.3598E-002  
  450.50  1.3104E-002  
  451.00  1.2631E-002  
  451.50  1.2187E-002  
  452.00  1.1774E-002  
  452.50  1.1321E-002  
  453.00  1.0785E-002  
  453.50  1.0235E-002  
  454.00  9.7161E-003  
  454.50  9.1995E-003  
  455.00  8.8335E-003  
  455.50  8.4125E-003  
  456.00  7.9802E-003  
  456.50  7.5755E-003  
  457.00  7.1958E-003  
  457.50  6.8887E-003  
  458.00  6.5751E-003  
  458.50  6.2617E-003  
  459.00  5.9516E-003  
  459.50  5.6738E-003  
  460.00  5.4649E-003  
  460.50  5.2555E-003  
  461.00  5.0480E-003  
  461.50  4.8376E-003  
  462.00  4.6496E-003  
  462.50  4.5024E-003  
  463.00  4.3775E-003  
  463.50  4.3001E-003  
  464.00  4.1754E-003  
  464.50  4.0058E-003  
  465.00  3.8124E-003  
  465.50  3.6464E-003  
  466.00  3.5139E-003  
  466.50  3.4009E-003  
  467.00  3.2628E-003  
  467.50  3.1391E-003  
  468.00  3.0110E-003  
  468.50  2.8766E-003  
  469.00  2.7719E-003  
  469.50  2.6697E-003  
  470.00  2.6493E-003  
  470.50  2.5878E-003  
  471.00  2.5215E-003  
  471.50  2.4322E-003  
  472.00  2.3357E-003  
  472.50  2.2970E-003  
  473.00  2.2557E-003  
  473.50  2.2033E-003  
  474.00  2.1413E-003  
  474.50  2.0665E-003  
  475.00  2.0068E-003  
  475.50  1.9547E-003  
  476.00  1.9236E-003  
  476.50  1.9146E-003  
  477.00  1.9250E-003  
  477.50  1.9466E-003  
  478.00  1.8945E-003  
  478.50  1.8359E-003  
  479.00  1.7497E-003  
  479.50  1.7224E-003  
  480.00  1.7189E-003  
  480.50  1.7131E-003  
  481.00  1.7052E-003  
  481.50  1.6333E-003  
  482.00  1.6061E-003  
  482.50  1.5706E-003  
  483.00  1.5600E-003  
  483.50  1.5940E-003  
  484.00  1.5937E-003  
  484.50  1.5995E-003  
  485.00  1.5876E-003  
  485.50  1.5540E-003  
  486.00  1.5402E-003  
  486.50  1.5181E-003  
  487.00  1.5132E-003  
  487.50  1.5365E-003  
  488.00  1.5756E-003  
  488.50  1.6060E-003  
  489.00  1.6251E-003  
  489.50  1.6273E-003  
  490.00  1.6424E-003  
  490.50  1.6500E-003  
  491.00  1.6863E-003  
  491.50  1.7119E-003  
  492.00  1.7625E-003  
  492.50  1.8043E-003  
  493.00  1.8404E-003  
  493.50  1.8795E-003  
  494.00  1.9173E-003  
  494.50  1.9809E-003  
  495.00  2.0552E-003  
  495.50  2.1468E-003  
  496.00  2.2192E-003  
  496.50  2.2817E-003  
  497.00  2.3308E-003  
  497.50  2.4024E-003  
  498.00  2.4903E-003  
  498.50  2.5730E-003  
  499.00  2.6620E-003  
  499.50  2.7411E-003  
  500.00  2.8255E-003  
  500.50  2.8964E-003  
  501.00  2.9479E-003  
  501.50  3.0171E-003  
  502.00  3.0924E-003  
  502.50  3.1754E-003  
  503.00  3.2784E-003  
  503.50  3.3494E-003  
  504.00  3.4374E-003  
  504.50  3.5156E-003  
  505.00  3.6221E-003  
  505.50  3.7509E-003  
  506.00  3.8776E-003  
  506.50  3.9879E-003  
  507.00  4.0726E-003  
  507.50  4.1682E-003  
  508.00  4.2900E-003  
  508.50  4.4058E-003  
  509.00  4.5370E-003  
  509.50  4.6294E-003  
  510.00  4.7401E-003  
  510.50  4.8428E-003  
  511.00  4.9467E-003  
  511.50  5.0425E-003  
  512.00  5.1329E-003  
  512.50  5.2311E-003  
  513.00  5.3167E-003  
  513.50  5.4117E-003  
  514.00  5.5152E-003  
  514.50  5.6280E-003  
  515.00  5.7465E-003  
  515.50  5.8969E-003  
  516.00  6.0392E-003  
  516.50  6.1701E-003  
  517.00  6.2394E-003  
  517.50  6.2972E-003  
  518.00  6.3475E-003  
  518.50  6.4646E-003  
  519.00  6.5768E-003  
  519.50  6.6819E-003  
  520.00  6.7791E-003  
  520.50  6.8470E-003  
  521.00  6.9233E-003  
  521.50  7.0066E-003  
  522.00  7.1022E-003  
  522.50  7.2124E-003  
  523.00  7.3418E-003  
  523.50  7.4513E-003  
  524.00  7.5701E-003  
  524.50  7.6337E-003  
  525.00  7.6914E-003  
  525.50  7.7577E-003  
  526.00  7.8219E-003  
  526.50  7.9379E-003  
  527.00  8.0350E-003  
  527.50  8.0790E-003  
  528.00  8.1050E-003  
  528.50  8.1430E-003  
  529.00  8.2317E-003  
  529.50  8.3545E-003  
  530.00  8.4297E-003  
  530.50  8.4691E-003  
  531.00  8.4719E-003  
  531.50  8.5003E-003  
  532.00  8.5940E-003  
  532.50  8.6964E-003  
  533.00  8.7840E-003  
  533.50  8.8367E-003  
  534.00  8.8631E-003  
  534.50  8.9149E-003  
  535.00  8.9653E-003  
  535.50  9.0089E-003  
  536.00  9.0680E-003  
  536.50  9.1290E-003  
  537.00  9.1762E-003  
  537.50  9.2087E-003  
  538.00  9.2199E-003  
  538.50  9.2827E-003  
  539.00  9.3216E-003  
  539.50  9.3524E-003  
  540.00  9.3759E-003  
  540.50  9.4251E-003  
  541.00  9.4850E-003  
  541.50  9.5052E-003  
  542.00  9.5095E-003  
  542.50  9.5083E-003  
  543.00  9.5310E-003  
  543.50  9.5891E-003  
  544.00  9.6503E-003  
  544.50  9.7078E-003  
  545.00  9.7226E-003  
  545.50  9.7456E-003  
  546.00  9.7399E-003  
  546.50  9.7273E-003  
  547.00  9.7368E-003  
  547.50  9.7844E-003  
  548.00  9.8441E-003  
  548.50  9.8865E-003  
  549.00  9.8829E-003  
  549.50  9.9025E-003  
  550.00  9.9177E-003  
  550.50  9.9434E-003  
  551.00  9.9765E-003  
  551.50  9.9989E-003  
  552.00  1.0007E-002  
  552.50  9.9844E-003  
  553.00  9.9504E-003  
  553.50  9.9565E-003  
  554.00  9.9954E-003  
  554.50  1.0080E-002  
  555.00  1.0103E-002  
  555.50  1.0118E-002  
  556.00  1.0095E-002  
  556.50  1.0142E-002  
  557.00  1.0182E-002  
  557.50  1.0222E-002  
  558.00  1.0232E-002  
  558.50  1.0178E-002  
  559.00  1.0133E-002  
  559.50  1.0111E-002  
  560.00  1.0128E-002  
  560.50  1.0122E-002  
  561.00  1.0094E-002  
  561.50  1.0119E-002  
  562.00  1.0143E-002  
  562.50  1.0133E-002  
  563.00  1.0088E-002  
  563.50  1.0055E-002  
  564.00  1.0108E-002  
  564.50  1.0108E-002  
  565.00  1.0093E-002  
  565.50  1.0026E-002  
  566.00  9.9852E-003  
  566.50  1.0013E-002  
  567.00  1.0031E-002  
  567.50  1.0022E-002  
  568.00  9.9888E-003  
  568.50  9.9579E-003  
  569.00  9.9611E-003  
  569.50  9.9829E-003  
  570.00  9.9659E-003  
  570.50  9.9437E-003  
  571.00  9.9221E-003  
  571.50  9.9060E-003  
  572.00  9.9038E-003  
  572.50  9.8563E-003  
  573.00  9.8180E-003  
  573.50  9.7876E-003  
  574.00  9.8101E-003  
  574.50  9.8244E-003  
  575.00  9.8408E-003  
  575.50  9.8640E-003  
  576.00  9.9043E-003  
  576.50  9.9135E-003  
  577.00  9.8623E-003  
  577.50  9.7506E-003  
  578.00  9.6768E-003  
  578.50  9.6501E-003  
  579.00  9.6754E-003  
  579.50  9.6921E-003  
  580.00  9.6631E-003  
  580.50  9.6425E-003  
  581.00  9.5787E-003  
  581.50  9.5006E-003  
  582.00  9.4213E-003  
  582.50  9.3974E-003  
  583.00  9.3684E-003  
  583.50  9.3759E-003  
  584.00  9.3508E-003  
  584.50  9.3363E-003  
  585.00  9.3244E-003  
  585.50  9.2578E-003  
  586.00  9.2261E-003  
  586.50  9.2199E-003  
  587.00  9.2039E-003  
  587.50  9.1861E-003  
  588.00  9.1114E-003  
  588.50  9.0557E-003  
  589.00  8.9952E-003  
  589.50  8.9658E-003  
  590.00  8.9407E-003  
  590.50  8.9352E-003  
  591.00  8.8895E-003  
  591.50  8.8156E-003  
  592.00  8.7482E-003  
  592.50  8.6902E-003  
  593.00  8.7017E-003  
  593.50  8.6674E-003  
  594.00  8.6283E-003  
  594.50  8.5603E-003  
  595.00  8.4698E-003  
  595.50  8.4184E-003  
  596.00  8.3910E-003  
  596.50  8.3794E-003  
  597.00  8.3438E-003  
  597.50  8.2918E-003  
  598.00  8.2880E-003  
  598.50  8.2944E-003  
  599.00  8.2902E-003  
  599.50  8.2522E-003  
  600.00  8.2016E-003  
  600.50  8.1729E-003  
  601.00  8.1242E-003  
  601.50  8.0666E-003  
  602.00  8.0043E-003  
  602.50  7.9470E-003  
  603.00  7.8770E-003  
  603.50  7.7989E-003  
  604.00  7.6844E-003  
  604.50  7.6238E-003  
  605.00  7.6039E-003  
  605.50  7.5981E-003  
  606.00  7.5531E-003  
  606.50  7.4711E-003  
  607.00  7.4458E-003  
  607.50  7.4274E-003  
  608.00  7.4111E-003  
  608.50  7.3515E-003  
  609.00  7.2531E-003  
  609.50  7.2261E-003  
  610.00  7.2231E-003  
  610.50  7.2220E-003  
  611.00  7.1572E-003  
  611.50  7.0540E-003  
  612.00  6.9708E-003  
  612.50  6.9221E-003  
  613.00  6.8652E-003  
  613.50  6.8240E-003  
  614.00  6.7614E-003  
  614.50  6.7342E-003  
  615.00  6.6634E-003  
  615.50  6.5784E-003  
  616.00  6.5335E-003  
  616.50  6.5348E-003  
  617.00  6.4784E-003  
  617.50  6.3790E-003  
  618.00  6.2716E-003  
  618.50  6.2641E-003  
  619.00  6.2593E-003  
  619.50  6.2328E-003  
  620.00  6.1968E-003  
  620.50  6.1308E-003  
  621.00  6.1071E-003  
  621.50  6.0634E-003  
  622.00  6.0009E-003  
  622.50  5.9103E-003  
  623.00  5.8346E-003  
  623.50  5.8417E-003  
  624.00  5.8204E-003  
  624.50  5.7519E-003  
  625.00  5.6465E-003  
  625.50  5.6010E-003  
  626.00  5.5989E-003  
  626.50  5.6032E-003  
  627.00  5.5819E-003  
  627.50  5.4993E-003  
  628.00  5.4214E-003  
  628.50  5.3006E-003  
  629.00  5.2334E-003  
  629.50  5.1925E-003  
  630.00  5.1758E-003  
  630.50  5.1742E-003  
  631.00  5.1248E-003  
  631.50  5.1085E-003  
  632.00  5.0517E-003  
  632.50  4.9926E-003  
  633.00  4.9028E-003  
  633.50  4.8402E-003  
  634.00  4.8265E-003  
  634.50  4.8435E-003  
  635.00  4.8238E-003  
  635.50  4.7623E-003  
  636.00  4.6652E-003  
  636.50  4.6092E-003  
  637.00  4.5912E-003  
  637.50  4.5562E-003  
  638.00  4.5198E-003  
  638.50  4.4728E-003  
  639.00  4.4814E-003  
  639.50  4.4716E-003  
  640.00  4.4366E-003  
  640.50  4.3380E-003  
  641.00  4.2562E-003  
  641.50  4.2213E-003  
  642.00  4.2299E-003  
  642.50  4.1526E-003  
  643.00  4.0163E-003  
  643.50  3.8869E-003  
  644.00  3.8658E-003  
  644.50  3.8694E-003  
  645.00  3.9100E-003  
  645.50  3.9162E-003  
  646.00  3.9293E-003  
  646.50  3.8288E-003  
  647.00  3.7250E-003  
  647.50  3.6818E-003  
  648.00  3.7024E-003  
  648.50  3.6982E-003  
  649.00  3.6297E-003  
  649.50  3.5592E-003  
  650.00  3.5036E-003  
  650.50  3.4108E-003  
  651.00  3.3890E-003  
  651.50  3.4026E-003  
  652.00  3.4245E-003  
  652.50  3.3899E-003  
  653.00  3.2977E-003  
  653.50  3.2582E-003  
  654.00  3.2125E-003  
  654.50  3.2005E-003  
  655.00  3.1677E-003  
  655.50  3.1369E-003  
  656.00  3.0979E-003  
  656.50  3.0926E-003  
  657.00  3.0380E-003  
  657.50  2.9817E-003  
  658.00  2.8866E-003  
  658.50  2.8214E-003  
  659.00  2.7932E-003  
  659.50  2.8089E-003  
  660.00  2.7928E-003  
  660.50  2.7224E-003  
  661.00  2.6473E-003  
  661.50  2.6105E-003  
  662.00  2.6036E-003  
  662.50  2.6094E-003  
  663.00  2.6584E-003  
  663.50  2.7276E-003  
  664.00  2.7430E-003  
  664.50  2.6804E-003  
  665.00  2.5351E-003  
  665.50  2.3665E-003  
  666.00  2.3021E-003  
  666.50  2.3264E-003  
  667.00  2.3100E-003  
  667.50  2.2657E-003  
  668.00  2.1902E-003  
  668.50  2.2365E-003  
  669.00  2.2658E-003  
  669.50  2.2466E-003  
  670.00  2.2137E-003  
  670.50  2.1848E-003  
  671.00  2.1884E-003  
  671.50  2.1432E-003  
  672.00  2.0713E-003  
  672.50  2.0246E-003  
  673.00  2.0120E-003  
  673.50  2.0011E-003  
  674.00  1.9701E-003  
  674.50  1.9648E-003  
  675.00  1.9604E-003  
  675.50  1.9771E-003  
  676.00  1.9327E-003  
  676.50  1.8896E-003  
  677.00  1.8676E-003  
  677.50  1.8378E-003  
  678.00  1.8144E-003  
  678.50  1.8006E-003  
  679.00  1.8555E-003  
  679.50  1.7929E-003  
  680.00  1.7250E-003  
  680.50  1.6445E-003  
  681.00  1.6767E-003  
  681.50  1.6815E-003  
  682.00  1.6885E-003  
  682.50  1.6930E-003  
  683.00  1.7134E-003  
  683.50  1.6893E-003  
  684.00  1.6319E-003  
  684.50  1.5595E-003  
  685.00  1.4915E-003  
  685.50  1.4875E-003  
  686.00  1.4855E-003  
  686.50  1.4976E-003  
  687.00  1.4637E-003  
  687.50  1.4817E-003  
  688.00  1.5163E-003  
  688.50  1.5730E-003  
  689.00  1.5080E-003  
  689.50  1.3835E-003  
  690.00  1.2922E-003  
  690.50  1.3193E-003  
  691.00  1.3650E-003  
  691.50  1.3206E-003  
  692.00  1.2998E-003  
  692.50  1.3353E-003  
  693.00  1.3790E-003  
  693.50  1.3229E-003  
  694.00  1.2438E-003  
  694.50  1.2361E-003  
  695.00  1.2708E-003  
  695.50  1.2755E-003  
  696.00  1.2682E-003  
  696.50  1.2380E-003  
  697.00  1.1526E-003  
  697.50  1.0763E-003  
  698.00  1.0683E-003  
  698.50  1.1488E-003  
  699.00  1.1830E-003  
  699.50  1.1482E-003  
  700.00  1.0776E-003  
  700.50  1.0010E-003  
  701.00  1.0035E-003  
  701.50  1.0286E-003  
  702.00  9.9203E-004  
  702.50  9.8306E-004  
  703.00  1.0112E-003  
  703.50  1.0369E-003  
  704.00  9.9427E-004  
  704.50  9.3919E-004  
  705.00  9.7338E-004  
  705.50  1.0148E-003  
  706.00  9.8096E-004  
  706.50  8.8234E-004  
  707.00  8.4934E-004  
  707.50  8.8274E-004  
  708.00  8.7168E-004  
  708.50  8.3827E-004  
  709.00  8.5934E-004  
  709.50  8.8488E-004  
  710.00  8.7155E-004  
  710.50  8.7832E-004  
  711.00  8.8631E-004  
  711.50  9.3780E-004  
  712.00  9.4888E-004  
  712.50  9.7244E-004  
  713.00  9.0226E-004  
  713.50  7.8680E-004  
  714.00  6.9399E-004  
  714.50  6.2180E-004  
  715.00  6.4216E-004  
  715.50  7.0056E-004  
  716.00  7.7811E-004  
  716.50  8.3137E-004  
  717.00  8.1133E-004  
  717.50  7.7797E-004  
  718.00  6.9432E-004  
  718.50  7.2354E-004  
  719.00  7.7679E-004  
  719.50  7.6935E-004  
  720.00  6.7140E-004  
  720.50  6.2607E-004  
  721.00  5.9831E-004  
  721.50  5.3965E-004  
  722.00  4.8114E-004  
  722.50  4.5843E-004  
  723.00  4.8723E-004  
  723.50  5.2264E-004  
  724.00  5.5366E-004  
  724.50  5.4360E-004  
  725.00  5.1569E-004  
  725.50  5.6652E-004  
  726.00  5.9891E-004  
  726.50  6.4296E-004  
  727.00  6.2128E-004  
  727.50  5.4927E-004  
  728.00  4.8453E-004  
  728.50  5.0012E-004  
  729.00  5.4987E-004  
  729.50  5.6430E-004  
  730.00  4.9146E-004  
  730.50  4.2316E-004  
  731.00  4.0173E-004  
  731.50  3.8913E-004  
  732.00  3.5364E-004  
  732.50  3.3328E-004  
  733.00  2.8391E-004  
  733.50  2.9828E-004  
  734.00  3.1232E-004  
  734.50  3.7699E-004  
  735.00  3.2911E-004  
  735.50  3.4029E-004  
  736.00  3.2748E-004  
  736.50  4.3471E-004  
  737.00  4.3894E-004  
  737.50  4.3203E-004  
  738.00  3.2434E-004  
  738.50  2.8895E-004  
  739.00  2.7582E-004  
  739.50  2.5691E-004  
  740.00  2.3549E-004  
  740.50  2.3969E-004  
  741.00  2.0390E-004  
  741.50  1.8148E-004  
  742.00  2.3283E-004  
  742.50  3.3562E-004  
  743.00  4.2110E-004  
  743.50  4.1859E-004  
  744.00  3.7044E-004  
  744.50  3.1439E-004  
  745.00  2.9281E-004  
  745.50  2.2729E-004  
  746.00  1.9263E-004  
  746.50  1.3856E-004  
  747.00  1.5092E-004  
  747.50  2.2704E-004  
  748.00  3.9760E-004  
  748.50  4.3535E-004  
  749.00  4.2497E-004  
  749.50  4.3298E-004  
  750.00  4.2065E-004  
  750.50  2.7092E-004  
  751.00  2.4632E-004  
  751.50  1.6891E-004  
  752.00  1.6195E-004  
  752.50  1.6270E-004  
  753.00  2.3526E-004  
  753.50  2.2051E-004  
  754.00  2.6234E-004  
  754.50  3.1888E-004  
  755.00  3.2409E-004  
  755.50  3.3220E-004  
  756.00  4.1894E-004  
  756.50  4.6787E-004  
  757.00  3.9971E-004  
  757.50  2.9172E-004  
  758.00  2.6020E-004  
  758.50  3.5152E-004  
  759.00  4.9206E-004  
  759.50  4.4960E-004  
  760.00  2.2643E-004  
  760.50  4.7822E-005  
  761.00  2.1004E-004  
  761.50  3.5069E-004  
  762.00  2.8857E-004  
  762.50  1.3585E-004  
  763.00  1.2501E-004  
  763.50  1.8921E-004  
  764.00  2.0053E-004  
  764.50  1.5166E-004  
  765.00  1.5178E-004  
  765.50  9.9243E-005  
  766.00  8.9457E-005  
  766.50  7.8166E-007  
  767.00  8.7245E-005  
  767.50  5.9552E-005  
  768.00  9.7615E-005  
  768.50  1.5517E-004  
  769.00  2.6319E-004  
  769.50  2.5218E-004  
  770.00  2.0732E-004  
  770.50  1.4690E-004  
  771.00  2.6233E-005  
  771.50  0.0000E+000  
  772.00  1.1665E-004  
  772.50  2.0914E-004  
  773.00  2.6764E-004  
  773.50  2.4613E-004  
  774.00  3.1314E-004  
  774.50  1.4233E-004  
  775.00  1.6008E-005  
  775.50  1.5432E-005  
  776.00  7.8892E-005  
  776.50  3.3946E-005  
  777.00  0.0000E+000  
  777.50  0.0000E+000  
  778.00  6.0342E-006  
  778.50  2.9301E-007  
  779.00  0.0000E+000  
  779.50  0.0000E+000  
  780.00  1.9560E-005  
  780.50  1.2970E-005  
  781.00  0.0000E+000  
  781.50  1.0794E-005  
  782.00  1.2395E-004  
  782.50  3.0113E-006  
  783.00  0.0000E+000  
  783.50  0.0000E+000  
  784.00  4.6187E-005  
  784.50  9.9701E-005  
  785.00  1.9177E-004  
  785.50  3.2815E-004  
  786.00  2.9404E-004  
  786.50  1.9469E-004  
  787.00  1.7779E-004  
  787.50  1.7451E-004  
  788.00  1.0032E-004  
  788.50  9.6525E-006  
  789.00  0.0000E+000  
  789.50  7.5501E-006  
  790.00  1.4273E-004  
  790.50  2.4145E-004  
  791.00  2.0689E-004  
  791.50  6.1293E-005  
  792.00  0.0000E+000  
  792.50  4.9478E-005  
  793.00  2.1699E-004  
  793.50  5.3941E-004  
  794.00  5.3245E-004  
  794.50  4.6278E-004  
  795.00  1.4082E-004  
  795.50  1.8170E-005  
  796.00  0.0000E+000  
  796.50  1.9997E-004  
  797.00  3.6405E-004  
  797.50  4.0817E-004  
  798.00  2.8169E-004  
  798.50  2.4497E-004  
  799.00  2.7594E-004  
  799.50  3.5302E-004  
  800.00  1.3418E-004  
  800.50  3.3589E-006  
  801.00  3.0484E-005  
  801.50  2.4646E-004  
  802.00  2.1433E-004  
  802.50  1.1626E-004  
  803.00  0.0000E+000  
  803.50  0.0000E+000  
  804.00  0.0000E+000  
  804.50  0.0000E+000  
  805.00  9.1408E-005  
  805.50  1.0753E-004  
  806.00  1.6250E-004  
  806.50  9.0737E-005  
  807.00  1.9559E-006  
  807.50  0.0000E+000  
  808.00  0.0000E+000  
  808.50  0.0000E+000  
  809.00  0.0000E+000  
  809.50  0.0000E+000  
  810.00  0.0000E+000  
  810.50  2.4639E-005  
  811.00  2.1656E-005  
  811.50  0.0000E+000  
  812.00  0.0000E+000  
  812.50  4.3631E-005  
  813.00  2.7470E-004  
  813.50  3.1065E-004  
  814.00  2.9464E-004  
  814.50  2.2192E-005  
  815.00  0.0000E+000  
  815.50  0.0000E+000  
  816.00  0.0000E+000  
  816.50  0.0000E+000  
  817.00  0.0000E+000  
  817.50  5.0399E-006  
  818.00  1.8150E-004  
  818.50  1.2134E-004  
  819.00  8.7202E-005  
  819.50  1.6354E-004  
  820.00  1.6870E-004  
  820.50  3.9217E-004  
  821.00  8.1372E-004  
  821.50  7.5017E-004  
  822.00  5.4155E-005  
  822.50  0.0000E+000  
  823.00  0.0000E+000  
  823.50  0.0000E+000  
  824.00  0.0000E+000  
  824.50  1.7751E-005  
  825.00  3.8625E-004  
  825.50  3.8435E-004  
  826.00  3.4213E-004  
  826.50  1.4783E-004  
  827.00  9.7635E-005  
  827.50  1.0225E-004  
  828.00  1.5466E-004  
  828.50  0.0000E+000  
  829.00  0.0000E+000  
  829.50  0.0000E+000  
  830.00  4.0420E-005  
  830.50  7.3172E-005  
  831.00  2.6960E-004  
  831.50  9.2234E-005  
  832.00  0.0000E+000  
  832.50  1.0256E-004  
  833.00  5.4721E-005  
  833.50  0.0000E+000  
  834.00  0.0000E+000  
  834.50  0.0000E+000  
  835.00  0.0000E+000  
  835.50  0.0000E+000  
  836.00  0.0000E+000  
  836.50  6.1100E-005  
  837.00  2.8596E-004  
  837.50  6.2403E-005  
  838.00  0.0000E+000  
  838.50  0.0000E+000  
  839.00  0.0000E+000  
  839.50  0.0000E+000  
  840.00  2.8810E-004  
  840.50  6.3125E-004  
  841.00  5.7876E-004  
  841.50  3.3605E-004  
  842.00  4.8764E-004  
  842.50  6.7155E-004  
  843.00  7.0378E-004  
  843.50  2.6035E-004  
  844.00  0.0000E+000  
  844.50  5.7761E-005  
  845.00  2.8401E-004  
  845.50  0.0000E+000  
  846.00  0.0000E+000  
  846.50  0.0000E+000  
  847.00  4.9043E-005  
  847.50  3.9570E-004  
  848.00  4.2655E-004  
  848.50  2.9952E-004  
  849.00  3.8228E-004  
  849.50  3.9676E-004  
  850.00  1.4894E-004  
  850.50  2.3224E-005  
  851.00  0.0000E+000  
  851.50  0.0000E+000  
  852.00  0.0000E+000  
  852.50  0.0000E+000  
  853.00  0.0000E+000  
  853.50  0.0000E+000  
  854.00  0.0000E+000  
  854.50  0.0000E+000  
  855.00  0.0000E+000  
  855.50  0.0000E+000  
  856.00  4.7161E-005  
  856.50  1.2073E-004  
  857.00  1.5634E-004  
  857.50  8.0140E-007  
  858.00  0.0000E+000  
  858.50  0.0000E+000  
  859.00  0.0000E+000  
  859.50  6.9972E-005  
  860.00  8.9183E-005  
  860.50  5.1560E-004  
  861.00  6.4678E-004  
  861.50  1.1706E-004  
  862.00  0.0000E+000  
  862.50  0.0000E+000  
  863.00  0.0000E+000  
  863.50  8.9907E-006  
  864.00  2.5025E-004  
  864.50  2.5091E-005  
  865.00  1.6688E-004  
  865.50  3.3293E-004  
  866.00  3.3911E-004  
  866.50  1.0636E-005  
  867.00  0.0000E+000  
  867.50  0.0000E+000  
  868.00  0.0000E+000  
  868.50  0.0000E+000  
  869.00  0.0000E+000  
  869.50  1.1092E-004  
  870.00  0.0000E+000  
  870.50  0.0000E+000  
  871.00  0.0000E+000  
  871.50  0.0000E+000  
  872.00  0.0000E+000  
  872.50  3.7756E-004  
  873.00  8.4436E-004  
  873.50  1.7514E-004  
  874.00  0.0000E+000  
  874.50  0.0000E+000  
  875.00  0.0000E+000  
  875.50  3.8322E-004  
  876.00  1.0217E-003  
  876.50  6.0869E-004  
  877.00  1.4994E-004  
  877.50  4.8859E-004  
  878.00  5.9461E-004  
  878.50  3.7122E-004  
  879.00  4.9352E-004  
  879.50  6.2519E-004  
  880.00  0.0000E+000  
  880.50  0.0000E+000  
  881.00  1.5613E-005  
  881.50  9.4210E-004  
  882.00  1.0676E-003  
  882.50  3.5456E-004  
  883.00  7.3380E-007  
  883.50  0.0000E+000  
  884.00  0.0000E+000  
  884.50  1.6489E-004  
  885.00  3.6083E-004  
  885.50  0.0000E+000  
  886.00  0.0000E+000  
  886.50  0.0000E+000  
  887.00  0.0000E+000  
  887.50  0.0000E+000  
  888.00  0.0000E+000  
  888.50  0.0000E+000  
  889.00  5.3015E-004  
  889.50  4.4355E-004  
  890.00  0.0000E+000  
  890.50  0.0000E+000  
  891.00  3.1934E-004  
  891.50  4.4837E-004  
  892.00  1.6499E-004  
  892.50  5.6372E-006  
  893.00  3.4774E-004  
  893.50  5.8020E-004  
  894.00  3.7024E-004  
  894.50  0.0000E+000  
  895.00  4.1262E-006  
  895.50  8.8177E-004  
  896.00  1.2064E-003  
  896.50  7.0137E-004  
  897.00  2.1276E-004  
  897.50  7.5043E-005  
  898.00  6.6424E-004  
  898.50  5.6830E-004  
  899.00  2.4660E-004  
  899.50  9.0022E-007  
