
# From lspdd.org
# 
# Name: Halo ELume PAR30 Flood Domestique
# Indice spectral Valeur 
# MSI 0.30 
# SLI 0.52 
# IPI 0.93 
# Pourcentage de bleu 13.3 
# Caractéristique Valeur 
# CCT calculée (K) 2712 
# CCT du fabricant (K) ND 
# Tension (V) 130 
# Puissance (W) 50.0 
# Efficacité lumineuse (Lum/W) 
#
# Image: '/app/system/img_2s/2607/medium_image2.JPG?1413486649'
# Image: '/app/system/img_1s/2607/medium_image1.JPG?1413486653'
# 

  273.00  0.0000E+000  
  273.50  0.0000E+000  
  274.00  0.0000E+000  
  274.50  0.0000E+000  
  275.00  0.0000E+000  
  275.50  0.0000E+000  
  276.00  0.0000E+000  
  276.50  0.0000E+000  
  277.00  0.0000E+000  
  277.50  0.0000E+000  
  278.00  0.0000E+000  
  278.50  0.0000E+000  
  279.00  0.0000E+000  
  279.50  0.0000E+000  
  280.00  0.0000E+000  
  280.50  0.0000E+000  
  281.00  0.0000E+000  
  281.50  0.0000E+000  
  282.00  0.0000E+000  
  282.50  0.0000E+000  
  283.00  0.0000E+000  
  283.50  0.0000E+000  
  284.00  0.0000E+000  
  284.50  0.0000E+000  
  285.00  0.0000E+000  
  285.50  0.0000E+000  
  286.00  0.0000E+000  
  286.50  0.0000E+000  
  287.00  0.0000E+000  
  287.50  0.0000E+000  
  288.00  0.0000E+000  
  288.50  0.0000E+000  
  289.00  0.0000E+000  
  289.50  0.0000E+000  
  290.00  0.0000E+000  
  290.50  0.0000E+000  
  291.00  0.0000E+000  
  291.50  0.0000E+000  
  292.00  0.0000E+000  
  292.50  0.0000E+000  
  293.00  0.0000E+000  
  293.50  0.0000E+000  
  294.00  0.0000E+000  
  294.50  0.0000E+000  
  295.00  0.0000E+000  
  295.50  0.0000E+000  
  296.00  0.0000E+000  
  296.50  0.0000E+000  
  297.00  0.0000E+000  
  297.50  0.0000E+000  
  298.00  0.0000E+000  
  298.50  0.0000E+000  
  299.00  0.0000E+000  
  299.50  0.0000E+000  
  300.00  0.0000E+000  
  300.50  0.0000E+000  
  301.00  0.0000E+000  
  301.50  1.0173E-006  
  302.00  1.5786E-006  
  302.50  0.0000E+000  
  303.00  2.4915E-005  
  303.50  6.4486E-005  
  304.00  4.9685E-005  
  304.50  2.5605E-005  
  305.00  0.0000E+000  
  305.50  0.0000E+000  
  306.00  0.0000E+000  
  306.50  0.0000E+000  
  307.00  0.0000E+000  
  307.50  6.3539E-005  
  308.00  1.0389E-004  
  308.50  1.1898E-004  
  309.00  1.2874E-004  
  309.50  3.0909E-005  
  310.00  0.0000E+000  
  310.50  0.0000E+000  
  311.00  0.0000E+000  
  311.50  0.0000E+000  
  312.00  0.0000E+000  
  312.50  0.0000E+000  
  313.00  0.0000E+000  
  313.50  0.0000E+000  
  314.00  0.0000E+000  
  314.50  0.0000E+000  
  315.00  0.0000E+000  
  315.50  0.0000E+000  
  316.00  0.0000E+000  
  316.50  0.0000E+000  
  317.00  0.0000E+000  
  317.50  1.2339E-005  
  318.00  3.8916E-005  
  318.50  4.4963E-005  
  319.00  5.1365E-005  
  319.50  0.0000E+000  
  320.00  1.3341E-005  
  320.50  1.6446E-005  
  321.00  4.7270E-005  
  321.50  1.0665E-004  
  322.00  1.0848E-004  
  322.50  7.3223E-005  
  323.00  3.5139E-005  
  323.50  1.4845E-006  
  324.00  0.0000E+000  
  324.50  0.0000E+000  
  325.00  0.0000E+000  
  325.50  0.0000E+000  
  326.00  0.0000E+000  
  326.50  0.0000E+000  
  327.00  1.6760E-005  
  327.50  2.7051E-005  
  328.00  1.7825E-005  
  328.50  0.0000E+000  
  329.00  0.0000E+000  
  329.50  0.0000E+000  
  330.00  0.0000E+000  
  330.50  1.8049E-005  
  331.00  5.7817E-005  
  331.50  1.0785E-004  
  332.00  1.6565E-004  
  332.50  2.0639E-004  
  333.00  1.9847E-004  
  333.50  1.4016E-004  
  334.00  1.1642E-004  
  334.50  6.6066E-005  
  335.00  4.7103E-005  
  335.50  6.7078E-005  
  336.00  7.0695E-005  
  336.50  9.7656E-005  
  337.00  8.6335E-005  
  337.50  9.8120E-005  
  338.00  7.4366E-005  
  338.50  6.3112E-005  
  339.00  5.5986E-005  
  339.50  7.1582E-005  
  340.00  1.3523E-004  
  340.50  2.0946E-004  
  341.00  2.4759E-004  
  341.50  2.7619E-004  
  342.00  2.8999E-004  
  342.50  2.8388E-004  
  343.00  2.5557E-004  
  343.50  2.3599E-004  
  344.00  2.2169E-004  
  344.50  2.3386E-004  
  345.00  3.0693E-004  
  345.50  3.3217E-004  
  346.00  3.9681E-004  
  346.50  4.5512E-004  
  347.00  4.5646E-004  
  347.50  4.8463E-004  
  348.00  5.3038E-004  
  348.50  5.7569E-004  
  349.00  6.1016E-004  
  349.50  6.3056E-004  
  350.00  6.2829E-004  
  350.50  6.3990E-004  
  351.00  6.6565E-004  
  351.50  6.8582E-004  
  352.00  7.0112E-004  
  352.50  7.2321E-004  
  353.00  7.4526E-004  
  353.50  7.4539E-004  
  354.00  7.8293E-004  
  354.50  8.3551E-004  
  355.00  8.7657E-004  
  355.50  9.2721E-004  
  356.00  8.9440E-004  
  356.50  8.3708E-004  
  357.00  8.1024E-004  
  357.50  8.5536E-004  
  358.00  9.5347E-004  
  358.50  1.0613E-003  
  359.00  1.1167E-003  
  359.50  1.1760E-003  
  360.00  1.1797E-003  
  360.50  1.1884E-003  
  361.00  1.2054E-003  
  361.50  1.1993E-003  
  362.00  1.2470E-003  
  362.50  1.2984E-003  
  363.00  1.3431E-003  
  363.50  1.3995E-003  
  364.00  1.4794E-003  
  364.50  1.5053E-003  
  365.00  1.5110E-003  
  365.50  1.4854E-003  
  366.00  1.4331E-003  
  366.50  1.4369E-003  
  367.00  1.4690E-003  
  367.50  1.5095E-003  
  368.00  1.5842E-003  
  368.50  1.6247E-003  
  369.00  1.6698E-003  
  369.50  1.7219E-003  
  370.00  1.7237E-003  
  370.50  1.8297E-003  
  371.00  1.8938E-003  
  371.50  1.9408E-003  
  372.00  1.9639E-003  
  372.50  1.9253E-003  
  373.00  1.9201E-003  
  373.50  1.8895E-003  
  374.00  1.9275E-003  
  374.50  1.9376E-003  
  375.00  1.9825E-003  
  375.50  2.0373E-003  
  376.00  2.0776E-003  
  376.50  2.1306E-003  
  377.00  2.1502E-003  
  377.50  2.1251E-003  
  378.00  2.1256E-003  
  378.50  2.1980E-003  
  379.00  2.2613E-003  
  379.50  2.3413E-003  
  380.00  2.4015E-003  
  380.50  2.4641E-003  
  381.00  2.5295E-003  
  381.50  2.5164E-003  
  382.00  2.5059E-003  
  382.50  2.4936E-003  
  383.00  2.5788E-003  
  383.50  2.6381E-003  
  384.00  2.6473E-003  
  384.50  2.6897E-003  
  385.00  2.7458E-003  
  385.50  2.8999E-003  
  386.00  3.0007E-003  
  386.50  3.0516E-003  
  387.00  3.0051E-003  
  387.50  2.9766E-003  
  388.00  2.9682E-003  
  388.50  3.0022E-003  
  389.00  3.0305E-003  
  389.50  3.0152E-003  
  390.00  3.0400E-003  
  390.50  3.0955E-003  
  391.00  3.1535E-003  
  391.50  3.2437E-003  
  392.00  3.3282E-003  
  392.50  3.3988E-003  
  393.00  3.4826E-003  
  393.50  3.5231E-003  
  394.00  3.5271E-003  
  394.50  3.5135E-003  
  395.00  3.4758E-003  
  395.50  3.4370E-003  
  396.00  3.4513E-003  
  396.50  3.5403E-003  
  397.00  3.6471E-003  
  397.50  3.6980E-003  
  398.00  3.6973E-003  
  398.50  3.6919E-003  
  399.00  3.7190E-003  
  399.50  3.7892E-003  
  400.00  3.8603E-003  
  400.50  3.9168E-003  
  401.00  3.9807E-003  
  401.50  4.0780E-003  
  402.00  4.1246E-003  
  402.50  4.1500E-003  
  403.00  4.1684E-003  
  403.50  4.2119E-003  
  404.00  4.2752E-003  
  404.50  4.2692E-003  
  405.00  4.2459E-003  
  405.50  4.2308E-003  
  406.00  4.2490E-003  
  406.50  4.3187E-003  
  407.00  4.4059E-003  
  407.50  4.4949E-003  
  408.00  4.6317E-003  
  408.50  4.6518E-003  
  409.00  4.6460E-003  
  409.50  4.6267E-003  
  410.00  4.6557E-003  
  410.50  4.7730E-003  
  411.00  4.8516E-003  
  411.50  4.9411E-003  
  412.00  5.0231E-003  
  412.50  5.0903E-003  
  413.00  5.1225E-003  
  413.50  5.1305E-003  
  414.00  5.1374E-003  
  414.50  5.1621E-003  
  415.00  5.2189E-003  
  415.50  5.2939E-003  
  416.00  5.3941E-003  
  416.50  5.4807E-003  
  417.00  5.5289E-003  
  417.50  5.5849E-003  
  418.00  5.6446E-003  
  418.50  5.6535E-003  
  419.00  5.6777E-003  
  419.50  5.7000E-003  
  420.00  5.7837E-003  
  420.50  5.9102E-003  
  421.00  5.9604E-003  
  421.50  5.9605E-003  
  422.00  5.9826E-003  
  422.50  6.0522E-003  
  423.00  6.1441E-003  
  423.50  6.2518E-003  
  424.00  6.3178E-003  
  424.50  6.3934E-003  
  425.00  6.4417E-003  
  425.50  6.4650E-003  
  426.00  6.4993E-003  
  426.50  6.5419E-003  
  427.00  6.5949E-003  
  427.50  6.6610E-003  
  428.00  6.7398E-003  
  428.50  6.7645E-003  
  429.00  6.8505E-003  
  429.50  6.9308E-003  
  430.00  6.9833E-003  
  430.50  7.0550E-003  
  431.00  7.0788E-003  
  431.50  7.0868E-003  
  432.00  7.1398E-003  
  432.50  7.1872E-003  
  433.00  7.2351E-003  
  433.50  7.2689E-003  
  434.00  7.3101E-003  
  434.50  7.3647E-003  
  435.00  7.4719E-003  
  435.50  7.5667E-003  
  436.00  7.6706E-003  
  436.50  7.7848E-003  
  437.00  7.8422E-003  
  437.50  7.8988E-003  
  438.00  7.9713E-003  
  438.50  8.0353E-003  
  439.00  8.0827E-003  
  439.50  8.0922E-003  
  440.00  8.0930E-003  
  440.50  8.1678E-003  
  441.00  8.3071E-003  
  441.50  8.4621E-003  
  442.00  8.5588E-003  
  442.50  8.6153E-003  
  443.00  8.6393E-003  
  443.50  8.7113E-003  
  444.00  8.8330E-003  
  444.50  8.9572E-003  
  445.00  9.0692E-003  
  445.50  9.0779E-003  
  446.00  9.0699E-003  
  446.50  9.0626E-003  
  447.00  9.0718E-003  
  447.50  9.1473E-003  
  448.00  9.2246E-003  
  448.50  9.3379E-003  
  449.00  9.4204E-003  
  449.50  9.4935E-003  
  450.00  9.5308E-003  
  450.50  9.6042E-003  
  451.00  9.7466E-003  
  451.50  9.8673E-003  
  452.00  1.0001E-002  
  452.50  1.0037E-002  
  453.00  1.0057E-002  
  453.50  1.0074E-002  
  454.00  1.0163E-002  
  454.50  1.0213E-002  
  455.00  1.0355E-002  
  455.50  1.0432E-002  
  456.00  1.0521E-002  
  456.50  1.0633E-002  
  457.00  1.0738E-002  
  457.50  1.0877E-002  
  458.00  1.0941E-002  
  458.50  1.0971E-002  
  459.00  1.1029E-002  
  459.50  1.1102E-002  
  460.00  1.1227E-002  
  460.50  1.1339E-002  
  461.00  1.1439E-002  
  461.50  1.1550E-002  
  462.00  1.1615E-002  
  462.50  1.1650E-002  
  463.00  1.1668E-002  
  463.50  1.1702E-002  
  464.00  1.1754E-002  
  464.50  1.1880E-002  
  465.00  1.2029E-002  
  465.50  1.2137E-002  
  466.00  1.2180E-002  
  466.50  1.2269E-002  
  467.00  1.2348E-002  
  467.50  1.2477E-002  
  468.00  1.2536E-002  
  468.50  1.2584E-002  
  469.00  1.2656E-002  
  469.50  1.2742E-002  
  470.00  1.2803E-002  
  470.50  1.2885E-002  
  471.00  1.2925E-002  
  471.50  1.2983E-002  
  472.00  1.3005E-002  
  472.50  1.3084E-002  
  473.00  1.3173E-002  
  473.50  1.3343E-002  
  474.00  1.3522E-002  
  474.50  1.3643E-002  
  475.00  1.3721E-002  
  475.50  1.3767E-002  
  476.00  1.3821E-002  
  476.50  1.3893E-002  
  477.00  1.3971E-002  
  477.50  1.4051E-002  
  478.00  1.4111E-002  
  478.50  1.4251E-002  
  479.00  1.4381E-002  
  479.50  1.4499E-002  
  480.00  1.4630E-002  
  480.50  1.4716E-002  
  481.00  1.4774E-002  
  481.50  1.4860E-002  
  482.00  1.4947E-002  
  482.50  1.5002E-002  
  483.00  1.5058E-002  
  483.50  1.5140E-002  
  484.00  1.5261E-002  
  484.50  1.5381E-002  
  485.00  1.5438E-002  
  485.50  1.5492E-002  
  486.00  1.5532E-002  
  486.50  1.5623E-002  
  487.00  1.5717E-002  
  487.50  1.5794E-002  
  488.00  1.5920E-002  
  488.50  1.6040E-002  
  489.00  1.6202E-002  
  489.50  1.6311E-002  
  490.00  1.6394E-002  
  490.50  1.6466E-002  
  491.00  1.6551E-002  
  491.50  1.6655E-002  
  492.00  1.6760E-002  
  492.50  1.6870E-002  
  493.00  1.6996E-002  
  493.50  1.7146E-002  
  494.00  1.7280E-002  
  494.50  1.7402E-002  
  495.00  1.7496E-002  
  495.50  1.7539E-002  
  496.00  1.7594E-002  
  496.50  1.7682E-002  
  497.00  1.7813E-002  
  497.50  1.8001E-002  
  498.00  1.8180E-002  
  498.50  1.8311E-002  
  499.00  1.8450E-002  
  499.50  1.8571E-002  
  500.00  1.8739E-002  
  500.50  1.8845E-002  
  501.00  1.8931E-002  
  501.50  1.9056E-002  
  502.00  1.9208E-002  
  502.50  1.9368E-002  
  503.00  1.9476E-002  
  503.50  1.9566E-002  
  504.00  1.9720E-002  
  504.50  1.9892E-002  
  505.00  2.0053E-002  
  505.50  2.0185E-002  
  506.00  2.0272E-002  
  506.50  2.0401E-002  
  507.00  2.0547E-002  
  507.50  2.0673E-002  
  508.00  2.0847E-002  
  508.50  2.1037E-002  
  509.00  2.1226E-002  
  509.50  2.1387E-002  
  510.00  2.1515E-002  
  510.50  2.1618E-002  
  511.00  2.1742E-002  
  511.50  2.1883E-002  
  512.00  2.2064E-002  
  512.50  2.2313E-002  
  513.00  2.2502E-002  
  513.50  2.2666E-002  
  514.00  2.2793E-002  
  514.50  2.2967E-002  
  515.00  2.3123E-002  
  515.50  2.3298E-002  
  516.00  2.3480E-002  
  516.50  2.3718E-002  
  517.00  2.3950E-002  
  517.50  2.4118E-002  
  518.00  2.4270E-002  
  518.50  2.4398E-002  
  519.00  2.4566E-002  
  519.50  2.4752E-002  
  520.00  2.4913E-002  
  520.50  2.5085E-002  
  521.00  2.5238E-002  
  521.50  2.5386E-002  
  522.00  2.5560E-002  
  522.50  2.5735E-002  
  523.00  2.5954E-002  
  523.50  2.6161E-002  
  524.00  2.6370E-002  
  524.50  2.6502E-002  
  525.00  2.6633E-002  
  525.50  2.6745E-002  
  526.00  2.6908E-002  
  526.50  2.7109E-002  
  527.00  2.7301E-002  
  527.50  2.7511E-002  
  528.00  2.7699E-002  
  528.50  2.7865E-002  
  529.00  2.8000E-002  
  529.50  2.8138E-002  
  530.00  2.8313E-002  
  530.50  2.8521E-002  
  531.00  2.8712E-002  
  531.50  2.8910E-002  
  532.00  2.9085E-002  
  532.50  2.9294E-002  
  533.00  2.9511E-002  
  533.50  2.9696E-002  
  534.00  2.9876E-002  
  534.50  3.0031E-002  
  535.00  3.0212E-002  
  535.50  3.0412E-002  
  536.00  3.0552E-002  
  536.50  3.0659E-002  
  537.00  3.0805E-002  
  537.50  3.0970E-002  
  538.00  3.1148E-002  
  538.50  3.1277E-002  
  539.00  3.1422E-002  
  539.50  3.1629E-002  
  540.00  3.1863E-002  
  540.50  3.2130E-002  
  541.00  3.2352E-002  
  541.50  3.2577E-002  
  542.00  3.2749E-002  
  542.50  3.2898E-002  
  543.00  3.3057E-002  
  543.50  3.3230E-002  
  544.00  3.3484E-002  
  544.50  3.3718E-002  
  545.00  3.3848E-002  
  545.50  3.3960E-002  
  546.00  3.4052E-002  
  546.50  3.4289E-002  
  547.00  3.4498E-002  
  547.50  3.4675E-002  
  548.00  3.4860E-002  
  548.50  3.5016E-002  
  549.00  3.5262E-002  
  549.50  3.5483E-002  
  550.00  3.5649E-002  
  550.50  3.5755E-002  
  551.00  3.5872E-002  
  551.50  3.6069E-002  
  552.00  3.6330E-002  
  552.50  3.6558E-002  
  553.00  3.6735E-002  
  553.50  3.6904E-002  
  554.00  3.7035E-002  
  554.50  3.7198E-002  
  555.00  3.7328E-002  
  555.50  3.7578E-002  
  556.00  3.7794E-002  
  556.50  3.7997E-002  
  557.00  3.8159E-002  
  557.50  3.8399E-002  
  558.00  3.8621E-002  
  558.50  3.8831E-002  
  559.00  3.8963E-002  
  559.50  3.9088E-002  
  560.00  3.9274E-002  
  560.50  3.9421E-002  
  561.00  3.9622E-002  
  561.50  3.9790E-002  
  562.00  3.9932E-002  
  562.50  4.0094E-002  
  563.00  4.0231E-002  
  563.50  4.0362E-002  
  564.00  4.0462E-002  
  564.50  4.0591E-002  
  565.00  4.0800E-002  
  565.50  4.1034E-002  
  566.00  4.1235E-002  
  566.50  4.1396E-002  
  567.00  4.1470E-002  
  567.50  4.1555E-002  
  568.00  4.1787E-002  
  568.50  4.2062E-002  
  569.00  4.2330E-002  
  569.50  4.2427E-002  
  570.00  4.2459E-002  
  570.50  4.2569E-002  
  571.00  4.2748E-002  
  571.50  4.3002E-002  
  572.00  4.3212E-002  
  572.50  4.3378E-002  
  573.00  4.3488E-002  
  573.50  4.3577E-002  
  574.00  4.3625E-002  
  574.50  4.3706E-002  
  575.00  4.3870E-002  
  575.50  4.4069E-002  
  576.00  4.4269E-002  
  576.50  4.4387E-002  
  577.00  4.4517E-002  
  577.50  4.4745E-002  
  578.00  4.4938E-002  
  578.50  4.5085E-002  
  579.00  4.5126E-002  
  579.50  4.5191E-002  
  580.00  4.5376E-002  
  580.50  4.5551E-002  
  581.00  4.5724E-002  
  581.50  4.5846E-002  
  582.00  4.5913E-002  
  582.50  4.6067E-002  
  583.00  4.6232E-002  
  583.50  4.6519E-002  
  584.00  4.6705E-002  
  584.50  4.6870E-002  
  585.00  4.6898E-002  
  585.50  4.6965E-002  
  586.00  4.7052E-002  
  586.50  4.7257E-002  
  587.00  4.7553E-002  
  587.50  4.7779E-002  
  588.00  4.7896E-002  
  588.50  4.7901E-002  
  589.00  4.7928E-002  
  589.50  4.8050E-002  
  590.00  4.8244E-002  
  590.50  4.8408E-002  
  591.00  4.8534E-002  
  591.50  4.8640E-002  
  592.00  4.8784E-002  
  592.50  4.8994E-002  
  593.00  4.9142E-002  
  593.50  4.9169E-002  
  594.00  4.9220E-002  
  594.50  4.9313E-002  
  595.00  4.9461E-002  
  595.50  4.9597E-002  
  596.00  4.9702E-002  
  596.50  4.9924E-002  
  597.00  5.0132E-002  
  597.50  5.0266E-002  
  598.00  5.0358E-002  
  598.50  5.0483E-002  
  599.00  5.0670E-002  
  599.50  5.0835E-002  
  600.00  5.0958E-002  
  600.50  5.1073E-002  
  601.00  5.1218E-002  
  601.50  5.1349E-002  
  602.00  5.1402E-002  
  602.50  5.1495E-002  
  603.00  5.1584E-002  
  603.50  5.1736E-002  
  604.00  5.1830E-002  
  604.50  5.1901E-002  
  605.00  5.1919E-002  
  605.50  5.2002E-002  
  606.00  5.2107E-002  
  606.50  5.2358E-002  
  607.00  5.2478E-002  
  607.50  5.2665E-002  
  608.00  5.2698E-002  
  608.50  5.2799E-002  
  609.00  5.2910E-002  
  609.50  5.3064E-002  
  610.00  5.3162E-002  
  610.50  5.3250E-002  
  611.00  5.3370E-002  
  611.50  5.3528E-002  
  612.00  5.3645E-002  
  612.50  5.3666E-002  
  613.00  5.3776E-002  
  613.50  5.3874E-002  
  614.00  5.3997E-002  
  614.50  5.4091E-002  
  615.00  5.4090E-002  
  615.50  5.4107E-002  
  616.00  5.4190E-002  
  616.50  5.4352E-002  
  617.00  5.4448E-002  
  617.50  5.4522E-002  
  618.00  5.4559E-002  
  618.50  5.4771E-002  
  619.00  5.4869E-002  
  619.50  5.4979E-002  
  620.00  5.5074E-002  
  620.50  5.5217E-002  
  621.00  5.5379E-002  
  621.50  5.5481E-002  
  622.00  5.5487E-002  
  622.50  5.5512E-002  
  623.00  5.5518E-002  
  623.50  5.5621E-002  
  624.00  5.5735E-002  
  624.50  5.5899E-002  
  625.00  5.6080E-002  
  625.50  5.6237E-002  
  626.00  5.6271E-002  
  626.50  5.6254E-002  
  627.00  5.6325E-002  
  627.50  5.6486E-002  
  628.00  5.6657E-002  
  628.50  5.6683E-002  
  629.00  5.6666E-002  
  629.50  5.6748E-002  
  630.00  5.6958E-002  
  630.50  5.7112E-002  
  631.00  5.7211E-002  
  631.50  5.7296E-002  
  632.00  5.7436E-002  
  632.50  5.7646E-002  
  633.00  5.7748E-002  
  633.50  5.7817E-002  
  634.00  5.8010E-002  
  634.50  5.8146E-002  
  635.00  5.8282E-002  
  635.50  5.8163E-002  
  636.00  5.8164E-002  
  636.50  5.8274E-002  
  637.00  5.8429E-002  
  637.50  5.8480E-002  
  638.00  5.8546E-002  
  638.50  5.8638E-002  
  639.00  5.8658E-002  
  639.50  5.8620E-002  
  640.00  5.8653E-002  
  640.50  5.8827E-002  
  641.00  5.9007E-002  
  641.50  5.9061E-002  
  642.00  5.9157E-002  
  642.50  5.9236E-002  
  643.00  5.9346E-002  
  643.50  5.9463E-002  
  644.00  5.9616E-002  
  644.50  5.9739E-002  
  645.00  5.9802E-002  
  645.50  5.9824E-002  
  646.00  5.9887E-002  
  646.50  5.9953E-002  
  647.00  6.0137E-002  
  647.50  6.0348E-002  
  648.00  6.0429E-002  
  648.50  6.0503E-002  
  649.00  6.0591E-002  
  649.50  6.0604E-002  
  650.00  6.0466E-002  
  650.50  6.0313E-002  
  651.00  6.0380E-002  
  651.50  6.0581E-002  
  652.00  6.0709E-002  
  652.50  6.0744E-002  
  653.00  6.0712E-002  
  653.50  6.0867E-002  
  654.00  6.1029E-002  
  654.50  6.1124E-002  
  655.00  6.1081E-002  
  655.50  6.1104E-002  
  656.00  6.1296E-002  
  656.50  6.1451E-002  
  657.00  6.1589E-002  
  657.50  6.1649E-002  
  658.00  6.1769E-002  
  658.50  6.1891E-002  
  659.00  6.2040E-002  
  659.50  6.2176E-002  
  660.00  6.2243E-002  
  660.50  6.2311E-002  
  661.00  6.2275E-002  
  661.50  6.2337E-002  
  662.00  6.2228E-002  
  662.50  6.2205E-002  
  663.00  6.2280E-002  
  663.50  6.2366E-002  
  664.00  6.2460E-002  
  664.50  6.2390E-002  
  665.00  6.2554E-002  
  665.50  6.2736E-002  
  666.00  6.2925E-002  
  666.50  6.2944E-002  
  667.00  6.2890E-002  
  667.50  6.2866E-002  
  668.00  6.2920E-002  
  668.50  6.3082E-002  
  669.00  6.3224E-002  
  669.50  6.3303E-002  
  670.00  6.3272E-002  
  670.50  6.3322E-002  
  671.00  6.3346E-002  
  671.50  6.3335E-002  
  672.00  6.3325E-002  
  672.50  6.3368E-002  
  673.00  6.3432E-002  
  673.50  6.3422E-002  
  674.00  6.3513E-002  
  674.50  6.3631E-002  
  675.00  6.3758E-002  
  675.50  6.3778E-002  
  676.00  6.3797E-002  
  676.50  6.3713E-002  
  677.00  6.3709E-002  
  677.50  6.3871E-002  
  678.00  6.4104E-002  
  678.50  6.4315E-002  
  679.00  6.4339E-002  
  679.50  6.4430E-002  
  680.00  6.4355E-002  
  680.50  6.4434E-002  
  681.00  6.4452E-002  
  681.50  6.4627E-002  
  682.00  6.4665E-002  
  682.50  6.4760E-002  
  683.00  6.4719E-002  
  683.50  6.4717E-002  
  684.00  6.4785E-002  
  684.50  6.4921E-002  
  685.00  6.5029E-002  
  685.50  6.5177E-002  
  686.00  6.5339E-002  
  686.50  6.5549E-002  
  687.00  6.5637E-002  
  687.50  6.5708E-002  
  688.00  6.5579E-002  
  688.50  6.5552E-002  
  689.00  6.5476E-002  
  689.50  6.5647E-002  
  690.00  6.5944E-002  
  690.50  6.6167E-002  
  691.00  6.6179E-002  
  691.50  6.6109E-002  
  692.00  6.6321E-002  
  692.50  6.6503E-002  
  693.00  6.6523E-002  
  693.50  6.6582E-002  
  694.00  6.6725E-002  
  694.50  6.6918E-002  
  695.00  6.6892E-002  
  695.50  6.6814E-002  
  696.00  6.6757E-002  
  696.50  6.6853E-002  
  697.00  6.7031E-002  
  697.50  6.7213E-002  
  698.00  6.7221E-002  
  698.50  6.7208E-002  
  699.00  6.7219E-002  
  699.50  6.7341E-002  
  700.00  6.7498E-002  
  700.50  6.7654E-002  
  701.00  6.7843E-002  
  701.50  6.7821E-002  
  702.00  6.7727E-002  
  702.50  6.7632E-002  
  703.00  6.7632E-002  
  703.50  6.7756E-002  
  704.00  6.7982E-002  
  704.50  6.8196E-002  
  705.00  6.8324E-002  
  705.50  6.8141E-002  
  706.00  6.8061E-002  
  706.50  6.8317E-002  
  707.00  6.8591E-002  
  707.50  6.8761E-002  
  708.00  6.8603E-002  
  708.50  6.8646E-002  
  709.00  6.8589E-002  
  709.50  6.8778E-002  
  710.00  6.8907E-002  
  710.50  6.8965E-002  
  711.00  6.8991E-002  
  711.50  6.8967E-002  
  712.00  6.8868E-002  
  712.50  6.8886E-002  
  713.00  6.9235E-002  
  713.50  6.9699E-002  
  714.00  6.9961E-002  
  714.50  7.0023E-002  
  715.00  6.9903E-002  
  715.50  6.9663E-002  
  716.00  6.9516E-002  
  716.50  6.9541E-002  
  717.00  6.9568E-002  
  717.50  6.9789E-002  
  718.00  7.0202E-002  
  718.50  7.0540E-002  
  719.00  7.0601E-002  
  719.50  7.0628E-002  
  720.00  7.0525E-002  
  720.50  7.0452E-002  
  721.00  7.0298E-002  
  721.50  7.0322E-002  
  722.00  7.0328E-002  
  722.50  7.0487E-002  
  723.00  7.0753E-002  
  723.50  7.0823E-002  
  724.00  7.0738E-002  
  724.50  7.0728E-002  
  725.00  7.1079E-002  
  725.50  7.1309E-002  
  726.00  7.1355E-002  
  726.50  7.1197E-002  
  727.00  7.1033E-002  
  727.50  7.1012E-002  
  728.00  7.1031E-002  
  728.50  7.1259E-002  
  729.00  7.1606E-002  
  729.50  7.1947E-002  
  730.00  7.2174E-002  
  730.50  7.2344E-002  
  731.00  7.2409E-002  
  731.50  7.2428E-002  
  732.00  7.2424E-002  
  732.50  7.2385E-002  
  733.00  7.2453E-002  
  733.50  7.2581E-002  
  734.00  7.2846E-002  
  734.50  7.2887E-002  
  735.00  7.3121E-002  
  735.50  7.3430E-002  
  736.00  7.3524E-002  
  736.50  7.3399E-002  
  737.00  7.3132E-002  
  737.50  7.3137E-002  
  738.00  7.2988E-002  
  738.50  7.3108E-002  
  739.00  7.3271E-002  
  739.50  7.3418E-002  
  740.00  7.3676E-002  
  740.50  7.3829E-002  
  741.00  7.3814E-002  
  741.50  7.3604E-002  
  742.00  7.3655E-002  
  742.50  7.3958E-002  
  743.00  7.4098E-002  
  743.50  7.4174E-002  
  744.00  7.4182E-002  
  744.50  7.3999E-002  
  745.00  7.3958E-002  
  745.50  7.4037E-002  
  746.00  7.4263E-002  
  746.50  7.4181E-002  
  747.00  7.4295E-002  
  747.50  7.4398E-002  
  748.00  7.4496E-002  
  748.50  7.4443E-002  
  749.00  7.4412E-002  
  749.50  7.4629E-002  
  750.00  7.5015E-002  
  750.50  7.5270E-002  
  751.00  7.5340E-002  
  751.50  7.5187E-002  
  752.00  7.5114E-002  
  752.50  7.4991E-002  
  753.00  7.4901E-002  
  753.50  7.5021E-002  
  754.00  7.5040E-002  
  754.50  7.5075E-002  
  755.00  7.5277E-002  
  755.50  7.5325E-002  
  756.00  7.5454E-002  
  756.50  7.5524E-002  
  757.00  7.5938E-002  
  757.50  7.6082E-002  
  758.00  7.5969E-002  
  758.50  7.5839E-002  
  759.00  7.5881E-002  
  759.50  7.6060E-002  
  760.00  7.5901E-002  
  760.50  7.5592E-002  
  761.00  7.5572E-002  
  761.50  7.6024E-002  
  762.00  7.6332E-002  
  762.50  7.6250E-002  
  763.00  7.5990E-002  
  763.50  7.6023E-002  
  764.00  7.6156E-002  
  764.50  7.6283E-002  
  765.00  7.6223E-002  
  765.50  7.6154E-002  
  766.00  7.6045E-002  
  766.50  7.5920E-002  
  767.00  7.6034E-002  
  767.50  7.6185E-002  
  768.00  7.6262E-002  
  768.50  7.6174E-002  
  769.00  7.6166E-002  
  769.50  7.6178E-002  
  770.00  7.6297E-002  
  770.50  7.6449E-002  
  771.00  7.6652E-002  
  771.50  7.6772E-002  
  772.00  7.6607E-002  
  772.50  7.6531E-002  
  773.00  7.6632E-002  
  773.50  7.6897E-002  
  774.00  7.7084E-002  
  774.50  7.7352E-002  
  775.00  7.7207E-002  
  775.50  7.7061E-002  
  776.00  7.7059E-002  
  776.50  7.7175E-002  
  777.00  7.7081E-002  
  777.50  7.7013E-002  
  778.00  7.6775E-002  
  778.50  7.6964E-002  
  779.00  7.7046E-002  
  779.50  7.7143E-002  
  780.00  7.7346E-002  
  780.50  7.7648E-002  
  781.00  7.7799E-002  
  781.50  7.7753E-002  
  782.00  7.7890E-002  
  782.50  7.8040E-002  
  783.00  7.7904E-002  
  783.50  7.7762E-002  
  784.00  7.7793E-002  
  784.50  7.8171E-002  
  785.00  7.8514E-002  
  785.50  7.8734E-002  
  786.00  7.8433E-002  
  786.50  7.8304E-002  
  787.00  7.8184E-002  
  787.50  7.8096E-002  
  788.00  7.7818E-002  
  788.50  7.7793E-002  
  789.00  7.8263E-002  
  789.50  7.8806E-002  
  790.00  7.8941E-002  
  790.50  7.8795E-002  
  791.00  7.8474E-002  
  791.50  7.8274E-002  
  792.00  7.8328E-002  
  792.50  7.8681E-002  
  793.00  7.9160E-002  
  793.50  7.9379E-002  
  794.00  7.9433E-002  
  794.50  7.9438E-002  
  795.00  7.9464E-002  
  795.50  7.9076E-002  
  796.00  7.8889E-002  
  796.50  7.9226E-002  
  797.00  7.9729E-002  
  797.50  7.9719E-002  
  798.00  7.9777E-002  
  798.50  7.9713E-002  
  799.00  8.0008E-002  
  799.50  8.0061E-002  
  800.00  8.0291E-002  
  800.50  8.0629E-002  
  801.00  8.0508E-002  
  801.50  8.0554E-002  
  802.00  8.0483E-002  
  802.50  8.0617E-002  
  803.00  8.0413E-002  
  803.50  8.0242E-002  
  804.00  8.0176E-002  
  804.50  8.0391E-002  
  805.00  8.0695E-002  
  805.50  8.1084E-002  
  806.00  8.1402E-002  
  806.50  8.0762E-002  
  807.00  8.0423E-002  
  807.50  8.0767E-002  
  808.00  8.0893E-002  
  808.50  8.0912E-002  
  809.00  8.1221E-002  
  809.50  8.1280E-002  
  810.00  8.1005E-002  
  810.50  8.0703E-002  
  811.00  8.1022E-002  
  811.50  8.1152E-002  
  812.00  8.1584E-002  
  812.50  8.1885E-002  
  813.00  8.1885E-002  
  813.50  8.1638E-002  
  814.00  8.1488E-002  
  814.50  8.1515E-002  
  815.00  8.1912E-002  
  815.50  8.1873E-002  
  816.00  8.1466E-002  
  816.50  8.1533E-002  
  817.00  8.1936E-002  
  817.50  8.1269E-002  
  818.00  8.0763E-002  
  818.50  8.1005E-002  
  819.00  8.1774E-002  
  819.50  8.1540E-002  
  820.00  8.1318E-002  
  820.50  8.0996E-002  
  821.00  8.1139E-002  
  821.50  8.0924E-002  
  822.00  8.1113E-002  
  822.50  8.1746E-002  
  823.00  8.2232E-002  
  823.50  8.1791E-002  
  824.00  8.1994E-002  
  824.50  8.2443E-002  
  825.00  8.2854E-002  
  825.50  8.2718E-002  
  826.00  8.2447E-002  
  826.50  8.1945E-002  
  827.00  8.1497E-002  
  827.50  8.1268E-002  
  828.00  8.1797E-002  
  828.50  8.2273E-002  
  829.00  8.2503E-002  
  829.50  8.1889E-002  
  830.00  8.1229E-002  
  830.50  8.0895E-002  
  831.00  8.1255E-002  
  831.50  8.1785E-002  
  832.00  8.2112E-002  
  832.50  8.1840E-002  
  833.00  8.1950E-002  
  833.50  8.2253E-002  
  834.00  8.2789E-002  
  834.50  8.3621E-002  
  835.00  8.3615E-002  
  835.50  8.3104E-002  
  836.00  8.2804E-002  
  836.50  8.2681E-002  
  837.00  8.2218E-002  
  837.50  8.2180E-002  
  838.00  8.2576E-002  
  838.50  8.2572E-002  
  839.00  8.2435E-002  
  839.50  8.2514E-002  
  840.00  8.2116E-002  
  840.50  8.2503E-002  
  841.00  8.3094E-002  
  841.50  8.3203E-002  
  842.00  8.2794E-002  
  842.50  8.2159E-002  
  843.00  8.2350E-002  
  843.50  8.2980E-002  
  844.00  8.2881E-002  
  844.50  8.2634E-002  
  845.00  8.3440E-002  
  845.50  8.4067E-002  
  846.00  8.3951E-002  
  846.50  8.3821E-002  
  847.00  8.4122E-002  
  847.50  8.3939E-002  
  848.00  8.3338E-002  
  848.50  8.3549E-002  
  849.00  8.3645E-002  
  849.50  8.3506E-002  
  850.00  8.3339E-002  
  850.50  8.4073E-002  
  851.00  8.4659E-002  
  851.50  8.4410E-002  
  852.00  8.4303E-002  
  852.50  8.3683E-002  
  853.00  8.4181E-002  
  853.50  8.4528E-002  
  854.00  8.4447E-002  
  854.50  8.4453E-002  
  855.00  8.5084E-002  
  855.50  8.5662E-002  
  856.00  8.6055E-002  
  856.50  8.5866E-002  
  857.00  8.4733E-002  
  857.50  8.4836E-002  
  858.00  8.5612E-002  
  858.50  8.5318E-002  
  859.00  8.4663E-002  
  859.50  8.5206E-002  
  860.00  8.5761E-002  
  860.50  8.5431E-002  
  861.00  8.4792E-002  
  861.50  8.4822E-002  
  862.00  8.5690E-002  
  862.50  8.6875E-002  
  863.00  8.7206E-002  
  863.50  8.6662E-002  
  864.00  8.5096E-002  
  864.50  8.5660E-002  
  865.00  8.6924E-002  
  865.50  8.7793E-002  
  866.00  8.8103E-002  
  866.50  8.7619E-002  
  867.00  8.7173E-002  
  867.50  8.6825E-002  
  868.00  8.7290E-002  
  868.50  8.7783E-002  
  869.00  8.8330E-002  
  869.50  8.8184E-002  
  870.00  8.8012E-002  
  870.50  8.8575E-002  
  871.00  8.8626E-002  
  871.50  8.8643E-002  
  872.00  8.9376E-002  
  872.50  8.9627E-002  
  873.00  8.8647E-002  
  873.50  8.7837E-002  
  874.00  8.7798E-002  
  874.50  8.8198E-002  
  875.00  8.8530E-002  
  875.50  8.8584E-002  
  876.00  8.7982E-002  
  876.50  8.7957E-002  
  877.00  8.9451E-002  
  877.50  9.0157E-002  
  878.00  9.0579E-002  
  878.50  9.1318E-002  
  879.00  9.1538E-002  
  879.50  9.0699E-002  
  880.00  9.0095E-002  
  880.50  9.0133E-002  
  881.00  9.0376E-002  
  881.50  9.0142E-002  
  882.00  9.0102E-002  
  882.50  9.0828E-002  
  883.00  9.1724E-002  
  883.50  9.0308E-002  
  884.00  8.9142E-002  
  884.50  8.9671E-002  
  885.00  9.0774E-002  
  885.50  9.0862E-002  
  886.00  9.2650E-002  
  886.50  9.2605E-002  
  887.00  9.2074E-002  
  887.50  9.1715E-002  
  888.00  9.2382E-002  
  888.50  9.3075E-002  
  889.00  9.4193E-002  
  889.50  9.3652E-002  
  890.00  9.2873E-002  
  890.50  9.2416E-002  
  891.00  9.2654E-002  
  891.50  9.2854E-002  
  892.00  9.2096E-002  
  892.50  9.1604E-002  
  893.00  9.1790E-002  
  893.50  9.1479E-002  
  894.00  9.2014E-002  
  894.50  9.3002E-002  
  895.00  9.1949E-002  
  895.50  9.1336E-002  
  896.00  9.1694E-002  
  896.50  9.2629E-002  
  897.00  9.3469E-002  
  897.50  9.3386E-002  
  898.00  9.3448E-002  
  898.50  9.2966E-002  
  899.00  9.2718E-002  
  899.50  1.8350E-003  
