
# From lspdd.org
# 
# Name: LFC Globe PAR30 Domestique
# Indice spectral Valeur 
# MSI 0.26 
# SLI 0.43 
# IPI 0.56 
# Pourcentage de bleu 13.5 
# Caractéristique Valeur 
# CCT calculée (K) 2547 
# CCT du fabricant (K) 4100 
# Tension (V) 120 
# Puissance (W) 15.0 
# Efficacité lumineuse (Lum/W) 46.7 
#
# Image: '/app/system/img_1s/2610/medium_image1.JPG?1413486667'
# 

  273.00  0.0000E+000  
  273.50  0.0000E+000  
  274.00  0.0000E+000  
  274.50  0.0000E+000  
  275.00  0.0000E+000  
  275.50  0.0000E+000  
  276.00  0.0000E+000  
  276.50  0.0000E+000  
  277.00  0.0000E+000  
  277.50  0.0000E+000  
  278.00  0.0000E+000  
  278.50  0.0000E+000  
  279.00  0.0000E+000  
  279.50  0.0000E+000  
  280.00  0.0000E+000  
  280.50  0.0000E+000  
  281.00  0.0000E+000  
  281.50  0.0000E+000  
  282.00  0.0000E+000  
  282.50  0.0000E+000  
  283.00  0.0000E+000  
  283.50  0.0000E+000  
  284.00  0.0000E+000  
  284.50  0.0000E+000  
  285.00  0.0000E+000  
  285.50  0.0000E+000  
  286.00  0.0000E+000  
  286.50  0.0000E+000  
  287.00  0.0000E+000  
  287.50  0.0000E+000  
  288.00  0.0000E+000  
  288.50  0.0000E+000  
  289.00  0.0000E+000  
  289.50  0.0000E+000  
  290.00  0.0000E+000  
  290.50  0.0000E+000  
  291.00  0.0000E+000  
  291.50  0.0000E+000  
  292.00  0.0000E+000  
  292.50  0.0000E+000  
  293.00  0.0000E+000  
  293.50  0.0000E+000  
  294.00  0.0000E+000  
  294.50  0.0000E+000  
  295.00  0.0000E+000  
  295.50  0.0000E+000  
  296.00  0.0000E+000  
  296.50  0.0000E+000  
  297.00  0.0000E+000  
  297.50  0.0000E+000  
  298.00  0.0000E+000  
  298.50  0.0000E+000  
  299.00  0.0000E+000  
  299.50  0.0000E+000  
  300.00  0.0000E+000  
  300.50  0.0000E+000  
  301.00  0.0000E+000  
  301.50  0.0000E+000  
  302.00  0.0000E+000  
  302.50  0.0000E+000  
  303.00  0.0000E+000  
  303.50  0.0000E+000  
  304.00  0.0000E+000  
  304.50  0.0000E+000  
  305.00  0.0000E+000  
  305.50  0.0000E+000  
  306.00  0.0000E+000  
  306.50  0.0000E+000  
  307.00  0.0000E+000  
  307.50  0.0000E+000  
  308.00  0.0000E+000  
  308.50  0.0000E+000  
  309.00  0.0000E+000  
  309.50  0.0000E+000  
  310.00  0.0000E+000  
  310.50  0.0000E+000  
  311.00  0.0000E+000  
  311.50  0.0000E+000  
  312.00  0.0000E+000  
  312.50  0.0000E+000  
  313.00  0.0000E+000  
  313.50  0.0000E+000  
  314.00  0.0000E+000  
  314.50  0.0000E+000  
  315.00  0.0000E+000  
  315.50  0.0000E+000  
  316.00  0.0000E+000  
  316.50  0.0000E+000  
  317.00  0.0000E+000  
  317.50  0.0000E+000  
  318.00  0.0000E+000  
  318.50  0.0000E+000  
  319.00  0.0000E+000  
  319.50  0.0000E+000  
  320.00  0.0000E+000  
  320.50  0.0000E+000  
  321.00  0.0000E+000  
  321.50  0.0000E+000  
  322.00  0.0000E+000  
  322.50  0.0000E+000  
  323.00  0.0000E+000  
  323.50  0.0000E+000  
  324.00  0.0000E+000  
  324.50  0.0000E+000  
  325.00  0.0000E+000  
  325.50  0.0000E+000  
  326.00  0.0000E+000  
  326.50  0.0000E+000  
  327.00  0.0000E+000  
  327.50  0.0000E+000  
  328.00  0.0000E+000  
  328.50  0.0000E+000  
  329.00  0.0000E+000  
  329.50  0.0000E+000  
  330.00  0.0000E+000  
  330.50  0.0000E+000  
  331.00  0.0000E+000  
  331.50  0.0000E+000  
  332.00  0.0000E+000  
  332.50  0.0000E+000  
  333.00  0.0000E+000  
  333.50  8.7022E-007  
  334.00  7.2587E-007  
  334.50  3.3680E-006  
  335.00  0.0000E+000  
  335.50  0.0000E+000  
  336.00  0.0000E+000  
  336.50  0.0000E+000  
  337.00  0.0000E+000  
  337.50  0.0000E+000  
  338.00  0.0000E+000  
  338.50  0.0000E+000  
  339.00  0.0000E+000  
  339.50  0.0000E+000  
  340.00  0.0000E+000  
  340.50  0.0000E+000  
  341.00  0.0000E+000  
  341.50  0.0000E+000  
  342.00  0.0000E+000  
  342.50  0.0000E+000  
  343.00  0.0000E+000  
  343.50  0.0000E+000  
  344.00  0.0000E+000  
  344.50  0.0000E+000  
  345.00  0.0000E+000  
  345.50  0.0000E+000  
  346.00  0.0000E+000  
  346.50  0.0000E+000  
  347.00  0.0000E+000  
  347.50  0.0000E+000  
  348.00  0.0000E+000  
  348.50  0.0000E+000  
  349.00  0.0000E+000  
  349.50  0.0000E+000  
  350.00  0.0000E+000  
  350.50  0.0000E+000  
  351.00  0.0000E+000  
  351.50  0.0000E+000  
  352.00  0.0000E+000  
  352.50  0.0000E+000  
  353.00  0.0000E+000  
  353.50  0.0000E+000  
  354.00  0.0000E+000  
  354.50  0.0000E+000  
  355.00  0.0000E+000  
  355.50  0.0000E+000  
  356.00  0.0000E+000  
  356.50  0.0000E+000  
  357.00  0.0000E+000  
  357.50  0.0000E+000  
  358.00  0.0000E+000  
  358.50  8.8425E-007  
  359.00  1.3692E-005  
  359.50  2.4754E-005  
  360.00  3.3813E-005  
  360.50  2.0572E-005  
  361.00  1.2088E-005  
  361.50  8.6864E-006  
  362.00  0.0000E+000  
  362.50  0.0000E+000  
  363.00  5.8215E-005  
  363.50  2.8107E-004  
  364.00  6.3990E-004  
  364.50  9.9200E-004  
  365.00  1.1763E-003  
  365.50  1.1043E-003  
  366.00  7.9816E-004  
  366.50  4.9431E-004  
  367.00  2.6381E-004  
  367.50  1.3196E-004  
  368.00  6.4817E-005  
  368.50  7.3735E-006  
  369.00  0.0000E+000  
  369.50  0.0000E+000  
  370.00  0.0000E+000  
  370.50  6.3076E-006  
  371.00  5.2786E-006  
  371.50  0.0000E+000  
  372.00  0.0000E+000  
  372.50  0.0000E+000  
  373.00  0.0000E+000  
  373.50  0.0000E+000  
  374.00  0.0000E+000  
  374.50  0.0000E+000  
  375.00  0.0000E+000  
  375.50  0.0000E+000  
  376.00  0.0000E+000  
  376.50  0.0000E+000  
  377.00  0.0000E+000  
  377.50  0.0000E+000  
  378.00  0.0000E+000  
  378.50  0.0000E+000  
  379.00  0.0000E+000  
  379.50  0.0000E+000  
  380.00  7.7323E-007  
  380.50  2.6142E-006  
  381.00  0.0000E+000  
  381.50  0.0000E+000  
  382.00  0.0000E+000  
  382.50  0.0000E+000  
  383.00  0.0000E+000  
  383.50  0.0000E+000  
  384.00  0.0000E+000  
  384.50  0.0000E+000  
  385.00  0.0000E+000  
  385.50  0.0000E+000  
  386.00  0.0000E+000  
  386.50  1.0493E-006  
  387.00  2.1024E-005  
  387.50  1.1136E-005  
  388.00  0.0000E+000  
  388.50  0.0000E+000  
  389.00  0.0000E+000  
  389.50  0.0000E+000  
  390.00  0.0000E+000  
  390.50  0.0000E+000  
  391.00  0.0000E+000  
  391.50  0.0000E+000  
  392.00  0.0000E+000  
  392.50  0.0000E+000  
  393.00  0.0000E+000  
  393.50  0.0000E+000  
  394.00  0.0000E+000  
  394.50  0.0000E+000  
  395.00  0.0000E+000  
  395.50  0.0000E+000  
  396.00  2.8306E-006  
  396.50  6.8637E-007  
  397.00  0.0000E+000  
  397.50  0.0000E+000  
  398.00  0.0000E+000  
  398.50  0.0000E+000  
  399.00  0.0000E+000  
  399.50  0.0000E+000  
  400.00  0.0000E+000  
  400.50  0.0000E+000  
  401.00  0.0000E+000  
  401.50  0.0000E+000  
  402.00  1.5697E-006  
  402.50  9.0109E-005  
  403.00  4.8105E-004  
  403.50  1.2290E-003  
  404.00  2.0447E-003  
  404.50  2.4275E-003  
  405.00  2.1959E-003  
  405.50  1.4378E-003  
  406.00  7.2421E-004  
  406.50  3.4422E-004  
  407.00  2.5275E-004  
  407.50  2.3182E-004  
  408.00  1.8511E-004  
  408.50  1.0751E-004  
  409.00  4.5113E-005  
  409.50  1.4936E-005  
  410.00  2.9550E-005  
  410.50  2.6159E-005  
  411.00  2.8222E-005  
  411.50  3.0310E-005  
  412.00  3.0718E-005  
  412.50  2.6610E-005  
  413.00  2.7918E-005  
  413.50  2.7765E-005  
  414.00  2.7707E-005  
  414.50  4.6636E-005  
  415.00  3.3537E-005  
  415.50  1.5091E-005  
  416.00  1.6213E-006  
  416.50  0.0000E+000  
  417.00  1.5500E-005  
  417.50  5.8673E-005  
  418.00  7.6109E-005  
  418.50  8.0401E-005  
  419.00  6.3661E-005  
  419.50  5.9758E-005  
  420.00  6.0183E-005  
  420.50  6.9123E-005  
  421.00  5.8317E-005  
  421.50  4.1624E-005  
  422.00  1.8197E-005  
  422.50  1.9425E-005  
  423.00  3.4837E-005  
  423.50  5.5925E-005  
  424.00  6.8173E-005  
  424.50  6.0648E-005  
  425.00  8.9611E-005  
  425.50  1.1523E-004  
  426.00  1.3594E-004  
  426.50  1.3839E-004  
  427.00  1.2823E-004  
  427.50  1.3265E-004  
  428.00  1.2676E-004  
  428.50  1.0381E-004  
  429.00  8.8228E-005  
  429.50  9.6262E-005  
  430.00  1.0686E-004  
  430.50  1.1180E-004  
  431.00  9.2937E-005  
  431.50  1.0753E-004  
  432.00  1.5726E-004  
  432.50  2.1605E-004  
  433.00  2.7256E-004  
  433.50  4.8724E-004  
  434.00  1.3737E-003  
  434.50  3.7753E-003  
  435.00  6.9291E-003  
  435.50  9.1522E-003  
  436.00  8.7946E-003  
  436.50  6.3403E-003  
  437.00  3.3675E-003  
  437.50  1.3538E-003  
  438.00  5.2832E-004  
  438.50  2.6376E-004  
  439.00  1.7314E-004  
  439.50  1.3053E-004  
  440.00  9.2286E-005  
  440.50  1.0757E-004  
  441.00  1.1902E-004  
  441.50  1.3461E-004  
  442.00  1.3992E-004  
  442.50  1.1869E-004  
  443.00  1.1237E-004  
  443.50  1.0711E-004  
  444.00  9.4625E-005  
  444.50  1.1085E-004  
  445.00  1.1289E-004  
  445.50  1.3373E-004  
  446.00  1.2152E-004  
  446.50  1.2089E-004  
  447.00  1.1772E-004  
  447.50  1.3078E-004  
  448.00  1.3268E-004  
  448.50  9.2558E-005  
  449.00  9.0276E-005  
  449.50  1.0003E-004  
  450.00  1.2333E-004  
  450.50  1.4954E-004  
  451.00  1.4409E-004  
  451.50  1.1599E-004  
  452.00  1.1134E-004  
  452.50  1.1874E-004  
  453.00  1.2896E-004  
  453.50  1.2632E-004  
  454.00  1.0871E-004  
  454.50  8.7662E-005  
  455.00  9.4189E-005  
  455.50  9.1690E-005  
  456.00  1.0454E-004  
  456.50  1.0549E-004  
  457.00  1.0148E-004  
  457.50  8.0547E-005  
  458.00  5.6355E-005  
  458.50  2.5861E-005  
  459.00  7.4684E-006  
  459.50  2.1940E-005  
  460.00  5.9514E-005  
  460.50  9.0939E-005  
  461.00  9.2309E-005  
  461.50  5.8573E-005  
  462.00  4.0514E-005  
  462.50  3.6155E-005  
  463.00  4.4020E-005  
  463.50  6.2073E-005  
  464.00  7.1776E-005  
  464.50  8.7131E-005  
  465.00  8.0236E-005  
  465.50  7.6317E-005  
  466.00  6.9723E-005  
  466.50  8.1382E-005  
  467.00  6.3398E-005  
  467.50  5.5313E-005  
  468.00  4.7525E-005  
  468.50  4.1691E-005  
  469.00  7.5231E-005  
  469.50  8.8861E-005  
  470.00  9.9972E-005  
  470.50  1.0350E-004  
  471.00  9.8482E-005  
  471.50  9.7355E-005  
  472.00  1.0518E-004  
  472.50  8.2074E-005  
  473.00  5.9745E-005  
  473.50  6.2768E-005  
  474.00  8.6171E-005  
  474.50  1.1086E-004  
  475.00  1.0621E-004  
  475.50  9.4765E-005  
  476.00  1.0101E-004  
  476.50  1.2300E-004  
  477.00  1.3034E-004  
  477.50  1.0916E-004  
  478.00  1.1298E-004  
  478.50  1.1179E-004  
  479.00  1.3259E-004  
  479.50  1.6020E-004  
  480.00  2.0882E-004  
  480.50  2.5941E-004  
  481.00  2.9177E-004  
  481.50  3.2244E-004  
  482.00  3.6633E-004  
  482.50  4.4528E-004  
  483.00  5.5496E-004  
  483.50  6.8251E-004  
  484.00  8.2215E-004  
  484.50  9.6145E-004  
  485.00  1.1073E-003  
  485.50  1.2399E-003  
  486.00  1.3375E-003  
  486.50  1.3781E-003  
  487.00  1.3656E-003  
  487.50  1.3360E-003  
  488.00  1.2794E-003  
  488.50  1.2156E-003  
  489.00  1.1479E-003  
  489.50  1.0787E-003  
  490.00  1.0274E-003  
  490.50  1.0014E-003  
  491.00  9.9508E-004  
  491.50  9.7684E-004  
  492.00  9.2130E-004  
  492.50  8.5066E-004  
  493.00  7.8209E-004  
  493.50  7.2415E-004  
  494.00  6.8939E-004  
  494.50  6.5995E-004  
  495.00  6.3610E-004  
  495.50  5.9351E-004  
  496.00  5.4545E-004  
  496.50  5.0001E-004  
  497.00  4.6724E-004  
  497.50  4.4858E-004  
  498.00  4.2965E-004  
  498.50  4.0369E-004  
  499.00  3.7880E-004  
  499.50  3.4225E-004  
  500.00  3.0780E-004  
  500.50  2.6981E-004  
  501.00  2.4159E-004  
  501.50  2.1313E-004  
  502.00  1.8858E-004  
  502.50  1.7211E-004  
  503.00  1.6402E-004  
  503.50  1.6351E-004  
  504.00  1.5262E-004  
  504.50  1.3502E-004  
  505.00  1.1908E-004  
  505.50  1.1063E-004  
  506.00  1.1619E-004  
  506.50  1.2320E-004  
  507.00  1.2609E-004  
  507.50  1.1009E-004  
  508.00  8.5471E-005  
  508.50  8.0858E-005  
  509.00  8.6288E-005  
  509.50  9.8600E-005  
  510.00  9.7835E-005  
  510.50  9.3237E-005  
  511.00  9.2887E-005  
  511.50  9.1952E-005  
  512.00  9.4957E-005  
  512.50  9.2080E-005  
  513.00  8.2697E-005  
  513.50  7.3842E-005  
  514.00  7.1682E-005  
  514.50  7.1064E-005  
  515.00  7.9162E-005  
  515.50  6.8307E-005  
  516.00  7.8319E-005  
  516.50  8.8166E-005  
  517.00  1.0337E-004  
  517.50  1.1763E-004  
  518.00  1.1373E-004  
  518.50  9.4289E-005  
  519.00  7.2430E-005  
  519.50  5.7698E-005  
  520.00  5.7007E-005  
  520.50  7.7674E-005  
  521.00  9.0087E-005  
  521.50  9.1774E-005  
  522.00  7.8101E-005  
  522.50  6.6959E-005  
  523.00  6.0601E-005  
  523.50  6.3912E-005  
  524.00  7.2896E-005  
  524.50  7.7981E-005  
  525.00  8.8716E-005  
  525.50  9.0328E-005  
  526.00  8.6932E-005  
  526.50  9.2396E-005  
  527.00  1.0054E-004  
  527.50  1.1113E-004  
  528.00  1.1068E-004  
  528.50  1.1260E-004  
  529.00  1.1237E-004  
  529.50  1.1767E-004  
  530.00  1.2102E-004  
  530.50  1.1967E-004  
  531.00  1.3494E-004  
  531.50  1.6842E-004  
  532.00  2.1692E-004  
  532.50  2.8285E-004  
  533.00  3.4000E-004  
  533.50  3.6833E-004  
  534.00  3.6628E-004  
  534.50  3.4005E-004  
  535.00  3.4430E-004  
  535.50  4.0412E-004  
  536.00  5.2631E-004  
  536.50  7.1339E-004  
  537.00  9.2848E-004  
  537.50  1.1446E-003  
  538.00  1.3491E-003  
  538.50  1.6297E-003  
  539.00  2.0890E-003  
  539.50  2.8407E-003  
  540.00  3.9654E-003  
  540.50  5.4185E-003  
  541.00  6.8132E-003  
  541.50  7.7103E-003  
  542.00  7.7937E-003  
  542.50  7.3593E-003  
  543.00  6.8917E-003  
  543.50  6.6616E-003  
  544.00  6.9404E-003  
  544.50  7.9437E-003  
  545.00  9.8758E-003  
  545.50  1.1784E-002  
  546.00  1.2134E-002  
  546.50  1.0736E-002  
  547.00  8.2591E-003  
  547.50  6.1135E-003  
  548.00  4.8804E-003  
  548.50  4.1418E-003  
  549.00  3.6391E-003  
  549.50  3.2007E-003  
  550.00  2.8159E-003  
  550.50  2.4382E-003  
  551.00  2.1002E-003  
  551.50  1.8159E-003  
  552.00  1.5905E-003  
  552.50  1.4052E-003  
  553.00  1.2403E-003  
  553.50  1.0828E-003  
  554.00  9.3913E-004  
  554.50  7.9811E-004  
  555.00  6.6497E-004  
  555.50  5.6556E-004  
  556.00  4.8339E-004  
  556.50  4.4068E-004  
  557.00  4.1960E-004  
  557.50  3.9533E-004  
  558.00  3.6009E-004  
  558.50  3.1315E-004  
  559.00  2.7029E-004  
  559.50  2.5236E-004  
  560.00  2.4812E-004  
  560.50  2.4591E-004  
  561.00  2.3906E-004  
  561.50  2.3551E-004  
  562.00  2.2326E-004  
  562.50  2.0358E-004  
  563.00  1.8059E-004  
  563.50  1.6278E-004  
  564.00  1.6508E-004  
  564.50  1.7206E-004  
  565.00  1.7561E-004  
  565.50  1.6399E-004  
  566.00  1.5556E-004  
  566.50  1.4510E-004  
  567.00  1.3713E-004  
  567.50  1.2141E-004  
  568.00  1.0982E-004  
  568.50  1.1757E-004  
  569.00  1.2726E-004  
  569.50  1.3467E-004  
  570.00  1.2694E-004  
  570.50  1.0490E-004  
  571.00  8.7288E-005  
  571.50  7.6248E-005  
  572.00  8.4953E-005  
  572.50  9.7088E-005  
  573.00  1.0188E-004  
  573.50  1.1068E-004  
  574.00  1.2985E-004  
  574.50  1.6028E-004  
  575.00  2.7752E-004  
  575.50  5.7347E-004  
  576.00  1.0864E-003  
  576.50  1.5502E-003  
  577.00  1.7376E-003  
  577.50  1.6367E-003  
  578.00  1.5839E-003  
  578.50  1.7472E-003  
  579.00  1.9442E-003  
  579.50  1.9457E-003  
  580.00  1.8021E-003  
  580.50  1.6242E-003  
  581.00  1.5282E-003  
  581.50  1.5431E-003  
  582.00  1.6454E-003  
  582.50  1.7805E-003  
  583.00  1.8578E-003  
  583.50  1.8572E-003  
  584.00  1.8152E-003  
  584.50  1.7485E-003  
  585.00  1.7103E-003  
  585.50  1.7930E-003  
  586.00  2.0941E-003  
  586.50  2.6036E-003  
  587.00  2.9891E-003  
  587.50  2.9412E-003  
  588.00  2.4544E-003  
  588.50  1.8307E-003  
  589.00  1.4075E-003  
  589.50  1.2078E-003  
  590.00  1.1980E-003  
  590.50  1.2886E-003  
  591.00  1.4751E-003  
  591.50  1.7812E-003  
  592.00  2.1893E-003  
  592.50  2.5651E-003  
  593.00  2.7466E-003  
  593.50  2.5559E-003  
  594.00  2.0997E-003  
  594.50  1.5797E-003  
  595.00  1.2087E-003  
  595.50  1.0249E-003  
  596.00  9.6727E-004  
  596.50  9.7838E-004  
  597.00  1.0438E-003  
  597.50  1.1785E-003  
  598.00  1.3870E-003  
  598.50  1.6412E-003  
  599.00  1.8571E-003  
  599.50  1.9146E-003  
  600.00  1.8016E-003  
  600.50  1.5545E-003  
  601.00  1.2647E-003  
  601.50  1.0238E-003  
  602.00  8.5157E-004  
  602.50  7.6486E-004  
  603.00  7.1442E-004  
  603.50  7.1284E-004  
  604.00  7.2792E-004  
  604.50  7.5407E-004  
  605.00  7.9879E-004  
  605.50  8.9991E-004  
  606.00  1.0368E-003  
  606.50  1.2092E-003  
  607.00  1.3943E-003  
  607.50  1.6674E-003  
  608.00  2.1067E-003  
  608.50  2.8897E-003  
  609.00  4.3654E-003  
  609.50  7.6183E-003  
  610.00  1.3137E-002  
  610.50  2.0232E-002  
  611.00  2.5568E-002  
  611.50  2.6463E-002  
  612.00  2.2521E-002  
  612.50  1.7033E-002  
  613.00  1.2648E-002  
  613.50  1.0116E-002  
  614.00  8.7307E-003  
  614.50  7.6848E-003  
  615.00  6.5732E-003  
  615.50  5.3040E-003  
  616.00  4.1258E-003  
  616.50  3.1621E-003  
  617.00  2.5312E-003  
  617.50  2.0991E-003  
  618.00  1.8229E-003  
  618.50  1.6378E-003  
  619.00  1.5321E-003  
  619.50  1.5060E-003  
  620.00  1.5212E-003  
  620.50  1.5605E-003  
  621.00  1.6047E-003  
  621.50  1.6486E-003  
  622.00  1.6817E-003  
  622.50  1.7307E-003  
  623.00  1.7950E-003  
  623.50  1.8705E-003  
  624.00  1.9316E-003  
  624.50  1.9764E-003  
  625.00  2.0001E-003  
  625.50  2.0162E-003  
  626.00  2.0455E-003  
  626.50  2.0515E-003  
  627.00  2.0210E-003  
  627.50  1.9443E-003  
  628.00  1.9014E-003  
  628.50  1.9166E-003  
  629.00  2.0419E-003  
  629.50  2.3366E-003  
  630.00  2.8500E-003  
  630.50  3.3218E-003  
  631.00  3.4526E-003  
  631.50  3.0146E-003  
  632.00  2.2552E-003  
  632.50  1.4768E-003  
  633.00  9.5883E-004  
  633.50  6.7825E-004  
  634.00  5.8707E-004  
  634.50  5.2886E-004  
  635.00  4.9747E-004  
  635.50  4.5674E-004  
  636.00  4.2623E-004  
  636.50  3.9178E-004  
  637.00  3.5193E-004  
  637.50  3.2005E-004  
  638.00  2.9779E-004  
  638.50  2.9558E-004  
  639.00  2.8560E-004  
  639.50  2.7681E-004  
  640.00  2.3651E-004  
  640.50  2.1706E-004  
  641.00  1.9999E-004  
  641.50  2.3505E-004  
  642.00  2.7400E-004  
  642.50  2.7308E-004  
  643.00  2.5821E-004  
  643.50  2.4046E-004  
  644.00  2.7021E-004  
  644.50  2.7916E-004  
  645.00  2.7101E-004  
  645.50  2.6713E-004  
  646.00  2.5118E-004  
  646.50  2.3907E-004  
  647.00  2.1332E-004  
  647.50  2.2407E-004  
  648.00  2.4519E-004  
  648.50  3.0418E-004  
  649.00  4.1643E-004  
  649.50  6.2174E-004  
  650.00  8.3409E-004  
  650.50  9.4162E-004  
  651.00  8.6789E-004  
  651.50  7.1388E-004  
  652.00  5.8791E-004  
  652.50  5.3723E-004  
  653.00  4.9840E-004  
  653.50  4.6212E-004  
  654.00  3.8798E-004  
  654.50  3.3406E-004  
  655.00  2.7034E-004  
  655.50  2.5535E-004  
  656.00  2.3949E-004  
  656.50  2.5380E-004  
  657.00  2.7691E-004  
  657.50  2.9264E-004  
  658.00  2.8045E-004  
  658.50  2.3914E-004  
  659.00  1.7993E-004  
  659.50  1.5518E-004  
  660.00  1.3809E-004  
  660.50  1.7974E-004  
  661.00  2.2868E-004  
  661.50  3.5974E-004  
  662.00  5.0348E-004  
  662.50  6.0721E-004  
  663.00  5.5276E-004  
  663.50  4.2380E-004  
  664.00  2.9575E-004  
  664.50  2.6471E-004  
  665.00  2.3567E-004  
  665.50  2.0938E-004  
  666.00  1.6569E-004  
  666.50  1.4621E-004  
  667.00  1.0142E-004  
  667.50  6.7469E-005  
  668.00  5.9209E-005  
  668.50  8.4078E-005  
  669.00  1.3602E-004  
  669.50  1.4874E-004  
  670.00  1.4250E-004  
  670.50  1.0694E-004  
  671.00  9.0311E-005  
  671.50  1.0382E-004  
  672.00  1.3165E-004  
  672.50  1.3677E-004  
  673.00  1.3133E-004  
  673.50  1.0966E-004  
  674.00  8.2140E-005  
  674.50  4.8888E-005  
  675.00  2.3595E-005  
  675.50  4.2920E-005  
  676.00  6.0452E-005  
  676.50  8.6195E-005  
  677.00  8.0116E-005  
  677.50  4.5331E-005  
  678.00  3.6851E-005  
  678.50  3.7317E-005  
  679.00  5.4740E-005  
  679.50  6.6240E-005  
  680.00  1.0345E-004  
  680.50  1.5441E-004  
  681.00  1.6389E-004  
  681.50  1.3662E-004  
  682.00  1.1801E-004  
  682.50  9.2391E-005  
  683.00  9.9815E-005  
  683.50  1.0370E-004  
  684.00  1.3021E-004  
  684.50  1.5637E-004  
  685.00  1.6681E-004  
  685.50  1.7654E-004  
  686.00  1.9696E-004  
  686.50  2.9394E-004  
  687.00  4.3448E-004  
  687.50  5.2576E-004  
  688.00  4.8101E-004  
  688.50  3.6424E-004  
  689.00  2.5301E-004  
  689.50  1.5884E-004  
  690.00  7.3821E-005  
  690.50  4.7008E-005  
  691.00  4.7845E-005  
  691.50  4.6233E-005  
  692.00  4.7119E-005  
  692.50  1.2800E-004  
  693.00  2.6001E-004  
  693.50  3.7043E-004  
  694.00  3.6939E-004  
  694.50  3.0631E-004  
  695.00  1.8096E-004  
  695.50  5.5804E-005  
  696.00  3.8229E-006  
  696.50  3.3234E-005  
  697.00  5.8875E-005  
  697.50  3.6981E-005  
  698.00  0.0000E+000  
  698.50  3.7240E-006  
  699.00  7.8341E-006  
  699.50  3.3836E-006  
  700.00  0.0000E+000  
  700.50  0.0000E+000  
  701.00  3.3165E-007  
  701.50  3.4853E-005  
  702.00  8.3783E-005  
  702.50  1.0949E-004  
  703.00  1.0545E-004  
  703.50  1.2549E-004  
  704.00  1.9202E-004  
  704.50  2.8829E-004  
  705.00  4.4585E-004  
  705.50  6.7260E-004  
  706.00  9.8783E-004  
  706.50  1.2623E-003  
  707.00  1.4203E-003  
  707.50  1.4049E-003  
  708.00  1.3713E-003  
  708.50  1.4013E-003  
  709.00  1.3886E-003  
  709.50  1.2135E-003  
  710.00  8.9669E-004  
  710.50  6.6171E-004  
  711.00  6.2889E-004  
  711.50  8.3484E-004  
  712.00  1.0785E-003  
  712.50  1.1639E-003  
  713.00  9.7586E-004  
  713.50  6.3479E-004  
  714.00  3.8702E-004  
  714.50  2.3607E-004  
  715.00  1.3400E-004  
  715.50  3.2687E-005  
  716.00  0.0000E+000  
  716.50  3.6279E-006  
  717.00  0.0000E+000  
  717.50  0.0000E+000  
  718.00  0.0000E+000  
  718.50  0.0000E+000  
  719.00  0.0000E+000  
  719.50  0.0000E+000  
  720.00  0.0000E+000  
  720.50  0.0000E+000  
  721.00  0.0000E+000  
  721.50  0.0000E+000  
  722.00  0.0000E+000  
  722.50  0.0000E+000  
  723.00  0.0000E+000  
  723.50  0.0000E+000  
  724.00  0.0000E+000  
  724.50  4.6864E-006  
  725.00  1.1617E-005  
  725.50  0.0000E+000  
  726.00  0.0000E+000  
  726.50  0.0000E+000  
  727.00  0.0000E+000  
  727.50  0.0000E+000  
  728.00  0.0000E+000  
  728.50  0.0000E+000  
  729.00  0.0000E+000  
  729.50  6.0662E-006  
  730.00  1.8507E-005  
  730.50  1.2674E-007  
  731.00  0.0000E+000  
  731.50  0.0000E+000  
  732.00  0.0000E+000  
  732.50  0.0000E+000  
  733.00  0.0000E+000  
  733.50  0.0000E+000  
  734.00  0.0000E+000  
  734.50  0.0000E+000  
  735.00  0.0000E+000  
  735.50  0.0000E+000  
  736.00  0.0000E+000  
  736.50  0.0000E+000  
  737.00  0.0000E+000  
  737.50  1.9300E-008  
  738.00  3.9339E-006  
  738.50  1.6378E-005  
  739.00  1.4400E-005  
  739.50  0.0000E+000  
  740.00  0.0000E+000  
  740.50  0.0000E+000  
  741.00  0.0000E+000  
  741.50  0.0000E+000  
  742.00  0.0000E+000  
  742.50  6.9014E-007  
  743.00  1.9355E-005  
  743.50  1.7297E-005  
  744.00  0.0000E+000  
  744.50  0.0000E+000  
  745.00  0.0000E+000  
  745.50  0.0000E+000  
  746.00  0.0000E+000  
  746.50  0.0000E+000  
  747.00  0.0000E+000  
  747.50  0.0000E+000  
  748.00  0.0000E+000  
  748.50  0.0000E+000  
  749.00  0.0000E+000  
  749.50  0.0000E+000  
  750.00  2.5381E-005  
  750.50  3.7831E-005  
  751.00  3.5624E-005  
  751.50  4.5476E-005  
  752.00  5.7102E-005  
  752.50  0.0000E+000  
  753.00  0.0000E+000  
  753.50  0.0000E+000  
  754.00  0.0000E+000  
  754.50  0.0000E+000  
  755.00  0.0000E+000  
  755.50  0.0000E+000  
  756.00  0.0000E+000  
  756.50  0.0000E+000  
  757.00  0.0000E+000  
  757.50  0.0000E+000  
  758.00  0.0000E+000  
  758.50  0.0000E+000  
  759.00  0.0000E+000  
  759.50  0.0000E+000  
  760.00  0.0000E+000  
  760.50  0.0000E+000  
  761.00  0.0000E+000  
  761.50  2.8960E-005  
  762.00  7.5014E-005  
  762.50  2.3792E-004  
  763.00  5.0252E-004  
  763.50  6.6089E-004  
  764.00  5.7887E-004  
  764.50  2.5473E-004  
  765.00  1.6370E-005  
  765.50  0.0000E+000  
  766.00  0.0000E+000  
  766.50  0.0000E+000  
  767.00  0.0000E+000  
  767.50  0.0000E+000  
  768.00  0.0000E+000  
  768.50  0.0000E+000  
  769.00  0.0000E+000  
  769.50  0.0000E+000  
  770.00  0.0000E+000  
  770.50  0.0000E+000  
  771.00  0.0000E+000  
  771.50  0.0000E+000  
  772.00  0.0000E+000  
  772.50  5.8486E-006  
  773.00  0.0000E+000  
  773.50  0.0000E+000  
  774.00  0.0000E+000  
  774.50  0.0000E+000  
  775.00  0.0000E+000  
  775.50  0.0000E+000  
  776.00  0.0000E+000  
  776.50  0.0000E+000  
  777.00  0.0000E+000  
  777.50  0.0000E+000  
  778.00  0.0000E+000  
  778.50  0.0000E+000  
  779.00  0.0000E+000  
  779.50  0.0000E+000  
  780.00  0.0000E+000  
  780.50  0.0000E+000  
  781.00  0.0000E+000  
  781.50  0.0000E+000  
  782.00  0.0000E+000  
  782.50  0.0000E+000  
  783.00  0.0000E+000  
  783.50  0.0000E+000  
  784.00  0.0000E+000  
  784.50  0.0000E+000  
  785.00  0.0000E+000  
  785.50  0.0000E+000  
  786.00  0.0000E+000  
  786.50  0.0000E+000  
  787.00  0.0000E+000  
  787.50  0.0000E+000  
  788.00  0.0000E+000  
  788.50  0.0000E+000  
  789.00  0.0000E+000  
  789.50  0.0000E+000  
  790.00  0.0000E+000  
  790.50  0.0000E+000  
  791.00  0.0000E+000  
  791.50  0.0000E+000  
  792.00  0.0000E+000  
  792.50  0.0000E+000  
  793.00  0.0000E+000  
  793.50  0.0000E+000  
  794.00  0.0000E+000  
  794.50  0.0000E+000  
  795.00  0.0000E+000  
  795.50  0.0000E+000  
  796.00  0.0000E+000  
  796.50  0.0000E+000  
  797.00  0.0000E+000  
  797.50  0.0000E+000  
  798.00  0.0000E+000  
  798.50  0.0000E+000  
  799.00  0.0000E+000  
  799.50  0.0000E+000  
  800.00  0.0000E+000  
  800.50  1.3251E-004  
  801.00  2.3301E-004  
  801.50  2.4357E-004  
  802.00  1.5833E-004  
  802.50  1.0168E-004  
  803.00  6.0789E-005  
  803.50  0.0000E+000  
  804.00  0.0000E+000  
  804.50  0.0000E+000  
  805.00  0.0000E+000  
  805.50  0.0000E+000  
  806.00  0.0000E+000  
  806.50  0.0000E+000  
  807.00  0.0000E+000  
  807.50  0.0000E+000  
  808.00  0.0000E+000  
  808.50  0.0000E+000  
  809.00  0.0000E+000  
  809.50  0.0000E+000  
  810.00  9.8262E-005  
  810.50  4.8404E-004  
  811.00  9.4395E-004  
  811.50  1.2130E-003  
  812.00  1.0377E-003  
  812.50  5.4594E-004  
  813.00  8.8170E-005  
  813.50  0.0000E+000  
  814.00  0.0000E+000  
  814.50  0.0000E+000  
  815.00  0.0000E+000  
  815.50  0.0000E+000  
  816.00  0.0000E+000  
  816.50  0.0000E+000  
  817.00  0.0000E+000  
  817.50  0.0000E+000  
  818.00  0.0000E+000  
  818.50  0.0000E+000  
  819.00  0.0000E+000  
  819.50  0.0000E+000  
  820.00  0.0000E+000  
  820.50  0.0000E+000  
  821.00  0.0000E+000  
  821.50  0.0000E+000  
  822.00  0.0000E+000  
  822.50  0.0000E+000  
  823.00  0.0000E+000  
  823.50  0.0000E+000  
  824.00  0.0000E+000  
  824.50  0.0000E+000  
  825.00  0.0000E+000  
  825.50  0.0000E+000  
  826.00  0.0000E+000  
  826.50  0.0000E+000  
  827.00  0.0000E+000  
  827.50  0.0000E+000  
  828.00  0.0000E+000  
  828.50  0.0000E+000  
  829.00  0.0000E+000  
  829.50  0.0000E+000  
  830.00  0.0000E+000  
  830.50  0.0000E+000  
  831.00  0.0000E+000  
  831.50  0.0000E+000  
  832.00  0.0000E+000  
  832.50  0.0000E+000  
  833.00  0.0000E+000  
  833.50  0.0000E+000  
  834.00  0.0000E+000  
  834.50  0.0000E+000  
  835.00  0.0000E+000  
  835.50  0.0000E+000  
  836.00  0.0000E+000  
  836.50  0.0000E+000  
  837.00  0.0000E+000  
  837.50  0.0000E+000  
  838.00  0.0000E+000  
  838.50  0.0000E+000  
  839.00  0.0000E+000  
  839.50  0.0000E+000  
  840.00  0.0000E+000  
  840.50  8.3019E-007  
  841.00  0.0000E+000  
  841.50  9.3753E-005  
  842.00  3.9213E-004  
  842.50  3.4419E-004  
  843.00  0.0000E+000  
  843.50  0.0000E+000  
  844.00  0.0000E+000  
  844.50  0.0000E+000  
  845.00  0.0000E+000  
  845.50  0.0000E+000  
  846.00  0.0000E+000  
  846.50  0.0000E+000  
  847.00  0.0000E+000  
  847.50  0.0000E+000  
  848.00  0.0000E+000  
  848.50  0.0000E+000  
  849.00  0.0000E+000  
  849.50  0.0000E+000  
  850.00  0.0000E+000  
  850.50  0.0000E+000  
  851.00  0.0000E+000  
  851.50  0.0000E+000  
  852.00  0.0000E+000  
  852.50  0.0000E+000  
  853.00  0.0000E+000  
  853.50  0.0000E+000  
  854.00  0.0000E+000  
  854.50  0.0000E+000  
  855.00  0.0000E+000  
  855.50  0.0000E+000  
  856.00  0.0000E+000  
  856.50  0.0000E+000  
  857.00  0.0000E+000  
  857.50  0.0000E+000  
  858.00  0.0000E+000  
  858.50  0.0000E+000  
  859.00  0.0000E+000  
  859.50  0.0000E+000  
  860.00  0.0000E+000  
  860.50  0.0000E+000  
  861.00  0.0000E+000  
  861.50  0.0000E+000  
  862.00  0.0000E+000  
  862.50  0.0000E+000  
  863.00  0.0000E+000  
  863.50  0.0000E+000  
  864.00  0.0000E+000  
  864.50  0.0000E+000  
  865.00  0.0000E+000  
  865.50  0.0000E+000  
  866.00  0.0000E+000  
  866.50  0.0000E+000  
  867.00  0.0000E+000  
  867.50  0.0000E+000  
  868.00  0.0000E+000  
  868.50  0.0000E+000  
  869.00  0.0000E+000  
  869.50  0.0000E+000  
  870.00  0.0000E+000  
  870.50  0.0000E+000  
  871.00  0.0000E+000  
  871.50  0.0000E+000  
  872.00  0.0000E+000  
  872.50  0.0000E+000  
  873.00  0.0000E+000  
  873.50  0.0000E+000  
  874.00  0.0000E+000  
  874.50  0.0000E+000  
  875.00  0.0000E+000  
  875.50  0.0000E+000  
  876.00  0.0000E+000  
  876.50  0.0000E+000  
  877.00  0.0000E+000  
  877.50  0.0000E+000  
  878.00  0.0000E+000  
  878.50  0.0000E+000  
  879.00  0.0000E+000  
  879.50  0.0000E+000  
  880.00  0.0000E+000  
  880.50  0.0000E+000  
  881.00  0.0000E+000  
  881.50  0.0000E+000  
  882.00  0.0000E+000  
  882.50  0.0000E+000  
  883.00  0.0000E+000  
  883.50  0.0000E+000  
  884.00  0.0000E+000  
  884.50  0.0000E+000  
  885.00  0.0000E+000  
  885.50  0.0000E+000  
  886.00  0.0000E+000  
  886.50  0.0000E+000  
  887.00  0.0000E+000  
  887.50  0.0000E+000  
  888.00  0.0000E+000  
  888.50  0.0000E+000  
  889.00  0.0000E+000  
  889.50  0.0000E+000  
  890.00  0.0000E+000  
  890.50  0.0000E+000  
  891.00  0.0000E+000  
  891.50  0.0000E+000  
  892.00  0.0000E+000  
  892.50  0.0000E+000  
  893.00  0.0000E+000  
  893.50  0.0000E+000  
  894.00  0.0000E+000  
  894.50  0.0000E+000  
  895.00  0.0000E+000  
  895.50  0.0000E+000  
  896.00  0.0000E+000  
  896.50  0.0000E+000  
  897.00  0.0000E+000  
  897.50  0.0000E+000  
  898.00  0.0000E+000  
  898.50  0.0000E+000  
  899.00  0.0000E+000  
  899.50  1.3502E-006  
