
# From lspdd.org
# 
# Name: Halo Sylvania PAR38 Domestique
# Indice spectral Valeur 
# MSI 0.30 
# SLI 0.52 
# IPI 0.94 
# Pourcentage de bleu 12.9 
# Caractéristique Valeur 
# CCT calculée (K) 2723 
# CCT du fabricant (K) 2700 
# Tension (V) 120 
# Puissance (W) 45.0 
# Efficacité lumineuse (Lum/W) 11.5 
#
# Image: '/app/system/img_2s/2611/medium_image2.JPG?1413486670'
# Image: '/app/system/img_1s/2611/medium_image1.JPG?1413486674'
# 

  273.00  0.0000E+000  
  273.50  0.0000E+000  
  274.00  0.0000E+000  
  274.50  0.0000E+000  
  275.00  0.0000E+000  
  275.50  0.0000E+000  
  276.00  0.0000E+000  
  276.50  0.0000E+000  
  277.00  0.0000E+000  
  277.50  0.0000E+000  
  278.00  0.0000E+000  
  278.50  0.0000E+000  
  279.00  0.0000E+000  
  279.50  0.0000E+000  
  280.00  0.0000E+000  
  280.50  0.0000E+000  
  281.00  0.0000E+000  
  281.50  0.0000E+000  
  282.00  0.0000E+000  
  282.50  0.0000E+000  
  283.00  0.0000E+000  
  283.50  0.0000E+000  
  284.00  0.0000E+000  
  284.50  0.0000E+000  
  285.00  0.0000E+000  
  285.50  0.0000E+000  
  286.00  0.0000E+000  
  286.50  0.0000E+000  
  287.00  0.0000E+000  
  287.50  0.0000E+000  
  288.00  0.0000E+000  
  288.50  0.0000E+000  
  289.00  0.0000E+000  
  289.50  0.0000E+000  
  290.00  0.0000E+000  
  290.50  0.0000E+000  
  291.00  0.0000E+000  
  291.50  0.0000E+000  
  292.00  0.0000E+000  
  292.50  0.0000E+000  
  293.00  0.0000E+000  
  293.50  0.0000E+000  
  294.00  0.0000E+000  
  294.50  0.0000E+000  
  295.00  0.0000E+000  
  295.50  0.0000E+000  
  296.00  0.0000E+000  
  296.50  0.0000E+000  
  297.00  0.0000E+000  
  297.50  0.0000E+000  
  298.00  0.0000E+000  
  298.50  0.0000E+000  
  299.00  0.0000E+000  
  299.50  0.0000E+000  
  300.00  1.7907E-004  
  300.50  4.7324E-004  
  301.00  4.3085E-004  
  301.50  4.5345E-004  
  302.00  5.0122E-004  
  302.50  5.3738E-004  
  303.00  5.7645E-004  
  303.50  5.4438E-004  
  304.00  5.4417E-004  
  304.50  5.5342E-004  
  305.00  5.1391E-004  
  305.50  5.0774E-004  
  306.00  4.8590E-004  
  306.50  5.0187E-004  
  307.00  5.5933E-004  
  307.50  6.3903E-004  
  308.00  6.7231E-004  
  308.50  6.5722E-004  
  309.00  6.4118E-004  
  309.50  5.7082E-004  
  310.00  5.5383E-004  
  310.50  6.0549E-004  
  311.00  6.2442E-004  
  311.50  6.5022E-004  
  312.00  6.6585E-004  
  312.50  6.7340E-004  
  313.00  6.9611E-004  
  313.50  7.0883E-004  
  314.00  7.1514E-004  
  314.50  7.3206E-004  
  315.00  7.4780E-004  
  315.50  7.5902E-004  
  316.00  7.3628E-004  
  316.50  7.1988E-004  
  317.00  7.2285E-004  
  317.50  8.2626E-004  
  318.00  8.8589E-004  
  318.50  8.9348E-004  
  319.00  9.1062E-004  
  319.50  8.8485E-004  
  320.00  9.2563E-004  
  320.50  9.7481E-004  
  321.00  1.0642E-003  
  321.50  1.1042E-003  
  322.00  1.0780E-003  
  322.50  1.1204E-003  
  323.00  1.0773E-003  
  323.50  1.0279E-003  
  324.00  9.8797E-004  
  324.50  9.6589E-004  
  325.00  1.0089E-003  
  325.50  1.0854E-003  
  326.00  1.1541E-003  
  326.50  1.1509E-003  
  327.00  1.1343E-003  
  327.50  1.1483E-003  
  328.00  1.2051E-003  
  328.50  1.2821E-003  
  329.00  1.3190E-003  
  329.50  1.3382E-003  
  330.00  1.3241E-003  
  330.50  1.3192E-003  
  331.00  1.3589E-003  
  331.50  1.3972E-003  
  332.00  1.4497E-003  
  332.50  1.4972E-003  
  333.00  1.5147E-003  
  333.50  1.5049E-003  
  334.00  1.4727E-003  
  334.50  1.4331E-003  
  335.00  1.4285E-003  
  335.50  1.4729E-003  
  336.00  1.5316E-003  
  336.50  1.6512E-003  
  337.00  1.7773E-003  
  337.50  1.8887E-003  
  338.00  1.9485E-003  
  338.50  1.9409E-003  
  339.00  1.9659E-003  
  339.50  1.9384E-003  
  340.00  1.9761E-003  
  340.50  2.0169E-003  
  341.00  1.9960E-003  
  341.50  2.0705E-003  
  342.00  2.1028E-003  
  342.50  2.1427E-003  
  343.00  2.1935E-003  
  343.50  2.2157E-003  
  344.00  2.2726E-003  
  344.50  2.3537E-003  
  345.00  2.4148E-003  
  345.50  2.4568E-003  
  346.00  2.4931E-003  
  346.50  2.5233E-003  
  347.00  2.5639E-003  
  347.50  2.6082E-003  
  348.00  2.6622E-003  
  348.50  2.6942E-003  
  349.00  2.7504E-003  
  349.50  2.8430E-003  
  350.00  2.9042E-003  
  350.50  2.9666E-003  
  351.00  2.9694E-003  
  351.50  2.9547E-003  
  352.00  2.9681E-003  
  352.50  3.0041E-003  
  353.00  3.1153E-003  
  353.50  3.1597E-003  
  354.00  3.2141E-003  
  354.50  3.2386E-003  
  355.00  3.2571E-003  
  355.50  3.3967E-003  
  356.00  3.4867E-003  
  356.50  3.5795E-003  
  357.00  3.6501E-003  
  357.50  3.6619E-003  
  358.00  3.7021E-003  
  358.50  3.7606E-003  
  359.00  3.8060E-003  
  359.50  3.8205E-003  
  360.00  3.8434E-003  
  360.50  3.9295E-003  
  361.00  4.0106E-003  
  361.50  4.0967E-003  
  362.00  4.1553E-003  
  362.50  4.1656E-003  
  363.00  4.2433E-003  
  363.50  4.3291E-003  
  364.00  4.5315E-003  
  364.50  4.6955E-003  
  365.00  4.8196E-003  
  365.50  4.9584E-003  
  366.00  4.9012E-003  
  366.50  4.8760E-003  
  367.00  4.8606E-003  
  367.50  4.8099E-003  
  368.00  4.8975E-003  
  368.50  4.9968E-003  
  369.00  5.0868E-003  
  369.50  5.2220E-003  
  370.00  5.3500E-003  
  370.50  5.4901E-003  
  371.00  5.6069E-003  
  371.50  5.6506E-003  
  372.00  5.6963E-003  
  372.50  5.7535E-003  
  373.00  5.8419E-003  
  373.50  5.9691E-003  
  374.00  6.0410E-003  
  374.50  6.1562E-003  
  375.00  6.2886E-003  
  375.50  6.3688E-003  
  376.00  6.4266E-003  
  376.50  6.4655E-003  
  377.00  6.5361E-003  
  377.50  6.6551E-003  
  378.00  6.7313E-003  
  378.50  6.7733E-003  
  379.00  6.7852E-003  
  379.50  6.8758E-003  
  380.00  7.0454E-003  
  380.50  7.2540E-003  
  381.00  7.4344E-003  
  381.50  7.5535E-003  
  382.00  7.6845E-003  
  382.50  7.7705E-003  
  383.00  7.8297E-003  
  383.50  7.9263E-003  
  384.00  7.9813E-003  
  384.50  8.0920E-003  
  385.00  8.2221E-003  
  385.50  8.3187E-003  
  386.00  8.4057E-003  
  386.50  8.5209E-003  
  387.00  8.5956E-003  
  387.50  8.7073E-003  
  388.00  8.8363E-003  
  388.50  9.0004E-003  
  389.00  9.1531E-003  
  389.50  9.3083E-003  
  390.00  9.4261E-003  
  390.50  9.5556E-003  
  391.00  9.6192E-003  
  391.50  9.7413E-003  
  392.00  9.8353E-003  
  392.50  9.8881E-003  
  393.00  9.9547E-003  
  393.50  1.0043E-002  
  394.00  1.0148E-002  
  394.50  1.0308E-002  
  395.00  1.0468E-002  
  395.50  1.0586E-002  
  396.00  1.0684E-002  
  396.50  1.0761E-002  
  397.00  1.0840E-002  
  397.50  1.0953E-002  
  398.00  1.1164E-002  
  398.50  1.1344E-002  
  399.00  1.1477E-002  
  399.50  1.1600E-002  
  400.00  1.1676E-002  
  400.50  1.1756E-002  
  401.00  1.1912E-002  
  401.50  1.2059E-002  
  402.00  1.2196E-002  
  402.50  1.2352E-002  
  403.00  1.2458E-002  
  403.50  1.2589E-002  
  404.00  1.2783E-002  
  404.50  1.2944E-002  
  405.00  1.3092E-002  
  405.50  1.3274E-002  
  406.00  1.3453E-002  
  406.50  1.3583E-002  
  407.00  1.3727E-002  
  407.50  1.3819E-002  
  408.00  1.3916E-002  
  408.50  1.4077E-002  
  409.00  1.4270E-002  
  409.50  1.4456E-002  
  410.00  1.4636E-002  
  410.50  1.4779E-002  
  411.00  1.4920E-002  
  411.50  1.5107E-002  
  412.00  1.5225E-002  
  412.50  1.5378E-002  
  413.00  1.5492E-002  
  413.50  1.5652E-002  
  414.00  1.5840E-002  
  414.50  1.5969E-002  
  415.00  1.6127E-002  
  415.50  1.6344E-002  
  416.00  1.6522E-002  
  416.50  1.6697E-002  
  417.00  1.6888E-002  
  417.50  1.7048E-002  
  418.00  1.7258E-002  
  418.50  1.7434E-002  
  419.00  1.7566E-002  
  419.50  1.7709E-002  
  420.00  1.7897E-002  
  420.50  1.8075E-002  
  421.00  1.8273E-002  
  421.50  1.8358E-002  
  422.00  1.8502E-002  
  422.50  1.8738E-002  
  423.00  1.8999E-002  
  423.50  1.9306E-002  
  424.00  1.9525E-002  
  424.50  1.9611E-002  
  425.00  1.9823E-002  
  425.50  2.0029E-002  
  426.00  2.0299E-002  
  426.50  2.0549E-002  
  427.00  2.0765E-002  
  427.50  2.0951E-002  
  428.00  2.1213E-002  
  428.50  2.1366E-002  
  429.00  2.1579E-002  
  429.50  2.1778E-002  
  430.00  2.1885E-002  
  430.50  2.2098E-002  
  431.00  2.2270E-002  
  431.50  2.2508E-002  
  432.00  2.2840E-002  
  432.50  2.3099E-002  
  433.00  2.3273E-002  
  433.50  2.3354E-002  
  434.00  2.3416E-002  
  434.50  2.3588E-002  
  435.00  2.3864E-002  
  435.50  2.4215E-002  
  436.00  2.4478E-002  
  436.50  2.4710E-002  
  437.00  2.4969E-002  
  437.50  2.5294E-002  
  438.00  2.5643E-002  
  438.50  2.5855E-002  
  439.00  2.6022E-002  
  439.50  2.6159E-002  
  440.00  2.6362E-002  
  440.50  2.6678E-002  
  441.00  2.6974E-002  
  441.50  2.7269E-002  
  442.00  2.7454E-002  
  442.50  2.7571E-002  
  443.00  2.7722E-002  
  443.50  2.7841E-002  
  444.00  2.8027E-002  
  444.50  2.8260E-002  
  445.00  2.8541E-002  
  445.50  2.8854E-002  
  446.00  2.9255E-002  
  446.50  2.9523E-002  
  447.00  2.9855E-002  
  447.50  3.0155E-002  
  448.00  3.0387E-002  
  448.50  3.0566E-002  
  449.00  3.0771E-002  
  449.50  3.1009E-002  
  450.00  3.1313E-002  
  450.50  3.1644E-002  
  451.00  3.1921E-002  
  451.50  3.2134E-002  
  452.00  3.2310E-002  
  452.50  3.2525E-002  
  453.00  3.2724E-002  
  453.50  3.3004E-002  
  454.00  3.3325E-002  
  454.50  3.3568E-002  
  455.00  3.3939E-002  
  455.50  3.4190E-002  
  456.00  3.4461E-002  
  456.50  3.4826E-002  
  457.00  3.5117E-002  
  457.50  3.5479E-002  
  458.00  3.5774E-002  
  458.50  3.5983E-002  
  459.00  3.6215E-002  
  459.50  3.6382E-002  
  460.00  3.6655E-002  
  460.50  3.7032E-002  
  461.00  3.7569E-002  
  461.50  3.8002E-002  
  462.00  3.8196E-002  
  462.50  3.8409E-002  
  463.00  3.8619E-002  
  463.50  3.8963E-002  
  464.00  3.9343E-002  
  464.50  3.9618E-002  
  465.00  3.9980E-002  
  465.50  4.0362E-002  
  466.00  4.0699E-002  
  466.50  4.1033E-002  
  467.00  4.1261E-002  
  467.50  4.1467E-002  
  468.00  4.1691E-002  
  468.50  4.1974E-002  
  469.00  4.2341E-002  
  469.50  4.2611E-002  
  470.00  4.2879E-002  
  470.50  4.3110E-002  
  471.00  4.3415E-002  
  471.50  4.3733E-002  
  472.00  4.4072E-002  
  472.50  4.4427E-002  
  473.00  4.4917E-002  
  473.50  4.5385E-002  
  474.00  4.5767E-002  
  474.50  4.6128E-002  
  475.00  4.6440E-002  
  475.50  4.6773E-002  
  476.00  4.7056E-002  
  476.50  4.7320E-002  
  477.00  4.7555E-002  
  477.50  4.7847E-002  
  478.00  4.8176E-002  
  478.50  4.8648E-002  
  479.00  4.9137E-002  
  479.50  4.9623E-002  
  480.00  5.0048E-002  
  480.50  5.0285E-002  
  481.00  5.0547E-002  
  481.50  5.0750E-002  
  482.00  5.1043E-002  
  482.50  5.1440E-002  
  483.00  5.1776E-002  
  483.50  5.2154E-002  
  484.00  5.2546E-002  
  484.50  5.2860E-002  
  485.00  5.3195E-002  
  485.50  5.3397E-002  
  486.00  5.3680E-002  
  486.50  5.4066E-002  
  487.00  5.4450E-002  
  487.50  5.4859E-002  
  488.00  5.5325E-002  
  488.50  5.5765E-002  
  489.00  5.6249E-002  
  489.50  5.6630E-002  
  490.00  5.6920E-002  
  490.50  5.7265E-002  
  491.00  5.7669E-002  
  491.50  5.8006E-002  
  492.00  5.8404E-002  
  492.50  5.8800E-002  
  493.00  5.9321E-002  
  493.50  5.9936E-002  
  494.00  6.0403E-002  
  494.50  6.0830E-002  
  495.00  6.1123E-002  
  495.50  6.1453E-002  
  496.00  6.1817E-002  
  496.50  6.2307E-002  
  497.00  6.2887E-002  
  497.50  6.3467E-002  
  498.00  6.3897E-002  
  498.50  6.4274E-002  
  499.00  6.4660E-002  
  499.50  6.5168E-002  
  500.00  6.5704E-002  
  500.50  6.6111E-002  
  501.00  6.6485E-002  
  501.50  6.6868E-002  
  502.00  6.7339E-002  
  502.50  6.7816E-002  
  503.00  6.8329E-002  
  503.50  6.8913E-002  
  504.00  6.9624E-002  
  504.50  7.0275E-002  
  505.00  7.0824E-002  
  505.50  7.1282E-002  
  506.00  7.1748E-002  
  506.50  7.2255E-002  
  507.00  7.2768E-002  
  507.50  7.3332E-002  
  508.00  7.3830E-002  
  508.50  7.4442E-002  
  509.00  7.4976E-002  
  509.50  7.5526E-002  
  510.00  7.6093E-002  
  510.50  7.6639E-002  
  511.00  7.7249E-002  
  511.50  7.7859E-002  
  512.00  7.8475E-002  
  512.50  7.9112E-002  
  513.00  7.9759E-002  
  513.50  8.0302E-002  
  514.00  8.0816E-002  
  514.50  8.1427E-002  
  515.00  8.2016E-002  
  515.50  8.2645E-002  
  516.00  8.3219E-002  
  516.50  8.3789E-002  
  517.00  8.4475E-002  
  517.50  8.5144E-002  
  518.00  8.5848E-002  
  518.50  8.6589E-002  
  519.00  8.7296E-002  
  519.50  8.7861E-002  
  520.00  8.8410E-002  
  520.50  8.8874E-002  
  521.00  8.9340E-002  
  521.50  8.9917E-002  
  522.00  9.0518E-002  
  522.50  9.1271E-002  
  523.00  9.1987E-002  
  523.50  9.2676E-002  
  524.00  9.3351E-002  
  524.50  9.3975E-002  
  525.00  9.4530E-002  
  525.50  9.5039E-002  
  526.00  9.5635E-002  
  526.50  9.6353E-002  
  527.00  9.7132E-002  
  527.50  9.7868E-002  
  528.00  9.8406E-002  
  528.50  9.8971E-002  
  529.00  9.9517E-002  
  529.50  1.0015E-001  
  530.00  1.0085E-001  
  530.50  1.0152E-001  
  531.00  1.0222E-001  
  531.50  1.0286E-001  
  532.00  1.0352E-001  
  532.50  1.0413E-001  
  533.00  1.0481E-001  
  533.50  1.0543E-001  
  534.00  1.0595E-001  
  534.50  1.0644E-001  
  535.00  1.0689E-001  
  535.50  1.0748E-001  
  536.00  1.0817E-001  
  536.50  1.0894E-001  
  537.00  1.0963E-001  
  537.50  1.1026E-001  
  538.00  1.1085E-001  
  538.50  1.1139E-001  
  539.00  1.1192E-001  
  539.50  1.1241E-001  
  540.00  1.1299E-001  
  540.50  1.1368E-001  
  541.00  1.1436E-001  
  541.50  1.1500E-001  
  542.00  1.1561E-001  
  542.50  1.1618E-001  
  543.00  1.1674E-001  
  543.50  1.1739E-001  
  544.00  1.1800E-001  
  544.50  1.1863E-001  
  545.00  1.1913E-001  
  545.50  1.1953E-001  
  546.00  1.1992E-001  
  546.50  1.2043E-001  
  547.00  1.2101E-001  
  547.50  1.2165E-001  
  548.00  1.2222E-001  
  548.50  1.2283E-001  
  549.00  1.2348E-001  
  549.50  1.2405E-001  
  550.00  1.2458E-001  
  550.50  1.2515E-001  
  551.00  1.2568E-001  
  551.50  1.2628E-001  
  552.00  1.2685E-001  
  552.50  1.2745E-001  
  553.00  1.2806E-001  
  553.50  1.2866E-001  
  554.00  1.2919E-001  
  554.50  1.2968E-001  
  555.00  1.3008E-001  
  555.50  1.3056E-001  
  556.00  1.3110E-001  
  556.50  1.3177E-001  
  557.00  1.3240E-001  
  557.50  1.3301E-001  
  558.00  1.3359E-001  
  558.50  1.3420E-001  
  559.00  1.3480E-001  
  559.50  1.3536E-001  
  560.00  1.3584E-001  
  560.50  1.3626E-001  
  561.00  1.3671E-001  
  561.50  1.3713E-001  
  562.00  1.3765E-001  
  562.50  1.3817E-001  
  563.00  1.3865E-001  
  563.50  1.3912E-001  
  564.00  1.3960E-001  
  564.50  1.4013E-001  
  565.00  1.4064E-001  
  565.50  1.4111E-001  
  566.00  1.4163E-001  
  566.50  1.4221E-001  
  567.00  1.4270E-001  
  567.50  1.4314E-001  
  568.00  1.4359E-001  
  568.50  1.4409E-001  
  569.00  1.4455E-001  
  569.50  1.4493E-001  
  570.00  1.4534E-001  
  570.50  1.4585E-001  
  571.00  1.4641E-001  
  571.50  1.4688E-001  
  572.00  1.4731E-001  
  572.50  1.4777E-001  
  573.00  1.4831E-001  
  573.50  1.4881E-001  
  574.00  1.4928E-001  
  574.50  1.4980E-001  
  575.00  1.5042E-001  
  575.50  1.5101E-001  
  576.00  1.5151E-001  
  576.50  1.5190E-001  
  577.00  1.5233E-001  
  577.50  1.5276E-001  
  578.00  1.5325E-001  
  578.50  1.5377E-001  
  579.00  1.5426E-001  
  579.50  1.5474E-001  
  580.00  1.5522E-001  
  580.50  1.5576E-001  
  581.00  1.5620E-001  
  581.50  1.5663E-001  
  582.00  1.5700E-001  
  582.50  1.5742E-001  
  583.00  1.5786E-001  
  583.50  1.5839E-001  
  584.00  1.5893E-001  
  584.50  1.5946E-001  
  585.00  1.5984E-001  
  585.50  1.6021E-001  
  586.00  1.6059E-001  
  586.50  1.6107E-001  
  587.00  1.6153E-001  
  587.50  1.6199E-001  
  588.00  1.6246E-001  
  588.50  1.6300E-001  
  589.00  1.6354E-001  
  589.50  1.6408E-001  
  590.00  1.6458E-001  
  590.50  1.6510E-001  
  591.00  1.6562E-001  
  591.50  1.6608E-001  
  592.00  1.6642E-001  
  592.50  1.6667E-001  
  593.00  1.6700E-001  
  593.50  1.6743E-001  
  594.00  1.6801E-001  
  594.50  1.6853E-001  
  595.00  1.6903E-001  
  595.50  1.6940E-001  
  596.00  1.6981E-001  
  596.50  1.7013E-001  
  597.00  1.7054E-001  
  597.50  1.7091E-001  
  598.00  1.7129E-001  
  598.50  1.7165E-001  
  599.00  1.7206E-001  
  599.50  1.7257E-001  
  600.00  1.7311E-001  
  600.50  1.7360E-001  
  601.00  1.7404E-001  
  601.50  1.7439E-001  
  602.00  1.7474E-001  
  602.50  1.7513E-001  
  603.00  1.7552E-001  
  603.50  1.7596E-001  
  604.00  1.7638E-001  
  604.50  1.7691E-001  
  605.00  1.7734E-001  
  605.50  1.7773E-001  
  606.00  1.7804E-001  
  606.50  1.7848E-001  
  607.00  1.7903E-001  
  607.50  1.7953E-001  
  608.00  1.8003E-001  
  608.50  1.8049E-001  
  609.00  1.8097E-001  
  609.50  1.8148E-001  
  610.00  1.8198E-001  
  610.50  1.8244E-001  
  611.00  1.8283E-001  
  611.50  1.8318E-001  
  612.00  1.8362E-001  
  612.50  1.8406E-001  
  613.00  1.8450E-001  
  613.50  1.8493E-001  
  614.00  1.8540E-001  
  614.50  1.8593E-001  
  615.00  1.8650E-001  
  615.50  1.8694E-001  
  616.00  1.8728E-001  
  616.50  1.8748E-001  
  617.00  1.8788E-001  
  617.50  1.8827E-001  
  618.00  1.8880E-001  
  618.50  1.8919E-001  
  619.00  1.8955E-001  
  619.50  1.8980E-001  
  620.00  1.9018E-001  
  620.50  1.9061E-001  
  621.00  1.9133E-001  
  621.50  1.9197E-001  
  622.00  1.9256E-001  
  622.50  1.9290E-001  
  623.00  1.9309E-001  
  623.50  1.9342E-001  
  624.00  1.9381E-001  
  624.50  1.9432E-001  
  625.00  1.9472E-001  
  625.50  1.9519E-001  
  626.00  1.9553E-001  
  626.50  1.9591E-001  
  627.00  1.9628E-001  
  627.50  1.9666E-001  
  628.00  1.9706E-001  
  628.50  1.9740E-001  
  629.00  1.9791E-001  
  629.50  1.9834E-001  
  630.00  1.9886E-001  
  630.50  1.9928E-001  
  631.00  1.9973E-001  
  631.50  2.0013E-001  
  632.00  2.0031E-001  
  632.50  2.0050E-001  
  633.00  2.0075E-001  
  633.50  2.0120E-001  
  634.00  2.0171E-001  
  634.50  2.0228E-001  
  635.00  2.0282E-001  
  635.50  2.0329E-001  
  636.00  2.0360E-001  
  636.50  2.0385E-001  
  637.00  2.0427E-001  
  637.50  2.0464E-001  
  638.00  2.0504E-001  
  638.50  2.0542E-001  
  639.00  2.0576E-001  
  639.50  2.0614E-001  
  640.00  2.0651E-001  
  640.50  2.0693E-001  
  641.00  2.0729E-001  
  641.50  2.0762E-001  
  642.00  2.0801E-001  
  642.50  2.0850E-001  
  643.00  2.0889E-001  
  643.50  2.0913E-001  
  644.00  2.0943E-001  
  644.50  2.0989E-001  
  645.00  2.1041E-001  
  645.50  2.1082E-001  
  646.00  2.1098E-001  
  646.50  2.1108E-001  
  647.00  2.1139E-001  
  647.50  2.1178E-001  
  648.00  2.1235E-001  
  648.50  2.1285E-001  
  649.00  2.1341E-001  
  649.50  2.1381E-001  
  650.00  2.1406E-001  
  650.50  2.1430E-001  
  651.00  2.1463E-001  
  651.50  2.1493E-001  
  652.00  2.1513E-001  
  652.50  2.1561E-001  
  653.00  2.1609E-001  
  653.50  2.1653E-001  
  654.00  2.1686E-001  
  654.50  2.1721E-001  
  655.00  2.1773E-001  
  655.50  2.1808E-001  
  656.00  2.1846E-001  
  656.50  2.1877E-001  
  657.00  2.1900E-001  
  657.50  2.1935E-001  
  658.00  2.1983E-001  
  658.50  2.2034E-001  
  659.00  2.2077E-001  
  659.50  2.2115E-001  
  660.00  2.2146E-001  
  660.50  2.2192E-001  
  661.00  2.2230E-001  
  661.50  2.2270E-001  
  662.00  2.2273E-001  
  662.50  2.2291E-001  
  663.00  2.2334E-001  
  663.50  2.2389E-001  
  664.00  2.2418E-001  
  664.50  2.2431E-001  
  665.00  2.2446E-001  
  665.50  2.2478E-001  
  666.00  2.2501E-001  
  666.50  2.2541E-001  
  667.00  2.2583E-001  
  667.50  2.2633E-001  
  668.00  2.2671E-001  
  668.50  2.2720E-001  
  669.00  2.2754E-001  
  669.50  2.2781E-001  
  670.00  2.2787E-001  
  670.50  2.2823E-001  
  671.00  2.2864E-001  
  671.50  2.2894E-001  
  672.00  2.2915E-001  
  672.50  2.2947E-001  
  673.00  2.2988E-001  
  673.50  2.3017E-001  
  674.00  2.3052E-001  
  674.50  2.3108E-001  
  675.00  2.3134E-001  
  675.50  2.3142E-001  
  676.00  2.3142E-001  
  676.50  2.3184E-001  
  677.00  2.3216E-001  
  677.50  2.3267E-001  
  678.00  2.3304E-001  
  678.50  2.3357E-001  
  679.00  2.3390E-001  
  679.50  2.3431E-001  
  680.00  2.3456E-001  
  680.50  2.3488E-001  
  681.00  2.3489E-001  
  681.50  2.3496E-001  
  682.00  2.3544E-001  
  682.50  2.3617E-001  
  683.00  2.3673E-001  
  683.50  2.3672E-001  
  684.00  2.3668E-001  
  684.50  2.3681E-001  
  685.00  2.3732E-001  
  685.50  2.3811E-001  
  686.00  2.3868E-001  
  686.50  2.3903E-001  
  687.00  2.3944E-001  
  687.50  2.3981E-001  
  688.00  2.3980E-001  
  688.50  2.3987E-001  
  689.00  2.3998E-001  
  689.50  2.4043E-001  
  690.00  2.4076E-001  
  690.50  2.4111E-001  
  691.00  2.4150E-001  
  691.50  2.4221E-001  
  692.00  2.4282E-001  
  692.50  2.4300E-001  
  693.00  2.4290E-001  
  693.50  2.4337E-001  
  694.00  2.4398E-001  
  694.50  2.4449E-001  
  695.00  2.4476E-001  
  695.50  2.4481E-001  
  696.00  2.4471E-001  
  696.50  2.4481E-001  
  697.00  2.4542E-001  
  697.50  2.4588E-001  
  698.00  2.4573E-001  
  698.50  2.4566E-001  
  699.00  2.4574E-001  
  699.50  2.4590E-001  
  700.00  2.4620E-001  
  700.50  2.4679E-001  
  701.00  2.4774E-001  
  701.50  2.4804E-001  
  702.00  2.4822E-001  
  702.50  2.4868E-001  
  703.00  2.4945E-001  
  703.50  2.5015E-001  
  704.00  2.5049E-001  
  704.50  2.5084E-001  
  705.00  2.5073E-001  
  705.50  2.5023E-001  
  706.00  2.5016E-001  
  706.50  2.5095E-001  
  707.00  2.5155E-001  
  707.50  2.5185E-001  
  708.00  2.5184E-001  
  708.50  2.5232E-001  
  709.00  2.5245E-001  
  709.50  2.5253E-001  
  710.00  2.5239E-001  
  710.50  2.5220E-001  
  711.00  2.5222E-001  
  711.50  2.5234E-001  
  712.00  2.5280E-001  
  712.50  2.5362E-001  
  713.00  2.5451E-001  
  713.50  2.5497E-001  
  714.00  2.5514E-001  
  714.50  2.5524E-001  
  715.00  2.5542E-001  
  715.50  2.5562E-001  
  716.00  2.5602E-001  
  716.50  2.5636E-001  
  717.00  2.5645E-001  
  717.50  2.5657E-001  
  718.00  2.5695E-001  
  718.50  2.5726E-001  
  719.00  2.5777E-001  
  719.50  2.5835E-001  
  720.00  2.5873E-001  
  720.50  2.5899E-001  
  721.00  2.5876E-001  
  721.50  2.5836E-001  
  722.00  2.5811E-001  
  722.50  2.5875E-001  
  723.00  2.5956E-001  
  723.50  2.5972E-001  
  724.00  2.5965E-001  
  724.50  2.5984E-001  
  725.00  2.6067E-001  
  725.50  2.6148E-001  
  726.00  2.6159E-001  
  726.50  2.6119E-001  
  727.00  2.6102E-001  
  727.50  2.6115E-001  
  728.00  2.6129E-001  
  728.50  2.6176E-001  
  729.00  2.6280E-001  
  729.50  2.6364E-001  
  730.00  2.6383E-001  
  730.50  2.6398E-001  
  731.00  2.6418E-001  
  731.50  2.6446E-001  
  732.00  2.6456E-001  
  732.50  2.6445E-001  
  733.00  2.6469E-001  
  733.50  2.6493E-001  
  734.00  2.6566E-001  
  734.50  2.6626E-001  
  735.00  2.6713E-001  
  735.50  2.6731E-001  
  736.00  2.6680E-001  
  736.50  2.6614E-001  
  737.00  2.6575E-001  
  737.50  2.6613E-001  
  738.00  2.6670E-001  
  738.50  2.6726E-001  
  739.00  2.6734E-001  
  739.50  2.6734E-001  
  740.00  2.6758E-001  
  740.50  2.6783E-001  
  741.00  2.6836E-001  
  741.50  2.6892E-001  
  742.00  2.6925E-001  
  742.50  2.6916E-001  
  743.00  2.6972E-001  
  743.50  2.7051E-001  
  744.00  2.7085E-001  
  744.50  2.7014E-001  
  745.00  2.7002E-001  
  745.50  2.7035E-001  
  746.00  2.7099E-001  
  746.50  2.7055E-001  
  747.00  2.6998E-001  
  747.50  2.6980E-001  
  748.00  2.7038E-001  
  748.50  2.7112E-001  
  749.00  2.7184E-001  
  749.50  2.7242E-001  
  750.00  2.7304E-001  
  750.50  2.7298E-001  
  751.00  2.7266E-001  
  751.50  2.7227E-001  
  752.00  2.7142E-001  
  752.50  2.7119E-001  
  753.00  2.7152E-001  
  753.50  2.7233E-001  
  754.00  2.7236E-001  
  754.50  2.7236E-001  
  755.00  2.7230E-001  
  755.50  2.7248E-001  
  756.00  2.7265E-001  
  756.50  2.7267E-001  
  757.00  2.7256E-001  
  757.50  2.7219E-001  
  758.00  2.7256E-001  
  758.50  2.7301E-001  
  759.00  2.7373E-001  
  759.50  2.7384E-001  
  760.00  2.7399E-001  
  760.50  2.7378E-001  
  761.00  2.7405E-001  
  761.50  2.7399E-001  
  762.00  2.7443E-001  
  762.50  2.7490E-001  
  763.00  2.7470E-001  
  763.50  2.7475E-001  
  764.00  2.7470E-001  
  764.50  2.7523E-001  
  765.00  2.7533E-001  
  765.50  2.7526E-001  
  766.00  2.7516E-001  
  766.50  2.7587E-001  
  767.00  2.7584E-001  
  767.50  2.7568E-001  
  768.00  2.7623E-001  
  768.50  2.7703E-001  
  769.00  2.7713E-001  
  769.50  2.7652E-001  
  770.00  2.7671E-001  
  770.50  2.7694E-001  
  771.00  2.7659E-001  
  771.50  2.7599E-001  
  772.00  2.7630E-001  
  772.50  2.7658E-001  
  773.00  2.7655E-001  
  773.50  2.7602E-001  
  774.00  2.7598E-001  
  774.50  2.7683E-001  
  775.00  2.7738E-001  
  775.50  2.7784E-001  
  776.00  2.7805E-001  
  776.50  2.7837E-001  
  777.00  2.7791E-001  
  777.50  2.7808E-001  
  778.00  2.7770E-001  
  778.50  2.7813E-001  
  779.00  2.7783E-001  
  779.50  2.7791E-001  
  780.00  2.7772E-001  
  780.50  2.7834E-001  
  781.00  2.7874E-001  
  781.50  2.7957E-001  
  782.00  2.7997E-001  
  782.50  2.8058E-001  
  783.00  2.8011E-001  
  783.50  2.8019E-001  
  784.00  2.8053E-001  
  784.50  2.8172E-001  
  785.00  2.8194E-001  
  785.50  2.8173E-001  
  786.00  2.8100E-001  
  786.50  2.8098E-001  
  787.00  2.8066E-001  
  787.50  2.8055E-001  
  788.00  2.8033E-001  
  788.50  2.8034E-001  
  789.00  2.8075E-001  
  789.50  2.8180E-001  
  790.00  2.8245E-001  
  790.50  2.8190E-001  
  791.00  2.8175E-001  
  791.50  2.8212E-001  
  792.00  2.8269E-001  
  792.50  2.8262E-001  
  793.00  2.8320E-001  
  793.50  2.8359E-001  
  794.00  2.8398E-001  
  794.50  2.8371E-001  
  795.00  2.8351E-001  
  795.50  2.8287E-001  
  796.00  2.8303E-001  
  796.50  2.8371E-001  
  797.00  2.8425E-001  
  797.50  2.8439E-001  
  798.00  2.8428E-001  
  798.50  2.8482E-001  
  799.00  2.8550E-001  
  799.50  2.8661E-001  
  800.00  2.8681E-001  
  800.50  2.8719E-001  
  801.00  2.8691E-001  
  801.50  2.8644E-001  
  802.00  2.8668E-001  
  802.50  2.8723E-001  
  803.00  2.8707E-001  
  803.50  2.8607E-001  
  804.00  2.8513E-001  
  804.50  2.8502E-001  
  805.00  2.8655E-001  
  805.50  2.8852E-001  
  806.00  2.8884E-001  
  806.50  2.8780E-001  
  807.00  2.8694E-001  
  807.50  2.8700E-001  
  808.00  2.8792E-001  
  808.50  2.8851E-001  
  809.00  2.8926E-001  
  809.50  2.8904E-001  
  810.00  2.8902E-001  
  810.50  2.8931E-001  
  811.00  2.8940E-001  
  811.50  2.8935E-001  
  812.00  2.8934E-001  
  812.50  2.9002E-001  
  813.00  2.9129E-001  
  813.50  2.9215E-001  
  814.00  2.9173E-001  
  814.50  2.9123E-001  
  815.00  2.9110E-001  
  815.50  2.9119E-001  
  816.00  2.9127E-001  
  816.50  2.9234E-001  
  817.00  2.9283E-001  
  817.50  2.9225E-001  
  818.00  2.9139E-001  
  818.50  2.9190E-001  
  819.00  2.9276E-001  
  819.50  2.9192E-001  
  820.00  2.9215E-001  
  820.50  2.9162E-001  
  821.00  2.9195E-001  
  821.50  2.9110E-001  
  822.00  2.9170E-001  
  822.50  2.9339E-001  
  823.00  2.9451E-001  
  823.50  2.9353E-001  
  824.00  2.9304E-001  
  824.50  2.9331E-001  
  825.00  2.9353E-001  
  825.50  2.9342E-001  
  826.00  2.9392E-001  
  826.50  2.9419E-001  
  827.00  2.9361E-001  
  827.50  2.9405E-001  
  828.00  2.9421E-001  
  828.50  2.9422E-001  
  829.00  2.9445E-001  
  829.50  2.9491E-001  
  830.00  2.9503E-001  
  830.50  2.9411E-001  
  831.00  2.9346E-001  
  831.50  2.9384E-001  
  832.00  2.9474E-001  
  832.50  2.9593E-001  
  833.00  2.9704E-001  
  833.50  2.9631E-001  
  834.00  2.9562E-001  
  834.50  2.9680E-001  
  835.00  2.9737E-001  
  835.50  2.9706E-001  
  836.00  2.9680E-001  
  836.50  2.9616E-001  
  837.00  2.9610E-001  
  837.50  2.9713E-001  
  838.00  2.9840E-001  
  838.50  2.9940E-001  
  839.00  2.9937E-001  
  839.50  3.0014E-001  
  840.00  3.0046E-001  
  840.50  2.9864E-001  
  841.00  2.9721E-001  
  841.50  2.9741E-001  
  842.00  2.9757E-001  
  842.50  2.9695E-001  
  843.00  2.9694E-001  
  843.50  2.9881E-001  
  844.00  2.9996E-001  
  844.50  3.0062E-001  
  845.00  3.0117E-001  
  845.50  3.0180E-001  
  846.00  3.0070E-001  
  846.50  3.0072E-001  
  847.00  3.0041E-001  
  847.50  3.0031E-001  
  848.00  3.0076E-001  
  848.50  3.0274E-001  
  849.00  3.0337E-001  
  849.50  3.0305E-001  
  850.00  3.0174E-001  
  850.50  3.0302E-001  
  851.00  3.0469E-001  
  851.50  3.0373E-001  
  852.00  3.0269E-001  
  852.50  3.0165E-001  
  853.00  3.0238E-001  
  853.50  3.0386E-001  
  854.00  3.0425E-001  
  854.50  3.0271E-001  
  855.00  3.0315E-001  
  855.50  3.0489E-001  
  856.00  3.0607E-001  
  856.50  3.0553E-001  
  857.00  3.0453E-001  
  857.50  3.0458E-001  
  858.00  3.0662E-001  
  858.50  3.0789E-001  
  859.00  3.0806E-001  
  859.50  3.0785E-001  
  860.00  3.0864E-001  
  860.50  3.0934E-001  
  861.00  3.0894E-001  
  861.50  3.0819E-001  
  862.00  3.0837E-001  
  862.50  3.0961E-001  
  863.00  3.1153E-001  
  863.50  3.1196E-001  
  864.00  3.0972E-001  
  864.50  3.0914E-001  
  865.00  3.1072E-001  
  865.50  3.1228E-001  
  866.00  3.1422E-001  
  866.50  3.1424E-001  
  867.00  3.1377E-001  
  867.50  3.1274E-001  
  868.00  3.1218E-001  
  868.50  3.1278E-001  
  869.00  3.1272E-001  
  869.50  3.1384E-001  
  870.00  3.1460E-001  
  870.50  3.1349E-001  
  871.00  3.1215E-001  
  871.50  3.1475E-001  
  872.00  3.1694E-001  
  872.50  3.1669E-001  
  873.00  3.1529E-001  
  873.50  3.1506E-001  
  874.00  3.1582E-001  
  874.50  3.1584E-001  
  875.00  3.1645E-001  
  875.50  3.1891E-001  
  876.00  3.2023E-001  
  876.50  3.1918E-001  
  877.00  3.1932E-001  
  877.50  3.2157E-001  
  878.00  3.2295E-001  
  878.50  3.2345E-001  
  879.00  3.2376E-001  
  879.50  3.2165E-001  
  880.00  3.1745E-001  
  880.50  3.1779E-001  
  881.00  3.2164E-001  
  881.50  3.2231E-001  
  882.00  3.2006E-001  
  882.50  3.1853E-001  
  883.00  3.2058E-001  
  883.50  3.2225E-001  
  884.00  3.2359E-001  
  884.50  3.2504E-001  
  885.00  3.2456E-001  
  885.50  3.2404E-001  
  886.00  3.2694E-001  
  886.50  3.2794E-001  
  887.00  3.2722E-001  
  887.50  3.2718E-001  
  888.00  3.2685E-001  
  888.50  3.2628E-001  
  889.00  3.2684E-001  
  889.50  3.2644E-001  
  890.00  3.2559E-001  
  890.50  3.2533E-001  
  891.00  3.2496E-001  
  891.50  3.2491E-001  
  892.00  3.2670E-001  
  892.50  3.2791E-001  
  893.00  3.2689E-001  
  893.50  3.2531E-001  
  894.00  3.2465E-001  
  894.50  3.2554E-001  
  895.00  3.2479E-001  
  895.50  3.2393E-001  
  896.00  3.2449E-001  
  896.50  3.2703E-001  
  897.00  3.2741E-001  
  897.50  3.2702E-001  
  898.00  3.2792E-001  
  898.50  3.2936E-001  
  899.00  3.2900E-001  
  899.50  6.5015E-003  
