
# From lspdd.org
# 
# Name: DEL Sylvania BR30 Domestique
# Indice spectral Valeur 
# MSI 0.25 
# SLI 0.46 
# IPI 0.66 
# Pourcentage de bleu 16.1 
# Caractéristique Valeur 
# CCT calculée (K) 2660 
# CCT du fabricant (K) 2665 
# Tension (V) 120 
# Puissance (W) 15.0 
# Efficacité lumineuse (Lum/W) 51.3 
#
# Image: '/app/system/img_2s/2613/medium_image2.jpg?1413486688'
# Image: '/app/system/img_1s/2613/medium_image1.jpg?1413486688'
# 

  273.00  0.0000E+000  
  273.50  0.0000E+000  
  274.00  0.0000E+000  
  274.50  0.0000E+000  
  275.00  0.0000E+000  
  275.50  0.0000E+000  
  276.00  0.0000E+000  
  276.50  0.0000E+000  
  277.00  0.0000E+000  
  277.50  0.0000E+000  
  278.00  0.0000E+000  
  278.50  0.0000E+000  
  279.00  0.0000E+000  
  279.50  0.0000E+000  
  280.00  0.0000E+000  
  280.50  0.0000E+000  
  281.00  0.0000E+000  
  281.50  0.0000E+000  
  282.00  0.0000E+000  
  282.50  0.0000E+000  
  283.00  0.0000E+000  
  283.50  0.0000E+000  
  284.00  0.0000E+000  
  284.50  0.0000E+000  
  285.00  0.0000E+000  
  285.50  0.0000E+000  
  286.00  0.0000E+000  
  286.50  0.0000E+000  
  287.00  0.0000E+000  
  287.50  0.0000E+000  
  288.00  0.0000E+000  
  288.50  0.0000E+000  
  289.00  0.0000E+000  
  289.50  0.0000E+000  
  290.00  0.0000E+000  
  290.50  0.0000E+000  
  291.00  0.0000E+000  
  291.50  0.0000E+000  
  292.00  0.0000E+000  
  292.50  0.0000E+000  
  293.00  0.0000E+000  
  293.50  0.0000E+000  
  294.00  0.0000E+000  
  294.50  0.0000E+000  
  295.00  0.0000E+000  
  295.50  0.0000E+000  
  296.00  0.0000E+000  
  296.50  0.0000E+000  
  297.00  0.0000E+000  
  297.50  0.0000E+000  
  298.00  0.0000E+000  
  298.50  0.0000E+000  
  299.00  0.0000E+000  
  299.50  0.0000E+000  
  300.00  3.2048E-005  
  300.50  7.4341E-005  
  301.00  6.5446E-005  
  301.50  1.0186E-004  
  302.00  1.6173E-004  
  302.50  1.6530E-004  
  303.00  1.5637E-004  
  303.50  1.2410E-004  
  304.00  1.1712E-004  
  304.50  1.4506E-004  
  305.00  1.2443E-004  
  305.50  1.2849E-004  
  306.00  1.4655E-004  
  306.50  2.0017E-004  
  307.00  2.3911E-004  
  307.50  2.4982E-004  
  308.00  2.0667E-004  
  308.50  1.9512E-004  
  309.00  2.6306E-004  
  309.50  2.9276E-004  
  310.00  3.0335E-004  
  310.50  2.7548E-004  
  311.00  1.8846E-004  
  311.50  1.1725E-004  
  312.00  8.8705E-005  
  312.50  1.0029E-004  
  313.00  1.6765E-004  
  313.50  1.8422E-004  
  314.00  1.8658E-004  
  314.50  1.6234E-004  
  315.00  1.5504E-004  
  315.50  1.7422E-004  
  316.00  1.7499E-004  
  316.50  1.5691E-004  
  317.00  1.4913E-004  
  317.50  2.2426E-004  
  318.00  2.9191E-004  
  318.50  3.3539E-004  
  319.00  3.2340E-004  
  319.50  2.7941E-004  
  320.00  2.3618E-004  
  320.50  2.4487E-004  
  321.00  2.9369E-004  
  321.50  3.4527E-004  
  322.00  3.3216E-004  
  322.50  3.1378E-004  
  323.00  2.8021E-004  
  323.50  2.4638E-004  
  324.00  2.2851E-004  
  324.50  2.1237E-004  
  325.00  1.9312E-004  
  325.50  2.1201E-004  
  326.00  2.6679E-004  
  326.50  3.0546E-004  
  327.00  2.9111E-004  
  327.50  2.2824E-004  
  328.00  1.8244E-004  
  328.50  1.3806E-004  
  329.00  1.3460E-004  
  329.50  1.1503E-004  
  330.00  7.2140E-005  
  330.50  2.3992E-005  
  331.00  2.0736E-005  
  331.50  5.0728E-005  
  332.00  9.0628E-005  
  332.50  1.6116E-004  
  333.00  1.8638E-004  
  333.50  1.9193E-004  
  334.00  1.9432E-004  
  334.50  1.6671E-004  
  335.00  1.8563E-004  
  335.50  2.1112E-004  
  336.00  2.5098E-004  
  336.50  2.7744E-004  
  337.00  2.8251E-004  
  337.50  2.7563E-004  
  338.00  2.3476E-004  
  338.50  1.7571E-004  
  339.00  1.5953E-004  
  339.50  1.1332E-004  
  340.00  7.9775E-005  
  340.50  7.4440E-005  
  341.00  8.3169E-005  
  341.50  1.4311E-004  
  342.00  1.9082E-004  
  342.50  1.8886E-004  
  343.00  1.5522E-004  
  343.50  1.4164E-004  
  344.00  1.2819E-004  
  344.50  1.7104E-004  
  345.00  2.1589E-004  
  345.50  2.1881E-004  
  346.00  2.1820E-004  
  346.50  1.8128E-004  
  347.00  1.5660E-004  
  347.50  1.9033E-004  
  348.00  2.1535E-004  
  348.50  2.1153E-004  
  349.00  2.0594E-004  
  349.50  2.4716E-004  
  350.00  2.8983E-004  
  350.50  3.2764E-004  
  351.00  3.0917E-004  
  351.50  2.3191E-004  
  352.00  2.0502E-004  
  352.50  1.9314E-004  
  353.00  2.3173E-004  
  353.50  1.8949E-004  
  354.00  1.7778E-004  
  354.50  1.4637E-004  
  355.00  1.2428E-004  
  355.50  1.5898E-004  
  356.00  1.6661E-004  
  356.50  1.7630E-004  
  357.00  1.9015E-004  
  357.50  1.7611E-004  
  358.00  1.9758E-004  
  358.50  2.2969E-004  
  359.00  2.7444E-004  
  359.50  2.4352E-004  
  360.00  1.9733E-004  
  360.50  1.5511E-004  
  361.00  1.1637E-004  
  361.50  1.6876E-004  
  362.00  2.0498E-004  
  362.50  2.2292E-004  
  363.00  2.3073E-004  
  363.50  2.2180E-004  
  364.00  2.5552E-004  
  364.50  2.7506E-004  
  365.00  2.8842E-004  
  365.50  2.9680E-004  
  366.00  2.2708E-004  
  366.50  1.9209E-004  
  367.00  1.5782E-004  
  367.50  8.7106E-005  
  368.00  8.5668E-005  
  368.50  1.1899E-004  
  369.00  1.6808E-004  
  369.50  2.2622E-004  
  370.00  2.3692E-004  
  370.50  2.2596E-004  
  371.00  2.1848E-004  
  371.50  2.1851E-004  
  372.00  2.3908E-004  
  372.50  2.4641E-004  
  373.00  2.6396E-004  
  373.50  2.8680E-004  
  374.00  2.7722E-004  
  374.50  2.9437E-004  
  375.00  3.0516E-004  
  375.50  3.1276E-004  
  376.00  2.9233E-004  
  376.50  2.9391E-004  
  377.00  3.0129E-004  
  377.50  3.4011E-004  
  378.00  3.5112E-004  
  378.50  3.0881E-004  
  379.00  2.7707E-004  
  379.50  3.0406E-004  
  380.00  3.5584E-004  
  380.50  3.7885E-004  
  381.00  3.8820E-004  
  381.50  3.4362E-004  
  382.00  3.1597E-004  
  382.50  2.8473E-004  
  383.00  2.2641E-004  
  383.50  2.2446E-004  
  384.00  2.1475E-004  
  384.50  2.2827E-004  
  385.00  2.7704E-004  
  385.50  3.0960E-004  
  386.00  3.3881E-004  
  386.50  3.4229E-004  
  387.00  2.5922E-004  
  387.50  1.9389E-004  
  388.00  1.6549E-004  
  388.50  1.7617E-004  
  389.00  2.0483E-004  
  389.50  2.5032E-004  
  390.00  3.1428E-004  
  390.50  3.7027E-004  
  391.00  3.8955E-004  
  391.50  3.9561E-004  
  392.00  3.8668E-004  
  392.50  4.0040E-004  
  393.00  3.9953E-004  
  393.50  3.9789E-004  
  394.00  3.5305E-004  
  394.50  2.9659E-004  
  395.00  2.6210E-004  
  395.50  2.3573E-004  
  396.00  2.5904E-004  
  396.50  3.2410E-004  
  397.00  3.5467E-004  
  397.50  3.8311E-004  
  398.00  4.2661E-004  
  398.50  4.0160E-004  
  399.00  4.3801E-004  
  399.50  4.3165E-004  
  400.00  3.7975E-004  
  400.50  3.5135E-004  
  401.00  3.1244E-004  
  401.50  2.9394E-004  
  402.00  3.4004E-004  
  402.50  4.1667E-004  
  403.00  4.8694E-004  
  403.50  4.9903E-004  
  404.00  4.6548E-004  
  404.50  4.2851E-004  
  405.00  4.2710E-004  
  405.50  5.4043E-004  
  406.00  6.2343E-004  
  406.50  6.1208E-004  
  407.00  6.0071E-004  
  407.50  5.4425E-004  
  408.00  5.4138E-004  
  408.50  5.6792E-004  
  409.00  5.7491E-004  
  409.50  5.9765E-004  
  410.00  6.3445E-004  
  410.50  6.9499E-004  
  411.00  7.2565E-004  
  411.50  7.7101E-004  
  412.00  7.5787E-004  
  412.50  7.7206E-004  
  413.00  7.9537E-004  
  413.50  8.0789E-004  
  414.00  8.8011E-004  
  414.50  9.5665E-004  
  415.00  1.0999E-003  
  415.50  1.2457E-003  
  416.00  1.3873E-003  
  416.50  1.5233E-003  
  417.00  1.6333E-003  
  417.50  1.6966E-003  
  418.00  1.7460E-003  
  418.50  1.7669E-003  
  419.00  1.8646E-003  
  419.50  2.0151E-003  
  420.00  2.1539E-003  
  420.50  2.2953E-003  
  421.00  2.3748E-003  
  421.50  2.4621E-003  
  422.00  2.6097E-003  
  422.50  2.8133E-003  
  423.00  3.0578E-003  
  423.50  3.3094E-003  
  424.00  3.5112E-003  
  424.50  3.6258E-003  
  425.00  3.8468E-003  
  425.50  4.1074E-003  
  426.00  4.4122E-003  
  426.50  4.7378E-003  
  427.00  4.9990E-003  
  427.50  5.2924E-003  
  428.00  5.6227E-003  
  428.50  5.9100E-003  
  429.00  6.2419E-003  
  429.50  6.5555E-003  
  430.00  6.8818E-003  
  430.50  7.2802E-003  
  431.00  7.6595E-003  
  431.50  8.0751E-003  
  432.00  8.5284E-003  
  432.50  8.9960E-003  
  433.00  9.5091E-003  
  433.50  1.0012E-002  
  434.00  1.0570E-002  
  434.50  1.1147E-002  
  435.00  1.1793E-002  
  435.50  1.2467E-002  
  436.00  1.3103E-002  
  436.50  1.3765E-002  
  437.00  1.4497E-002  
  437.50  1.5257E-002  
  438.00  1.6125E-002  
  438.50  1.6919E-002  
  439.00  1.7748E-002  
  439.50  1.8605E-002  
  440.00  1.9456E-002  
  440.50  2.0448E-002  
  441.00  2.1401E-002  
  441.50  2.2390E-002  
  442.00  2.3403E-002  
  442.50  2.4376E-002  
  443.00  2.5403E-002  
  443.50  2.6388E-002  
  444.00  2.7455E-002  
  444.50  2.8570E-002  
  445.00  2.9704E-002  
  445.50  3.0753E-002  
  446.00  3.1753E-002  
  446.50  3.2641E-002  
  447.00  3.3470E-002  
  447.50  3.4300E-002  
  448.00  3.5028E-002  
  448.50  3.5752E-002  
  449.00  3.6416E-002  
  449.50  3.7028E-002  
  450.00  3.7615E-002  
  450.50  3.8148E-002  
  451.00  3.8531E-002  
  451.50  3.8748E-002  
  452.00  3.8864E-002  
  452.50  3.8935E-002  
  453.00  3.8721E-002  
  453.50  3.8292E-002  
  454.00  3.7720E-002  
  454.50  3.7111E-002  
  455.00  3.6702E-002  
  455.50  3.6110E-002  
  456.00  3.5387E-002  
  456.50  3.4566E-002  
  457.00  3.3612E-002  
  457.50  3.2736E-002  
  458.00  3.1857E-002  
  458.50  3.0922E-002  
  459.00  2.9966E-002  
  459.50  2.8980E-002  
  460.00  2.8071E-002  
  460.50  2.7344E-002  
  461.00  2.6633E-002  
  461.50  2.5874E-002  
  462.00  2.5105E-002  
  462.50  2.4453E-002  
  463.00  2.3904E-002  
  463.50  2.3442E-002  
  464.00  2.2963E-002  
  464.50  2.2462E-002  
  465.00  2.2036E-002  
  465.50  2.1684E-002  
  466.00  2.1402E-002  
  466.50  2.1134E-002  
  467.00  2.0816E-002  
  467.50  2.0505E-002  
  468.00  2.0210E-002  
  468.50  2.0002E-002  
  469.00  1.9755E-002  
  469.50  1.9494E-002  
  470.00  1.9153E-002  
  470.50  1.8818E-002  
  471.00  1.8505E-002  
  471.50  1.8209E-002  
  472.00  1.7968E-002  
  472.50  1.7768E-002  
  473.00  1.7571E-002  
  473.50  1.7348E-002  
  474.00  1.7048E-002  
  474.50  1.6730E-002  
  475.00  1.6394E-002  
  475.50  1.6172E-002  
  476.00  1.5992E-002  
  476.50  1.5903E-002  
  477.00  1.5855E-002  
  477.50  1.5741E-002  
  478.00  1.5610E-002  
  478.50  1.5532E-002  
  479.00  1.5530E-002  
  479.50  1.5579E-002  
  480.00  1.5609E-002  
  480.50  1.5575E-002  
  481.00  1.5546E-002  
  481.50  1.5570E-002  
  482.00  1.5634E-002  
  482.50  1.5783E-002  
  483.00  1.5911E-002  
  483.50  1.6080E-002  
  484.00  1.6255E-002  
  484.50  1.6426E-002  
  485.00  1.6620E-002  
  485.50  1.6805E-002  
  486.00  1.6945E-002  
  486.50  1.7146E-002  
  487.00  1.7377E-002  
  487.50  1.7680E-002  
  488.00  1.8012E-002  
  488.50  1.8296E-002  
  489.00  1.8590E-002  
  489.50  1.8831E-002  
  490.00  1.9066E-002  
  490.50  1.9280E-002  
  491.00  1.9537E-002  
  491.50  1.9816E-002  
  492.00  2.0138E-002  
  492.50  2.0462E-002  
  493.00  2.0819E-002  
  493.50  2.1130E-002  
  494.00  2.1426E-002  
  494.50  2.1759E-002  
  495.00  2.2109E-002  
  495.50  2.2492E-002  
  496.00  2.2846E-002  
  496.50  2.3226E-002  
  497.00  2.3584E-002  
  497.50  2.3965E-002  
  498.00  2.4329E-002  
  498.50  2.4730E-002  
  499.00  2.5185E-002  
  499.50  2.5613E-002  
  500.00  2.6007E-002  
  500.50  2.6344E-002  
  501.00  2.6740E-002  
  501.50  2.7153E-002  
  502.00  2.7598E-002  
  502.50  2.7961E-002  
  503.00  2.8336E-002  
  503.50  2.8743E-002  
  504.00  2.9189E-002  
  504.50  2.9655E-002  
  505.00  3.0025E-002  
  505.50  3.0393E-002  
  506.00  3.0708E-002  
  506.50  3.1042E-002  
  507.00  3.1419E-002  
  507.50  3.1833E-002  
  508.00  3.2302E-002  
  508.50  3.2775E-002  
  509.00  3.3211E-002  
  509.50  3.3607E-002  
  510.00  3.4014E-002  
  510.50  3.4369E-002  
  511.00  3.4756E-002  
  511.50  3.5147E-002  
  512.00  3.5542E-002  
  512.50  3.5950E-002  
  513.00  3.6343E-002  
  513.50  3.6767E-002  
  514.00  3.7194E-002  
  514.50  3.7586E-002  
  515.00  3.7923E-002  
  515.50  3.8284E-002  
  516.00  3.8722E-002  
  516.50  3.9135E-002  
  517.00  3.9535E-002  
  517.50  3.9883E-002  
  518.00  4.0279E-002  
  518.50  4.0783E-002  
  519.00  4.1258E-002  
  519.50  4.1661E-002  
  520.00  4.1998E-002  
  520.50  4.2311E-002  
  521.00  4.2685E-002  
  521.50  4.3108E-002  
  522.00  4.3559E-002  
  522.50  4.4044E-002  
  523.00  4.4508E-002  
  523.50  4.4926E-002  
  524.00  4.5389E-002  
  524.50  4.5769E-002  
  525.00  4.6156E-002  
  525.50  4.6510E-002  
  526.00  4.6923E-002  
  526.50  4.7477E-002  
  527.00  4.8028E-002  
  527.50  4.8534E-002  
  528.00  4.8992E-002  
  528.50  4.9432E-002  
  529.00  4.9924E-002  
  529.50  5.0438E-002  
  530.00  5.0866E-002  
  530.50  5.1251E-002  
  531.00  5.1642E-002  
  531.50  5.2093E-002  
  532.00  5.2616E-002  
  532.50  5.3144E-002  
  533.00  5.3655E-002  
  533.50  5.4104E-002  
  534.00  5.4496E-002  
  534.50  5.4909E-002  
  535.00  5.5407E-002  
  535.50  5.5999E-002  
  536.00  5.6552E-002  
  536.50  5.7047E-002  
  537.00  5.7444E-002  
  537.50  5.7923E-002  
  538.00  5.8518E-002  
  538.50  5.9076E-002  
  539.00  5.9598E-002  
  539.50  6.0039E-002  
  540.00  6.0567E-002  
  540.50  6.1108E-002  
  541.00  6.1611E-002  
  541.50  6.2071E-002  
  542.00  6.2565E-002  
  542.50  6.3154E-002  
  543.00  6.3761E-002  
  543.50  6.4412E-002  
  544.00  6.5065E-002  
  544.50  6.5640E-002  
  545.00  6.6189E-002  
  545.50  6.6675E-002  
  546.00  6.7217E-002  
  546.50  6.7722E-002  
  547.00  6.8131E-002  
  547.50  6.8535E-002  
  548.00  6.9040E-002  
  548.50  6.9658E-002  
  549.00  7.0365E-002  
  549.50  7.1077E-002  
  550.00  7.1774E-002  
  550.50  7.2402E-002  
  551.00  7.2928E-002  
  551.50  7.3436E-002  
  552.00  7.4019E-002  
  552.50  7.4608E-002  
  553.00  7.5203E-002  
  553.50  7.5738E-002  
  554.00  7.6283E-002  
  554.50  7.6883E-002  
  555.00  7.7454E-002  
  555.50  7.8004E-002  
  556.00  7.8602E-002  
  556.50  7.9247E-002  
  557.00  7.9906E-002  
  557.50  8.0613E-002  
  558.00  8.1289E-002  
  558.50  8.1954E-002  
  559.00  8.2509E-002  
  559.50  8.2994E-002  
  560.00  8.3542E-002  
  560.50  8.4058E-002  
  561.00  8.4615E-002  
  561.50  8.5109E-002  
  562.00  8.5629E-002  
  562.50  8.6216E-002  
  563.00  8.6705E-002  
  563.50  8.7233E-002  
  564.00  8.7695E-002  
  564.50  8.8181E-002  
  565.00  8.8679E-002  
  565.50  8.9142E-002  
  566.00  8.9621E-002  
  566.50  9.0151E-002  
  567.00  9.0617E-002  
  567.50  9.1121E-002  
  568.00  9.1739E-002  
  568.50  9.2474E-002  
  569.00  9.3136E-002  
  569.50  9.3577E-002  
  570.00  9.4014E-002  
  570.50  9.4477E-002  
  571.00  9.5015E-002  
  571.50  9.5467E-002  
  572.00  9.5933E-002  
  572.50  9.6362E-002  
  573.00  9.6943E-002  
  573.50  9.7524E-002  
  574.00  9.8192E-002  
  574.50  9.8766E-002  
  575.00  9.9326E-002  
  575.50  9.9847E-002  
  576.00  1.0024E-001  
  576.50  1.0063E-001  
  577.00  1.0106E-001  
  577.50  1.0177E-001  
  578.00  1.0242E-001  
  578.50  1.0295E-001  
  579.00  1.0337E-001  
  579.50  1.0377E-001  
  580.00  1.0420E-001  
  580.50  1.0460E-001  
  581.00  1.0509E-001  
  581.50  1.0556E-001  
  582.00  1.0617E-001  
  582.50  1.0672E-001  
  583.00  1.0720E-001  
  583.50  1.0768E-001  
  584.00  1.0810E-001  
  584.50  1.0852E-001  
  585.00  1.0881E-001  
  585.50  1.0915E-001  
  586.00  1.0956E-001  
  586.50  1.1011E-001  
  587.00  1.1052E-001  
  587.50  1.1080E-001  
  588.00  1.1106E-001  
  588.50  1.1139E-001  
  589.00  1.1174E-001  
  589.50  1.1214E-001  
  590.00  1.1272E-001  
  590.50  1.1324E-001  
  591.00  1.1368E-001  
  591.50  1.1394E-001  
  592.00  1.1414E-001  
  592.50  1.1438E-001  
  593.00  1.1460E-001  
  593.50  1.1486E-001  
  594.00  1.1533E-001  
  594.50  1.1578E-001  
  595.00  1.1622E-001  
  595.50  1.1642E-001  
  596.00  1.1656E-001  
  596.50  1.1684E-001  
  597.00  1.1719E-001  
  597.50  1.1735E-001  
  598.00  1.1742E-001  
  598.50  1.1756E-001  
  599.00  1.1779E-001  
  599.50  1.1786E-001  
  600.00  1.1799E-001  
  600.50  1.1813E-001  
  601.00  1.1844E-001  
  601.50  1.1857E-001  
  602.00  1.1860E-001  
  602.50  1.1866E-001  
  603.00  1.1865E-001  
  603.50  1.1873E-001  
  604.00  1.1877E-001  
  604.50  1.1886E-001  
  605.00  1.1904E-001  
  605.50  1.1918E-001  
  606.00  1.1934E-001  
  606.50  1.1937E-001  
  607.00  1.1934E-001  
  607.50  1.1923E-001  
  608.00  1.1920E-001  
  608.50  1.1923E-001  
  609.00  1.1929E-001  
  609.50  1.1929E-001  
  610.00  1.1930E-001  
  610.50  1.1910E-001  
  611.00  1.1903E-001  
  611.50  1.1888E-001  
  612.00  1.1878E-001  
  612.50  1.1866E-001  
  613.00  1.1844E-001  
  613.50  1.1835E-001  
  614.00  1.1822E-001  
  614.50  1.1805E-001  
  615.00  1.1778E-001  
  615.50  1.1740E-001  
  616.00  1.1699E-001  
  616.50  1.1674E-001  
  617.00  1.1656E-001  
  617.50  1.1630E-001  
  618.00  1.1596E-001  
  618.50  1.1559E-001  
  619.00  1.1529E-001  
  619.50  1.1499E-001  
  620.00  1.1465E-001  
  620.50  1.1425E-001  
  621.00  1.1389E-001  
  621.50  1.1352E-001  
  622.00  1.1320E-001  
  622.50  1.1278E-001  
  623.00  1.1229E-001  
  623.50  1.1190E-001  
  624.00  1.1155E-001  
  624.50  1.1122E-001  
  625.00  1.1085E-001  
  625.50  1.1046E-001  
  626.00  1.0993E-001  
  626.50  1.0926E-001  
  627.00  1.0869E-001  
  627.50  1.0819E-001  
  628.00  1.0781E-001  
  628.50  1.0725E-001  
  629.00  1.0671E-001  
  629.50  1.0612E-001  
  630.00  1.0562E-001  
  630.50  1.0506E-001  
  631.00  1.0458E-001  
  631.50  1.0410E-001  
  632.00  1.0351E-001  
  632.50  1.0281E-001  
  633.00  1.0205E-001  
  633.50  1.0148E-001  
  634.00  1.0085E-001  
  634.50  1.0037E-001  
  635.00  9.9875E-002  
  635.50  9.9286E-002  
  636.00  9.8626E-002  
  636.50  9.7956E-002  
  637.00  9.7522E-002  
  637.50  9.6943E-002  
  638.00  9.6357E-002  
  638.50  9.5755E-002  
  639.00  9.5196E-002  
  639.50  9.4550E-002  
  640.00  9.3928E-002  
  640.50  9.3318E-002  
  641.00  9.2671E-002  
  641.50  9.1867E-002  
  642.00  9.1127E-002  
  642.50  9.0435E-002  
  643.00  8.9751E-002  
  643.50  8.9033E-002  
  644.00  8.8400E-002  
  644.50  8.7706E-002  
  645.00  8.7021E-002  
  645.50  8.6244E-002  
  646.00  8.5624E-002  
  646.50  8.4843E-002  
  647.00  8.4045E-002  
  647.50  8.3171E-002  
  648.00  8.2487E-002  
  648.50  8.1908E-002  
  649.00  8.1380E-002  
  649.50  8.0659E-002  
  650.00  7.9942E-002  
  650.50  7.9217E-002  
  651.00  7.8522E-002  
  651.50  7.7633E-002  
  652.00  7.6677E-002  
  652.50  7.5972E-002  
  653.00  7.5362E-002  
  653.50  7.4748E-002  
  654.00  7.4020E-002  
  654.50  7.3217E-002  
  655.00  7.2543E-002  
  655.50  7.1922E-002  
  656.00  7.1398E-002  
  656.50  7.0689E-002  
  657.00  6.9859E-002  
  657.50  6.8997E-002  
  658.00  6.8237E-002  
  658.50  6.7669E-002  
  659.00  6.7089E-002  
  659.50  6.6442E-002  
  660.00  6.5605E-002  
  660.50  6.4855E-002  
  661.00  6.4185E-002  
  661.50  6.3564E-002  
  662.00  6.2846E-002  
  662.50  6.2118E-002  
  663.00  6.1283E-002  
  663.50  6.0526E-002  
  664.00  5.9821E-002  
  664.50  5.9224E-002  
  665.00  5.8624E-002  
  665.50  5.7887E-002  
  666.00  5.7105E-002  
  666.50  5.6342E-002  
  667.00  5.5877E-002  
  667.50  5.5396E-002  
  668.00  5.4820E-002  
  668.50  5.4037E-002  
  669.00  5.3339E-002  
  669.50  5.2762E-002  
  670.00  5.2188E-002  
  670.50  5.1546E-002  
  671.00  5.0844E-002  
  671.50  5.0078E-002  
  672.00  4.9421E-002  
  672.50  4.8814E-002  
  673.00  4.8184E-002  
  673.50  4.7517E-002  
  674.00  4.6817E-002  
  674.50  4.6263E-002  
  675.00  4.5783E-002  
  675.50  4.5286E-002  
  676.00  4.4782E-002  
  676.50  4.4218E-002  
  677.00  4.3731E-002  
  677.50  4.3245E-002  
  678.00  4.2705E-002  
  678.50  4.2154E-002  
  679.00  4.1518E-002  
  679.50  4.0976E-002  
  680.00  4.0429E-002  
  680.50  4.0028E-002  
  681.00  3.9549E-002  
  681.50  3.9007E-002  
  682.00  3.8475E-002  
  682.50  3.7983E-002  
  683.00  3.7466E-002  
  683.50  3.6773E-002  
  684.00  3.6085E-002  
  684.50  3.5553E-002  
  685.00  3.5209E-002  
  685.50  3.4927E-002  
  686.00  3.4577E-002  
  686.50  3.4108E-002  
  687.00  3.3583E-002  
  687.50  3.3059E-002  
  688.00  3.2602E-002  
  688.50  3.2228E-002  
  689.00  3.1819E-002  
  689.50  3.1470E-002  
  690.00  3.1153E-002  
  690.50  3.0804E-002  
  691.00  3.0372E-002  
  691.50  2.9835E-002  
  692.00  2.9261E-002  
  692.50  2.8824E-002  
  693.00  2.8436E-002  
  693.50  2.8165E-002  
  694.00  2.7785E-002  
  694.50  2.7444E-002  
  695.00  2.7022E-002  
  695.50  2.6570E-002  
  696.00  2.6155E-002  
  696.50  2.5835E-002  
  697.00  2.5521E-002  
  697.50  2.5162E-002  
  698.00  2.4786E-002  
  698.50  2.4453E-002  
  699.00  2.4098E-002  
  699.50  2.3758E-002  
  700.00  2.3359E-002  
  700.50  2.3011E-002  
  701.00  2.2641E-002  
  701.50  2.2279E-002  
  702.00  2.1949E-002  
  702.50  2.1733E-002  
  703.00  2.1573E-002  
  703.50  2.1286E-002  
  704.00  2.0909E-002  
  704.50  2.0559E-002  
  705.00  2.0300E-002  
  705.50  1.9992E-002  
  706.00  1.9663E-002  
  706.50  1.9297E-002  
  707.00  1.8981E-002  
  707.50  1.8731E-002  
  708.00  1.8517E-002  
  708.50  1.8253E-002  
  709.00  1.8004E-002  
  709.50  1.7753E-002  
  710.00  1.7503E-002  
  710.50  1.7218E-002  
  711.00  1.6947E-002  
  711.50  1.6600E-002  
  712.00  1.6260E-002  
  712.50  1.6030E-002  
  713.00  1.5906E-002  
  713.50  1.5748E-002  
  714.00  1.5509E-002  
  714.50  1.5273E-002  
  715.00  1.5083E-002  
  715.50  1.4952E-002  
  716.00  1.4710E-002  
  716.50  1.4427E-002  
  717.00  1.4148E-002  
  717.50  1.3920E-002  
  718.00  1.3702E-002  
  718.50  1.3487E-002  
  719.00  1.3328E-002  
  719.50  1.3230E-002  
  720.00  1.3103E-002  
  720.50  1.2942E-002  
  721.00  1.2772E-002  
  721.50  1.2529E-002  
  722.00  1.2304E-002  
  722.50  1.2045E-002  
  723.00  1.1893E-002  
  723.50  1.1817E-002  
  724.00  1.1796E-002  
  724.50  1.1624E-002  
  725.00  1.1316E-002  
  725.50  1.0989E-002  
  726.00  1.0761E-002  
  726.50  1.0566E-002  
  727.00  1.0419E-002  
  727.50  1.0341E-002  
  728.00  1.0272E-002  
  728.50  1.0155E-002  
  729.00  9.9989E-003  
  729.50  9.8817E-003  
  730.00  9.7909E-003  
  730.50  9.6573E-003  
  731.00  9.5553E-003  
  731.50  9.3208E-003  
  732.00  9.0987E-003  
  732.50  8.9093E-003  
  733.00  8.8408E-003  
  733.50  8.7218E-003  
  734.00  8.5363E-003  
  734.50  8.4002E-003  
  735.00  8.2527E-003  
  735.50  8.1435E-003  
  736.00  8.0943E-003  
  736.50  8.1604E-003  
  737.00  8.1630E-003  
  737.50  8.0188E-003  
  738.00  7.7761E-003  
  738.50  7.5049E-003  
  739.00  7.3489E-003  
  739.50  7.1477E-003  
  740.00  7.0247E-003  
  740.50  6.9603E-003  
  741.00  6.9905E-003  
  741.50  6.9313E-003  
  742.00  6.7116E-003  
  742.50  6.6143E-003  
  743.00  6.5548E-003  
  743.50  6.5693E-003  
  744.00  6.4845E-003  
  744.50  6.3572E-003  
  745.00  6.1092E-003  
  745.50  5.9678E-003  
  746.00  5.9670E-003  
  746.50  5.9840E-003  
  747.00  6.0045E-003  
  747.50  5.8324E-003  
  748.00  5.7387E-003  
  748.50  5.6654E-003  
  749.00  5.6986E-003  
  749.50  5.6677E-003  
  750.00  5.5270E-003  
  750.50  5.3822E-003  
  751.00  5.2198E-003  
  751.50  5.1456E-003  
  752.00  4.9645E-003  
  752.50  4.8740E-003  
  753.00  4.8644E-003  
  753.50  4.8090E-003  
  754.00  4.5834E-003  
  754.50  4.4788E-003  
  755.00  4.5014E-003  
  755.50  4.5332E-003  
  756.00  4.5741E-003  
  756.50  4.6193E-003  
  757.00  4.4409E-003  
  757.50  4.2197E-003  
  758.00  4.0952E-003  
  758.50  4.0891E-003  
  759.00  4.0470E-003  
  759.50  4.0165E-003  
  760.00  4.2044E-003  
  760.50  4.2113E-003  
  761.00  4.0646E-003  
  761.50  3.7924E-003  
  762.00  3.6681E-003  
  762.50  3.7153E-003  
  763.00  3.7762E-003  
  763.50  3.8115E-003  
  764.00  3.5935E-003  
  764.50  3.4856E-003  
  765.00  3.5240E-003  
  765.50  3.6047E-003  
  766.00  3.5498E-003  
  766.50  3.4371E-003  
  767.00  3.2928E-003  
  767.50  3.2212E-003  
  768.00  3.1751E-003  
  768.50  3.0884E-003  
  769.00  3.0774E-003  
  769.50  3.1567E-003  
  770.00  3.1724E-003  
  770.50  3.0718E-003  
  771.00  2.9192E-003  
  771.50  2.7553E-003  
  772.00  2.7078E-003  
  772.50  2.6204E-003  
  773.00  2.5525E-003  
  773.50  2.4111E-003  
  774.00  2.3953E-003  
  774.50  2.3502E-003  
  775.00  2.3355E-003  
  775.50  2.4482E-003  
  776.00  2.5396E-003  
  776.50  2.5902E-003  
  777.00  2.5390E-003  
  777.50  2.4515E-003  
  778.00  2.4816E-003  
  778.50  2.3342E-003  
  779.00  2.1768E-003  
  779.50  1.9906E-003  
  780.00  2.1365E-003  
  780.50  2.3602E-003  
  781.00  2.4162E-003  
  781.50  2.3227E-003  
  782.00  2.2198E-003  
  782.50  2.1302E-003  
  783.00  2.1752E-003  
  783.50  2.2098E-003  
  784.00  2.0637E-003  
  784.50  1.8896E-003  
  785.00  1.8539E-003  
  785.50  1.7299E-003  
  786.00  1.7761E-003  
  786.50  1.9088E-003  
  787.00  2.0690E-003  
  787.50  1.9260E-003  
  788.00  1.7613E-003  
  788.50  1.8058E-003  
  789.00  1.9971E-003  
  789.50  1.9911E-003  
  790.00  1.9199E-003  
  790.50  1.7512E-003  
  791.00  1.7438E-003  
  791.50  1.7270E-003  
  792.00  1.7530E-003  
  792.50  1.6156E-003  
  793.00  1.3651E-003  
  793.50  1.3427E-003  
  794.00  1.3082E-003  
  794.50  1.3991E-003  
  795.00  1.4298E-003  
  795.50  1.2898E-003  
  796.00  1.1796E-003  
  796.50  1.2745E-003  
  797.00  1.4791E-003  
  797.50  1.5100E-003  
  798.00  1.4142E-003  
  798.50  1.3434E-003  
  799.00  1.3823E-003  
  799.50  1.3854E-003  
  800.00  1.3486E-003  
  800.50  1.3029E-003  
  801.00  1.1716E-003  
  801.50  1.1508E-003  
  802.00  1.3584E-003  
  802.50  1.4620E-003  
  803.00  1.2573E-003  
  803.50  9.8355E-004  
  804.00  7.5939E-004  
  804.50  7.5449E-004  
  805.00  9.9231E-004  
  805.50  1.1169E-003  
  806.00  1.1832E-003  
  806.50  1.2549E-003  
  807.00  1.0656E-003  
  807.50  9.7934E-004  
  808.00  1.0758E-003  
  808.50  1.0315E-003  
  809.00  8.3179E-004  
  809.50  9.4842E-004  
  810.00  1.0849E-003  
  810.50  1.2816E-003  
  811.00  9.7636E-004  
  811.50  6.5028E-004  
  812.00  7.6398E-004  
  812.50  9.4396E-004  
  813.00  9.1811E-004  
  813.50  7.8263E-004  
  814.00  8.8393E-004  
  814.50  7.8440E-004  
  815.00  8.5269E-004  
  815.50  8.1957E-004  
  816.00  7.8715E-004  
  816.50  6.2139E-004  
  817.00  7.1770E-004  
  817.50  8.8222E-004  
  818.00  8.5347E-004  
  818.50  8.3921E-004  
  819.00  9.3207E-004  
  819.50  8.5735E-004  
  820.00  8.1754E-004  
  820.50  9.4175E-004  
  821.00  9.4185E-004  
  821.50  8.8251E-004  
  822.00  7.7026E-004  
  822.50  7.9946E-004  
  823.00  8.6365E-004  
  823.50  8.6946E-004  
  824.00  7.2648E-004  
  824.50  5.2189E-004  
  825.00  7.1329E-004  
  825.50  8.9724E-004  
  826.00  7.7225E-004  
  826.50  7.1653E-004  
  827.00  4.8279E-004  
  827.50  4.4657E-004  
  828.00  6.8439E-004  
  828.50  8.1488E-004  
  829.00  7.5334E-004  
  829.50  5.8131E-004  
  830.00  4.3177E-004  
  830.50  3.9451E-004  
  831.00  2.9271E-004  
  831.50  3.7422E-004  
  832.00  5.6801E-004  
  832.50  6.6475E-004  
  833.00  5.6437E-004  
  833.50  2.4903E-004  
  834.00  5.4186E-004  
  834.50  9.7992E-004  
  835.00  1.0316E-003  
  835.50  8.2843E-004  
  836.00  7.3404E-004  
  836.50  5.9237E-004  
  837.00  5.6928E-004  
  837.50  6.2946E-004  
  838.00  8.7107E-004  
  838.50  1.3463E-003  
  839.00  1.3261E-003  
  839.50  1.3916E-003  
  840.00  1.4088E-003  
  840.50  1.2635E-003  
  841.00  5.2010E-004  
  841.50  4.0771E-006  
  842.00  3.1459E-004  
  842.50  7.8769E-004  
  843.00  7.1553E-004  
  843.50  4.4514E-004  
  844.00  1.8347E-004  
  844.50  1.0041E-004  
  845.00  7.7699E-005  
  845.50  2.8391E-004  
  846.00  5.6837E-005  
  846.50  0.0000E+000  
  847.00  0.0000E+000  
  847.50  1.4648E-004  
  848.00  4.8029E-004  
  848.50  6.1058E-004  
  849.00  8.7327E-004  
  849.50  9.3795E-004  
  850.00  8.3612E-004  
  850.50  5.7585E-004  
  851.00  4.5372E-004  
  851.50  5.1468E-004  
  852.00  4.9521E-004  
  852.50  2.0715E-004  
  853.00  5.2187E-005  
  853.50  2.6546E-004  
  854.00  4.5057E-004  
  854.50  8.9688E-004  
  855.00  8.2316E-004  
  855.50  6.9085E-004  
  856.00  8.7067E-004  
  856.50  6.2302E-004  
  857.00  2.2812E-004  
  857.50  1.3211E-004  
  858.00  9.4568E-005  
  858.50  1.7736E-005  
  859.00  2.2794E-004  
  859.50  7.3223E-004  
  860.00  9.3508E-004  
  860.50  7.4431E-004  
  861.00  5.7399E-004  
  861.50  8.4228E-004  
  862.00  1.1242E-003  
  862.50  8.0452E-004  
  863.00  7.8998E-004  
  863.50  4.4578E-004  
  864.00  3.5557E-004  
  864.50  3.3249E-004  
  865.00  7.8363E-004  
  865.50  1.2173E-003  
  866.00  9.8019E-004  
  866.50  1.0525E-004  
  867.00  4.9046E-005  
  867.50  7.1645E-004  
  868.00  8.6675E-004  
  868.50  6.9712E-004  
  869.00  7.9708E-004  
  869.50  9.7651E-004  
  870.00  1.0848E-003  
  870.50  7.7586E-004  
  871.00  3.9402E-004  
  871.50  9.7135E-004  
  872.00  1.2970E-003  
  872.50  3.0077E-004  
  873.00  0.0000E+000  
  873.50  0.0000E+000  
  874.00  0.0000E+000  
  874.50  0.0000E+000  
  875.00  1.7818E-004  
  875.50  2.8680E-004  
  876.00  4.3487E-004  
  876.50  6.0608E-004  
  877.00  7.4872E-004  
  877.50  9.9801E-004  
  878.00  1.4524E-003  
  878.50  1.5583E-003  
  879.00  1.2972E-003  
  879.50  7.0965E-004  
  880.00  4.2959E-004  
  880.50  2.7700E-004  
  881.00  2.0824E-004  
  881.50  5.1753E-004  
  882.00  1.0942E-003  
  882.50  4.9624E-004  
  883.00  1.1988E-005  
  883.50  9.4106E-004  
  884.00  1.8209E-003  
  884.50  1.8626E-003  
  885.00  1.8926E-003  
  885.50  2.3468E-003  
  886.00  2.0718E-003  
  886.50  1.8564E-003  
  887.00  1.8864E-003  
  887.50  1.5055E-003  
  888.00  1.6750E-003  
  888.50  1.6091E-003  
  889.00  8.4613E-004  
  889.50  4.1147E-004  
  890.00  6.1527E-004  
  890.50  9.5558E-004  
  891.00  9.5046E-004  
  891.50  7.5895E-004  
  892.00  1.2371E-003  
  892.50  1.4019E-003  
  893.00  7.2511E-004  
  893.50  5.0102E-004  
  894.00  4.0296E-004  
  894.50  1.3345E-003  
  895.00  1.8977E-003  
  895.50  1.6665E-003  
  896.00  1.5305E-003  
  896.50  2.2446E-003  
  897.00  1.9026E-003  
  897.50  2.2614E-003  
  898.00  1.9657E-003  
  898.50  1.2888E-003  
  899.00  3.3062E-004  
  899.50  6.3011E-006  
