
# From lspdd.org
# 
# Name: DEL Energizer PAR30 Domestique
# Indice spectral Valeur 
# MSI 0.29 
# SLI 0.49 
# IPI 0.66 
# Pourcentage de bleu 18.0 
# Caractéristique Valeur 
# CCT calculée (K) 2903 
# CCT du fabricant (K) 3155 
# Tension (V) ND 
# Puissance (W) 15.0 
# Efficacité lumineuse (Lum/W) 50.0 
#
# Image: '/app/system/img_2s/2614/medium_image2.JPG?1413486689'
# Image: '/app/system/img_1s/2614/medium_image1.JPG?1413486692'
# 

  273.00  0.0000E+000  
  273.50  0.0000E+000  
  274.00  0.0000E+000  
  274.50  0.0000E+000  
  275.00  0.0000E+000  
  275.50  0.0000E+000  
  276.00  0.0000E+000  
  276.50  0.0000E+000  
  277.00  0.0000E+000  
  277.50  0.0000E+000  
  278.00  0.0000E+000  
  278.50  0.0000E+000  
  279.00  0.0000E+000  
  279.50  0.0000E+000  
  280.00  0.0000E+000  
  280.50  0.0000E+000  
  281.00  0.0000E+000  
  281.50  0.0000E+000  
  282.00  0.0000E+000  
  282.50  0.0000E+000  
  283.00  0.0000E+000  
  283.50  0.0000E+000  
  284.00  0.0000E+000  
  284.50  0.0000E+000  
  285.00  0.0000E+000  
  285.50  0.0000E+000  
  286.00  0.0000E+000  
  286.50  0.0000E+000  
  287.00  0.0000E+000  
  287.50  0.0000E+000  
  288.00  0.0000E+000  
  288.50  0.0000E+000  
  289.00  0.0000E+000  
  289.50  0.0000E+000  
  290.00  0.0000E+000  
  290.50  0.0000E+000  
  291.00  0.0000E+000  
  291.50  0.0000E+000  
  292.00  0.0000E+000  
  292.50  0.0000E+000  
  293.00  0.0000E+000  
  293.50  0.0000E+000  
  294.00  0.0000E+000  
  294.50  0.0000E+000  
  295.00  0.0000E+000  
  295.50  0.0000E+000  
  296.00  0.0000E+000  
  296.50  0.0000E+000  
  297.00  0.0000E+000  
  297.50  0.0000E+000  
  298.00  0.0000E+000  
  298.50  0.0000E+000  
  299.00  0.0000E+000  
  299.50  0.0000E+000  
  300.00  1.4141E-004  
  300.50  3.4191E-004  
  301.00  2.5225E-004  
  301.50  1.6402E-004  
  302.00  1.1381E-004  
  302.50  1.4825E-004  
  303.00  2.1289E-004  
  303.50  2.9559E-004  
  304.00  3.7120E-004  
  304.50  3.2774E-004  
  305.00  2.6311E-004  
  305.50  2.1976E-004  
  306.00  1.6824E-004  
  306.50  1.9833E-004  
  307.00  2.5447E-004  
  307.50  3.2769E-004  
  308.00  3.6441E-004  
  308.50  3.7337E-004  
  309.00  3.3516E-004  
  309.50  3.0193E-004  
  310.00  2.7757E-004  
  310.50  3.0251E-004  
  311.00  3.1009E-004  
  311.50  2.5783E-004  
  312.00  2.3513E-004  
  312.50  1.8794E-004  
  313.00  1.5943E-004  
  313.50  1.5861E-004  
  314.00  1.4129E-004  
  314.50  1.4572E-004  
  315.00  1.4583E-004  
  315.50  1.6006E-004  
  316.00  1.6926E-004  
  316.50  1.7105E-004  
  317.00  1.7629E-004  
  317.50  2.0559E-004  
  318.00  2.1463E-004  
  318.50  1.8188E-004  
  319.00  2.1167E-004  
  319.50  2.2334E-004  
  320.00  2.8830E-004  
  320.50  3.3830E-004  
  321.00  2.8578E-004  
  321.50  2.6825E-004  
  322.00  2.0149E-004  
  322.50  2.2850E-004  
  323.00  2.8664E-004  
  323.50  2.8178E-004  
  324.00  3.3134E-004  
  324.50  3.6622E-004  
  325.00  3.4421E-004  
  325.50  3.5967E-004  
  326.00  2.8655E-004  
  326.50  2.3594E-004  
  327.00  2.3504E-004  
  327.50  2.7195E-004  
  328.00  3.3529E-004  
  328.50  3.5731E-004  
  329.00  3.5385E-004  
  329.50  3.1769E-004  
  330.00  2.7087E-004  
  330.50  2.8573E-004  
  331.00  3.1594E-004  
  331.50  3.1585E-004  
  332.00  3.0101E-004  
  332.50  2.4838E-004  
  333.00  2.0319E-004  
  333.50  2.2882E-004  
  334.00  2.3788E-004  
  334.50  2.6391E-004  
  335.00  2.7368E-004  
  335.50  2.8003E-004  
  336.00  2.9212E-004  
  336.50  2.2823E-004  
  337.00  1.9441E-004  
  337.50  2.1428E-004  
  338.00  2.7774E-004  
  338.50  3.3618E-004  
  339.00  3.9456E-004  
  339.50  3.7061E-004  
  340.00  3.9987E-004  
  340.50  3.7899E-004  
  341.00  3.4273E-004  
  341.50  2.9766E-004  
  342.00  2.4437E-004  
  342.50  2.5464E-004  
  343.00  2.6827E-004  
  343.50  3.0076E-004  
  344.00  2.8743E-004  
  344.50  2.6638E-004  
  345.00  2.4413E-004  
  345.50  1.9687E-004  
  346.00  2.0381E-004  
  346.50  2.2155E-004  
  347.00  2.8769E-004  
  347.50  3.0637E-004  
  348.00  3.2754E-004  
  348.50  3.2728E-004  
  349.00  2.8854E-004  
  349.50  3.0663E-004  
  350.00  2.9320E-004  
  350.50  2.5891E-004  
  351.00  2.5055E-004  
  351.50  2.5758E-004  
  352.00  2.8910E-004  
  352.50  3.5229E-004  
  353.00  4.0034E-004  
  353.50  4.0823E-004  
  354.00  4.0469E-004  
  354.50  3.5433E-004  
  355.00  2.9981E-004  
  355.50  2.6486E-004  
  356.00  2.9069E-004  
  356.50  3.0121E-004  
  357.00  3.5033E-004  
  357.50  3.8355E-004  
  358.00  3.5047E-004  
  358.50  3.6624E-004  
  359.00  3.3798E-004  
  359.50  3.5588E-004  
  360.00  4.0527E-004  
  360.50  4.0043E-004  
  361.00  3.7125E-004  
  361.50  2.8459E-004  
  362.00  2.4197E-004  
  362.50  2.3165E-004  
  363.00  2.5979E-004  
  363.50  2.8757E-004  
  364.00  3.1615E-004  
  364.50  3.2956E-004  
  365.00  3.2098E-004  
  365.50  3.1083E-004  
  366.00  2.5420E-004  
  366.50  2.0364E-004  
  367.00  1.9342E-004  
  367.50  2.0853E-004  
  368.00  2.7115E-004  
  368.50  3.6010E-004  
  369.00  3.7665E-004  
  369.50  3.7814E-004  
  370.00  3.6230E-004  
  370.50  4.1849E-004  
  371.00  4.8454E-004  
  371.50  5.3365E-004  
  372.00  5.3177E-004  
  372.50  4.6151E-004  
  373.00  4.3847E-004  
  373.50  4.1082E-004  
  374.00  4.1645E-004  
  374.50  4.2532E-004  
  375.00  4.2339E-004  
  375.50  4.1662E-004  
  376.00  3.9410E-004  
  376.50  3.9744E-004  
  377.00  4.3697E-004  
  377.50  4.3282E-004  
  378.00  4.2417E-004  
  378.50  3.4365E-004  
  379.00  2.8187E-004  
  379.50  2.8505E-004  
  380.00  3.4029E-004  
  380.50  4.0160E-004  
  381.00  4.3329E-004  
  381.50  4.2359E-004  
  382.00  3.9412E-004  
  382.50  4.1087E-004  
  383.00  4.4629E-004  
  383.50  4.6081E-004  
  384.00  4.7375E-004  
  384.50  4.8953E-004  
  385.00  4.9035E-004  
  385.50  4.8731E-004  
  386.00  5.0978E-004  
  386.50  5.0613E-004  
  387.00  5.0251E-004  
  387.50  4.8633E-004  
  388.00  4.1489E-004  
  388.50  4.0210E-004  
  389.00  4.1846E-004  
  389.50  4.2083E-004  
  390.00  4.2593E-004  
  390.50  4.6063E-004  
  391.00  4.8064E-004  
  391.50  5.1456E-004  
  392.00  5.8780E-004  
  392.50  6.1273E-004  
  393.00  6.6361E-004  
  393.50  6.6822E-004  
  394.00  5.9444E-004  
  394.50  5.5881E-004  
  395.00  5.3507E-004  
  395.50  5.6182E-004  
  396.00  5.8047E-004  
  396.50  5.7408E-004  
  397.00  5.4482E-004  
  397.50  4.9819E-004  
  398.00  4.7733E-004  
  398.50  5.1530E-004  
  399.00  6.4911E-004  
  399.50  7.9199E-004  
  400.00  8.5325E-004  
  400.50  8.2846E-004  
  401.00  7.9198E-004  
  401.50  7.9784E-004  
  402.00  8.1851E-004  
  402.50  8.4360E-004  
  403.00  7.8324E-004  
  403.50  7.7314E-004  
  404.00  7.8173E-004  
  404.50  7.9645E-004  
  405.00  8.4195E-004  
  405.50  9.1784E-004  
  406.00  9.8214E-004  
  406.50  1.0442E-003  
  407.00  1.0581E-003  
  407.50  1.0955E-003  
  408.00  1.1833E-003  
  408.50  1.2991E-003  
  409.00  1.3897E-003  
  409.50  1.4699E-003  
  410.00  1.5152E-003  
  410.50  1.6227E-003  
  411.00  1.7651E-003  
  411.50  1.8848E-003  
  412.00  2.0006E-003  
  412.50  2.0738E-003  
  413.00  2.2321E-003  
  413.50  2.3813E-003  
  414.00  2.5719E-003  
  414.50  2.7083E-003  
  415.00  2.8135E-003  
  415.50  2.9778E-003  
  416.00  3.1865E-003  
  416.50  3.4107E-003  
  417.00  3.6614E-003  
  417.50  3.8849E-003  
  418.00  4.0805E-003  
  418.50  4.3436E-003  
  419.00  4.5966E-003  
  419.50  4.8948E-003  
  420.00  5.2799E-003  
  420.50  5.6618E-003  
  421.00  6.0172E-003  
  421.50  6.3932E-003  
  422.00  6.7713E-003  
  422.50  7.2313E-003  
  423.00  7.7366E-003  
  423.50  8.2823E-003  
  424.00  8.8365E-003  
  424.50  9.4379E-003  
  425.00  1.0032E-002  
  425.50  1.0639E-002  
  426.00  1.1283E-002  
  426.50  1.1940E-002  
  427.00  1.2623E-002  
  427.50  1.3281E-002  
  428.00  1.3980E-002  
  428.50  1.4657E-002  
  429.00  1.5434E-002  
  429.50  1.6342E-002  
  430.00  1.7280E-002  
  430.50  1.8175E-002  
  431.00  1.8993E-002  
  431.50  1.9736E-002  
  432.00  2.0677E-002  
  432.50  2.1734E-002  
  433.00  2.2786E-002  
  433.50  2.3787E-002  
  434.00  2.4778E-002  
  434.50  2.5961E-002  
  435.00  2.7199E-002  
  435.50  2.8437E-002  
  436.00  2.9655E-002  
  436.50  3.0962E-002  
  437.00  3.2406E-002  
  437.50  3.3833E-002  
  438.00  3.5284E-002  
  438.50  3.6571E-002  
  439.00  3.8054E-002  
  439.50  3.9748E-002  
  440.00  4.1594E-002  
  440.50  4.3596E-002  
  441.00  4.5418E-002  
  441.50  4.7177E-002  
  442.00  4.8831E-002  
  442.50  5.0439E-002  
  443.00  5.2078E-002  
  443.50  5.3602E-002  
  444.00  5.5052E-002  
  444.50  5.6393E-002  
  445.00  5.7691E-002  
  445.50  5.8734E-002  
  446.00  5.9609E-002  
  446.50  6.0242E-002  
  447.00  6.0678E-002  
  447.50  6.0949E-002  
  448.00  6.0982E-002  
  448.50  6.0796E-002  
  449.00  6.0572E-002  
  449.50  6.0256E-002  
  450.00  5.9690E-002  
  450.50  5.8915E-002  
  451.00  5.7971E-002  
  451.50  5.6939E-002  
  452.00  5.5956E-002  
  452.50  5.4955E-002  
  453.00  5.3730E-002  
  453.50  5.2407E-002  
  454.00  5.0976E-002  
  454.50  4.9516E-002  
  455.00  4.8392E-002  
  455.50  4.7199E-002  
  456.00  4.6009E-002  
  456.50  4.4854E-002  
  457.00  4.3713E-002  
  457.50  4.2626E-002  
  458.00  4.1566E-002  
  458.50  4.0538E-002  
  459.00  3.9577E-002  
  459.50  3.8750E-002  
  460.00  3.7999E-002  
  460.50  3.7310E-002  
  461.00  3.6644E-002  
  461.50  3.5927E-002  
  462.00  3.5197E-002  
  462.50  3.4505E-002  
  463.00  3.3818E-002  
  463.50  3.3206E-002  
  464.00  3.2515E-002  
  464.50  3.1894E-002  
  465.00  3.1266E-002  
  465.50  3.0689E-002  
  466.00  3.0110E-002  
  466.50  2.9518E-002  
  467.00  2.8918E-002  
  467.50  2.8354E-002  
  468.00  2.7808E-002  
  468.50  2.7283E-002  
  469.00  2.6796E-002  
  469.50  2.6320E-002  
  470.00  2.5879E-002  
  470.50  2.5452E-002  
  471.00  2.5059E-002  
  471.50  2.4637E-002  
  472.00  2.4237E-002  
  472.50  2.3861E-002  
  473.00  2.3584E-002  
  473.50  2.3368E-002  
  474.00  2.3237E-002  
  474.50  2.2985E-002  
  475.00  2.2672E-002  
  475.50  2.2377E-002  
  476.00  2.2137E-002  
  476.50  2.2017E-002  
  477.00  2.1895E-002  
  477.50  2.1768E-002  
  478.00  2.1600E-002  
  478.50  2.1521E-002  
  479.00  2.1419E-002  
  479.50  2.1352E-002  
  480.00  2.1316E-002  
  480.50  2.1237E-002  
  481.00  2.1202E-002  
  481.50  2.1158E-002  
  482.00  2.1161E-002  
  482.50  2.1186E-002  
  483.00  2.1229E-002  
  483.50  2.1357E-002  
  484.00  2.1536E-002  
  484.50  2.1687E-002  
  485.00  2.1770E-002  
  485.50  2.1892E-002  
  486.00  2.2022E-002  
  486.50  2.2265E-002  
  487.00  2.2479E-002  
  487.50  2.2700E-002  
  488.00  2.2966E-002  
  488.50  2.3242E-002  
  489.00  2.3568E-002  
  489.50  2.3920E-002  
  490.00  2.4301E-002  
  490.50  2.4658E-002  
  491.00  2.5031E-002  
  491.50  2.5370E-002  
  492.00  2.5809E-002  
  492.50  2.6279E-002  
  493.00  2.6777E-002  
  493.50  2.7290E-002  
  494.00  2.7754E-002  
  494.50  2.8271E-002  
  495.00  2.8823E-002  
  495.50  2.9427E-002  
  496.00  2.9997E-002  
  496.50  3.0553E-002  
  497.00  3.1169E-002  
  497.50  3.1886E-002  
  498.00  3.2580E-002  
  498.50  3.3173E-002  
  499.00  3.3763E-002  
  499.50  3.4430E-002  
  500.00  3.5258E-002  
  500.50  3.6039E-002  
  501.00  3.6775E-002  
  501.50  3.7497E-002  
  502.00  3.8253E-002  
  502.50  3.9064E-002  
  503.00  3.9894E-002  
  503.50  4.0753E-002  
  504.00  4.1654E-002  
  504.50  4.2553E-002  
  505.00  4.3380E-002  
  505.50  4.4171E-002  
  506.00  4.4981E-002  
  506.50  4.5743E-002  
  507.00  4.6519E-002  
  507.50  4.7353E-002  
  508.00  4.8260E-002  
  508.50  4.9261E-002  
  509.00  5.0182E-002  
  509.50  5.1072E-002  
  510.00  5.1973E-002  
  510.50  5.2800E-002  
  511.00  5.3686E-002  
  511.50  5.4553E-002  
  512.00  5.5468E-002  
  512.50  5.6364E-002  
  513.00  5.7191E-002  
  513.50  5.8031E-002  
  514.00  5.8929E-002  
  514.50  5.9880E-002  
  515.00  6.0768E-002  
  515.50  6.1627E-002  
  516.00  6.2477E-002  
  516.50  6.3343E-002  
  517.00  6.4238E-002  
  517.50  6.5147E-002  
  518.00  6.6029E-002  
  518.50  6.6939E-002  
  519.00  6.7798E-002  
  519.50  6.8637E-002  
  520.00  6.9433E-002  
  520.50  7.0151E-002  
  521.00  7.0847E-002  
  521.50  7.1567E-002  
  522.00  7.2380E-002  
  522.50  7.3279E-002  
  523.00  7.4175E-002  
  523.50  7.4904E-002  
  524.00  7.5654E-002  
  524.50  7.6429E-002  
  525.00  7.7219E-002  
  525.50  7.7973E-002  
  526.00  7.8617E-002  
  526.50  7.9328E-002  
  527.00  8.0045E-002  
  527.50  8.0808E-002  
  528.00  8.1529E-002  
  528.50  8.2208E-002  
  529.00  8.2902E-002  
  529.50  8.3558E-002  
  530.00  8.4242E-002  
  530.50  8.4844E-002  
  531.00  8.5439E-002  
  531.50  8.6034E-002  
  532.00  8.6736E-002  
  532.50  8.7544E-002  
  533.00  8.8251E-002  
  533.50  8.8848E-002  
  534.00  8.9281E-002  
  534.50  8.9838E-002  
  535.00  9.0448E-002  
  535.50  9.1081E-002  
  536.00  9.1701E-002  
  536.50  9.2363E-002  
  537.00  9.3088E-002  
  537.50  9.3703E-002  
  538.00  9.4265E-002  
  538.50  9.4793E-002  
  539.00  9.5386E-002  
  539.50  9.5939E-002  
  540.00  9.6496E-002  
  540.50  9.7138E-002  
  541.00  9.7659E-002  
  541.50  9.8130E-002  
  542.00  9.8583E-002  
  542.50  9.9122E-002  
  543.00  9.9730E-002  
  543.50  1.0032E-001  
  544.00  1.0086E-001  
  544.50  1.0149E-001  
  545.00  1.0207E-001  
  545.50  1.0258E-001  
  546.00  1.0313E-001  
  546.50  1.0366E-001  
  547.00  1.0426E-001  
  547.50  1.0489E-001  
  548.00  1.0548E-001  
  548.50  1.0611E-001  
  549.00  1.0660E-001  
  549.50  1.0705E-001  
  550.00  1.0750E-001  
  550.50  1.0808E-001  
  551.00  1.0876E-001  
  551.50  1.0933E-001  
  552.00  1.0988E-001  
  552.50  1.1043E-001  
  553.00  1.1097E-001  
  553.50  1.1156E-001  
  554.00  1.1196E-001  
  554.50  1.1251E-001  
  555.00  1.1294E-001  
  555.50  1.1357E-001  
  556.00  1.1419E-001  
  556.50  1.1475E-001  
  557.00  1.1531E-001  
  557.50  1.1585E-001  
  558.00  1.1649E-001  
  558.50  1.1713E-001  
  559.00  1.1781E-001  
  559.50  1.1842E-001  
  560.00  1.1897E-001  
  560.50  1.1932E-001  
  561.00  1.1964E-001  
  561.50  1.2000E-001  
  562.00  1.2059E-001  
  562.50  1.2121E-001  
  563.00  1.2176E-001  
  563.50  1.2213E-001  
  564.00  1.2248E-001  
  564.50  1.2301E-001  
  565.00  1.2362E-001  
  565.50  1.2419E-001  
  566.00  1.2463E-001  
  566.50  1.2510E-001  
  567.00  1.2547E-001  
  567.50  1.2593E-001  
  568.00  1.2638E-001  
  568.50  1.2689E-001  
  569.00  1.2736E-001  
  569.50  1.2782E-001  
  570.00  1.2835E-001  
  570.50  1.2897E-001  
  571.00  1.2957E-001  
  571.50  1.2999E-001  
  572.00  1.3040E-001  
  572.50  1.3073E-001  
  573.00  1.3118E-001  
  573.50  1.3160E-001  
  574.00  1.3215E-001  
  574.50  1.3261E-001  
  575.00  1.3316E-001  
  575.50  1.3367E-001  
  576.00  1.3420E-001  
  576.50  1.3471E-001  
  577.00  1.3517E-001  
  577.50  1.3562E-001  
  578.00  1.3608E-001  
  578.50  1.3661E-001  
  579.00  1.3711E-001  
  579.50  1.3758E-001  
  580.00  1.3799E-001  
  580.50  1.3850E-001  
  581.00  1.3893E-001  
  581.50  1.3931E-001  
  582.00  1.3965E-001  
  582.50  1.4002E-001  
  583.00  1.4046E-001  
  583.50  1.4101E-001  
  584.00  1.4147E-001  
  584.50  1.4192E-001  
  585.00  1.4226E-001  
  585.50  1.4259E-001  
  586.00  1.4300E-001  
  586.50  1.4349E-001  
  587.00  1.4386E-001  
  587.50  1.4417E-001  
  588.00  1.4459E-001  
  588.50  1.4510E-001  
  589.00  1.4570E-001  
  589.50  1.4602E-001  
  590.00  1.4633E-001  
  590.50  1.4666E-001  
  591.00  1.4703E-001  
  591.50  1.4740E-001  
  592.00  1.4760E-001  
  592.50  1.4793E-001  
  593.00  1.4833E-001  
  593.50  1.4865E-001  
  594.00  1.4897E-001  
  594.50  1.4917E-001  
  595.00  1.4953E-001  
  595.50  1.4973E-001  
  596.00  1.4990E-001  
  596.50  1.5013E-001  
  597.00  1.5043E-001  
  597.50  1.5075E-001  
  598.00  1.5100E-001  
  598.50  1.5120E-001  
  599.00  1.5144E-001  
  599.50  1.5163E-001  
  600.00  1.5187E-001  
  600.50  1.5204E-001  
  601.00  1.5215E-001  
  601.50  1.5221E-001  
  602.00  1.5234E-001  
  602.50  1.5256E-001  
  603.00  1.5265E-001  
  603.50  1.5267E-001  
  604.00  1.5279E-001  
  604.50  1.5297E-001  
  605.00  1.5308E-001  
  605.50  1.5303E-001  
  606.00  1.5296E-001  
  606.50  1.5313E-001  
  607.00  1.5329E-001  
  607.50  1.5337E-001  
  608.00  1.5319E-001  
  608.50  1.5305E-001  
  609.00  1.5306E-001  
  609.50  1.5318E-001  
  610.00  1.5313E-001  
  610.50  1.5289E-001  
  611.00  1.5269E-001  
  611.50  1.5251E-001  
  612.00  1.5247E-001  
  612.50  1.5228E-001  
  613.00  1.5221E-001  
  613.50  1.5203E-001  
  614.00  1.5205E-001  
  614.50  1.5193E-001  
  615.00  1.5188E-001  
  615.50  1.5153E-001  
  616.00  1.5120E-001  
  616.50  1.5084E-001  
  617.00  1.5066E-001  
  617.50  1.5037E-001  
  618.00  1.4997E-001  
  618.50  1.4954E-001  
  619.00  1.4921E-001  
  619.50  1.4897E-001  
  620.00  1.4871E-001  
  620.50  1.4837E-001  
  621.00  1.4810E-001  
  621.50  1.4782E-001  
  622.00  1.4740E-001  
  622.50  1.4688E-001  
  623.00  1.4633E-001  
  623.50  1.4589E-001  
  624.00  1.4530E-001  
  624.50  1.4465E-001  
  625.00  1.4411E-001  
  625.50  1.4391E-001  
  626.00  1.4349E-001  
  626.50  1.4288E-001  
  627.00  1.4226E-001  
  627.50  1.4168E-001  
  628.00  1.4118E-001  
  628.50  1.4052E-001  
  629.00  1.3993E-001  
  629.50  1.3943E-001  
  630.00  1.3904E-001  
  630.50  1.3853E-001  
  631.00  1.3796E-001  
  631.50  1.3742E-001  
  632.00  1.3676E-001  
  632.50  1.3609E-001  
  633.00  1.3525E-001  
  633.50  1.3473E-001  
  634.00  1.3439E-001  
  634.50  1.3403E-001  
  635.00  1.3340E-001  
  635.50  1.3250E-001  
  636.00  1.3156E-001  
  636.50  1.3087E-001  
  637.00  1.3015E-001  
  637.50  1.2954E-001  
  638.00  1.2882E-001  
  638.50  1.2812E-001  
  639.00  1.2741E-001  
  639.50  1.2649E-001  
  640.00  1.2566E-001  
  640.50  1.2489E-001  
  641.00  1.2417E-001  
  641.50  1.2358E-001  
  642.00  1.2290E-001  
  642.50  1.2220E-001  
  643.00  1.2118E-001  
  643.50  1.2007E-001  
  644.00  1.1910E-001  
  644.50  1.1827E-001  
  645.00  1.1770E-001  
  645.50  1.1702E-001  
  646.00  1.1636E-001  
  646.50  1.1532E-001  
  647.00  1.1437E-001  
  647.50  1.1347E-001  
  648.00  1.1273E-001  
  648.50  1.1196E-001  
  649.00  1.1104E-001  
  649.50  1.1016E-001  
  650.00  1.0929E-001  
  650.50  1.0832E-001  
  651.00  1.0723E-001  
  651.50  1.0620E-001  
  652.00  1.0530E-001  
  652.50  1.0463E-001  
  653.00  1.0390E-001  
  653.50  1.0295E-001  
  654.00  1.0195E-001  
  654.50  1.0111E-001  
  655.00  1.0040E-001  
  655.50  9.9606E-002  
  656.00  9.8674E-002  
  656.50  9.7751E-002  
  657.00  9.6789E-002  
  657.50  9.5906E-002  
  658.00  9.4956E-002  
  658.50  9.4167E-002  
  659.00  9.3322E-002  
  659.50  9.2640E-002  
  660.00  9.1788E-002  
  660.50  9.0892E-002  
  661.00  8.9790E-002  
  661.50  8.8839E-002  
  662.00  8.7878E-002  
  662.50  8.7075E-002  
  663.00  8.6206E-002  
  663.50  8.5400E-002  
  664.00  8.4594E-002  
  664.50  8.3723E-002  
  665.00  8.2761E-002  
  665.50  8.1742E-002  
  666.00  8.0853E-002  
  666.50  8.0169E-002  
  667.00  7.9395E-002  
  667.50  7.8495E-002  
  668.00  7.7418E-002  
  668.50  7.6576E-002  
  669.00  7.5815E-002  
  669.50  7.4987E-002  
  670.00  7.4144E-002  
  670.50  7.3264E-002  
  671.00  7.2544E-002  
  671.50  7.1770E-002  
  672.00  7.1003E-002  
  672.50  7.0126E-002  
  673.00  6.9296E-002  
  673.50  6.8523E-002  
  674.00  6.7768E-002  
  674.50  6.7012E-002  
  675.00  6.6230E-002  
  675.50  6.5452E-002  
  676.00  6.4614E-002  
  676.50  6.3899E-002  
  677.00  6.3288E-002  
  677.50  6.2686E-002  
  678.00  6.1917E-002  
  678.50  6.1226E-002  
  679.00  6.0522E-002  
  679.50  5.9784E-002  
  680.00  5.8906E-002  
  680.50  5.8079E-002  
  681.00  5.7377E-002  
  681.50  5.6719E-002  
  682.00  5.6021E-002  
  682.50  5.5369E-002  
  683.00  5.4744E-002  
  683.50  5.4155E-002  
  684.00  5.3519E-002  
  684.50  5.2890E-002  
  685.00  5.2319E-002  
  685.50  5.1620E-002  
  686.00  5.0960E-002  
  686.50  5.0226E-002  
  687.00  4.9718E-002  
  687.50  4.9176E-002  
  688.00  4.8611E-002  
  688.50  4.7932E-002  
  689.00  4.7217E-002  
  689.50  4.6648E-002  
  690.00  4.6176E-002  
  690.50  4.5609E-002  
  691.00  4.4923E-002  
  691.50  4.4197E-002  
  692.00  4.3699E-002  
  692.50  4.3292E-002  
  693.00  4.2800E-002  
  693.50  4.2254E-002  
  694.00  4.1722E-002  
  694.50  4.1270E-002  
  695.00  4.0774E-002  
  695.50  4.0225E-002  
  696.00  3.9585E-002  
  696.50  3.8968E-002  
  697.00  3.8449E-002  
  697.50  3.8051E-002  
  698.00  3.7527E-002  
  698.50  3.6967E-002  
  699.00  3.6380E-002  
  699.50  3.5840E-002  
  700.00  3.5298E-002  
  700.50  3.4826E-002  
  701.00  3.4529E-002  
  701.50  3.4130E-002  
  702.00  3.3593E-002  
  702.50  3.3092E-002  
  703.00  3.2763E-002  
  703.50  3.2399E-002  
  704.00  3.1997E-002  
  704.50  3.1521E-002  
  705.00  3.1094E-002  
  705.50  3.0530E-002  
  706.00  2.9989E-002  
  706.50  2.9502E-002  
  707.00  2.9197E-002  
  707.50  2.9066E-002  
  708.00  2.8841E-002  
  708.50  2.8514E-002  
  709.00  2.8120E-002  
  709.50  2.7703E-002  
  710.00  2.7211E-002  
  710.50  2.6769E-002  
  711.00  2.6329E-002  
  711.50  2.5877E-002  
  712.00  2.5419E-002  
  712.50  2.5097E-002  
  713.00  2.4741E-002  
  713.50  2.4349E-002  
  714.00  2.4033E-002  
  714.50  2.3846E-002  
  715.00  2.3620E-002  
  715.50  2.3250E-002  
  716.00  2.2799E-002  
  716.50  2.2397E-002  
  717.00  2.2126E-002  
  717.50  2.1802E-002  
  718.00  2.1531E-002  
  718.50  2.1262E-002  
  719.00  2.1073E-002  
  719.50  2.0709E-002  
  720.00  2.0296E-002  
  720.50  1.9948E-002  
  721.00  1.9620E-002  
  721.50  1.9378E-002  
  722.00  1.9043E-002  
  722.50  1.8839E-002  
  723.00  1.8688E-002  
  723.50  1.8527E-002  
  724.00  1.8245E-002  
  724.50  1.7922E-002  
  725.00  1.7659E-002  
  725.50  1.7459E-002  
  726.00  1.7160E-002  
  726.50  1.6914E-002  
  727.00  1.6565E-002  
  727.50  1.6227E-002  
  728.00  1.5963E-002  
  728.50  1.5841E-002  
  729.00  1.5696E-002  
  729.50  1.5529E-002  
  730.00  1.5351E-002  
  730.50  1.5120E-002  
  731.00  1.4759E-002  
  731.50  1.4455E-002  
  732.00  1.4211E-002  
  732.50  1.4038E-002  
  733.00  1.3862E-002  
  733.50  1.3666E-002  
  734.00  1.3425E-002  
  734.50  1.3179E-002  
  735.00  1.3077E-002  
  735.50  1.3015E-002  
  736.00  1.2817E-002  
  736.50  1.2604E-002  
  737.00  1.2481E-002  
  737.50  1.2330E-002  
  738.00  1.2081E-002  
  738.50  1.1773E-002  
  739.00  1.1581E-002  
  739.50  1.1395E-002  
  740.00  1.1237E-002  
  740.50  1.1175E-002  
  741.00  1.1193E-002  
  741.50  1.1143E-002  
  742.00  1.1000E-002  
  742.50  1.0815E-002  
  743.00  1.0668E-002  
  743.50  1.0521E-002  
  744.00  1.0271E-002  
  744.50  1.0062E-002  
  745.00  9.9203E-003  
  745.50  9.7919E-003  
  746.00  9.7066E-003  
  746.50  9.5216E-003  
  747.00  9.3729E-003  
  747.50  9.3492E-003  
  748.00  9.3670E-003  
  748.50  9.1208E-003  
  749.00  8.8775E-003  
  749.50  8.8329E-003  
  750.00  8.8821E-003  
  750.50  8.7931E-003  
  751.00  8.5852E-003  
  751.50  8.3149E-003  
  752.00  8.1228E-003  
  752.50  7.9910E-003  
  753.00  7.9359E-003  
  753.50  7.8385E-003  
  754.00  7.8746E-003  
  754.50  7.8353E-003  
  755.00  7.7297E-003  
  755.50  7.6086E-003  
  756.00  7.4947E-003  
  756.50  7.2555E-003  
  757.00  7.0709E-003  
  757.50  6.9846E-003  
  758.00  6.9812E-003  
  758.50  6.9965E-003  
  759.00  7.0312E-003  
  759.50  6.9546E-003  
  760.00  6.8028E-003  
  760.50  6.6122E-003  
  761.00  6.5395E-003  
  761.50  6.3055E-003  
  762.00  6.1373E-003  
  762.50  6.0539E-003  
  763.00  6.0516E-003  
  763.50  5.9275E-003  
  764.00  5.8207E-003  
  764.50  5.8389E-003  
  765.00  5.7818E-003  
  765.50  5.6085E-003  
  766.00  5.4748E-003  
  766.50  5.4494E-003  
  767.00  5.4421E-003  
  767.50  5.3002E-003  
  768.00  5.2019E-003  
  768.50  5.0453E-003  
  769.00  4.9636E-003  
  769.50  4.8111E-003  
  770.00  4.7056E-003  
  770.50  4.6480E-003  
  771.00  4.6828E-003  
  771.50  4.7144E-003  
  772.00  4.6408E-003  
  772.50  4.4568E-003  
  773.00  4.4014E-003  
  773.50  4.5608E-003  
  774.00  4.5843E-003  
  774.50  4.3787E-003  
  775.00  4.1433E-003  
  775.50  4.0131E-003  
  776.00  4.0346E-003  
  776.50  4.0002E-003  
  777.00  4.0021E-003  
  777.50  4.0610E-003  
  778.00  3.9976E-003  
  778.50  4.0422E-003  
  779.00  4.0048E-003  
  779.50  4.0618E-003  
  780.00  3.9626E-003  
  780.50  3.7040E-003  
  781.00  3.5350E-003  
  781.50  3.5063E-003  
  782.00  3.6509E-003  
  782.50  3.3239E-003  
  783.00  3.0823E-003  
  783.50  2.9924E-003  
  784.00  3.1706E-003  
  784.50  3.2814E-003  
  785.00  3.2718E-003  
  785.50  3.3050E-003  
  786.00  3.1612E-003  
  786.50  3.1219E-003  
  787.00  3.1631E-003  
  787.50  3.2047E-003  
  788.00  3.2518E-003  
  788.50  3.0220E-003  
  789.00  2.7069E-003  
  789.50  2.5865E-003  
  790.00  2.6145E-003  
  790.50  2.6200E-003  
  791.00  2.5470E-003  
  791.50  2.6149E-003  
  792.00  2.7786E-003  
  792.50  2.8084E-003  
  793.00  2.7522E-003  
  793.50  2.8928E-003  
  794.00  2.8942E-003  
  794.50  2.8577E-003  
  795.00  2.7924E-003  
  795.50  2.6698E-003  
  796.00  2.4208E-003  
  796.50  2.3972E-003  
  797.00  2.5334E-003  
  797.50  2.6332E-003  
  798.00  2.7332E-003  
  798.50  2.5518E-003  
  799.00  2.4094E-003  
  799.50  2.3326E-003  
  800.00  2.3016E-003  
  800.50  2.1841E-003  
  801.00  2.0218E-003  
  801.50  1.9730E-003  
  802.00  1.9363E-003  
  802.50  1.9831E-003  
  803.00  1.9076E-003  
  803.50  1.7043E-003  
  804.00  1.5635E-003  
  804.50  1.6388E-003  
  805.00  1.8167E-003  
  805.50  2.1858E-003  
  806.00  2.2772E-003  
  806.50  2.2456E-003  
  807.00  2.0299E-003  
  807.50  2.1809E-003  
  808.00  2.1206E-003  
  808.50  1.8538E-003  
  809.00  1.5528E-003  
  809.50  1.6573E-003  
  810.00  1.9273E-003  
  810.50  2.0161E-003  
  811.00  1.7024E-003  
  811.50  1.4219E-003  
  812.00  1.3785E-003  
  812.50  1.3566E-003  
  813.00  1.5189E-003  
  813.50  1.5264E-003  
  814.00  1.4141E-003  
  814.50  1.4077E-003  
  815.00  1.7536E-003  
  815.50  1.7242E-003  
  816.00  1.4304E-003  
  816.50  1.1323E-003  
  817.00  1.1696E-003  
  817.50  1.3451E-003  
  818.00  1.4339E-003  
  818.50  1.3777E-003  
  819.00  1.3632E-003  
  819.50  1.3630E-003  
  820.00  1.2249E-003  
  820.50  1.3635E-003  
  821.00  1.6124E-003  
  821.50  1.4376E-003  
  822.00  1.2557E-003  
  822.50  1.0383E-003  
  823.00  1.1044E-003  
  823.50  1.3405E-003  
  824.00  1.3870E-003  
  824.50  1.2161E-003  
  825.00  1.4025E-003  
  825.50  1.3504E-003  
  826.00  1.2315E-003  
  826.50  1.4143E-003  
  827.00  1.6044E-003  
  827.50  1.6285E-003  
  828.00  1.5020E-003  
  828.50  1.2140E-003  
  829.00  9.8913E-004  
  829.50  9.0497E-004  
  830.00  7.5603E-004  
  830.50  7.3595E-004  
  831.00  1.0536E-003  
  831.50  1.3801E-003  
  832.00  1.3275E-003  
  832.50  1.1892E-003  
  833.00  1.1447E-003  
  833.50  1.1842E-003  
  834.00  9.9021E-004  
  834.50  5.9217E-004  
  835.00  8.9552E-004  
  835.50  1.0164E-003  
  836.00  1.1569E-003  
  836.50  1.2181E-003  
  837.00  1.4948E-003  
  837.50  1.2496E-003  
  838.00  5.8078E-004  
  838.50  3.6932E-004  
  839.00  4.8610E-004  
  839.50  1.0278E-003  
  840.00  1.2996E-003  
  840.50  1.4070E-003  
  841.00  1.1785E-003  
  841.50  1.2196E-003  
  842.00  1.4263E-003  
  842.50  1.5037E-003  
  843.00  1.4996E-003  
  843.50  1.3283E-003  
  844.00  1.0332E-003  
  844.50  1.0215E-003  
  845.00  9.5071E-004  
  845.50  4.8979E-004  
  846.00  1.4011E-004  
  846.50  4.8530E-004  
  847.00  9.9431E-004  
  847.50  8.9422E-004  
  848.00  1.0679E-003  
  848.50  1.2569E-003  
  849.00  1.4155E-003  
  849.50  1.0735E-003  
  850.00  1.1535E-003  
  850.50  9.5526E-004  
  851.00  1.0806E-003  
  851.50  1.1075E-003  
  852.00  9.1421E-004  
  852.50  5.6400E-004  
  853.00  6.4175E-004  
  853.50  8.2488E-004  
  854.00  7.9250E-004  
  854.50  5.8239E-004  
  855.00  5.9166E-004  
  855.50  6.4325E-004  
  856.00  1.0009E-003  
  856.50  1.8446E-003  
  857.00  2.1276E-003  
  857.50  1.5705E-003  
  858.00  1.0361E-003  
  858.50  9.5375E-004  
  859.00  1.1116E-003  
  859.50  1.2000E-003  
  860.00  1.0029E-003  
  860.50  1.1726E-003  
  861.00  1.0203E-003  
  861.50  3.9977E-004  
  862.00  1.9337E-005  
  862.50  0.0000E+000  
  863.00  2.2220E-005  
  863.50  1.3654E-004  
  864.00  4.4009E-004  
  864.50  2.5991E-004  
  865.00  1.8053E-004  
  865.50  4.8821E-004  
  866.00  8.3905E-004  
  866.50  1.0303E-003  
  867.00  4.3653E-004  
  867.50  3.2602E-004  
  868.00  2.8441E-004  
  868.50  3.6733E-004  
  869.00  6.3689E-004  
  869.50  9.5104E-004  
  870.00  7.9596E-004  
  870.50  1.1026E-003  
  871.00  1.3985E-003  
  871.50  1.2515E-003  
  872.00  1.0688E-003  
  872.50  1.4822E-003  
  873.00  1.4043E-003  
  873.50  5.8952E-004  
  874.00  0.0000E+000  
  874.50  0.0000E+000  
  875.00  3.1208E-004  
  875.50  1.1422E-003  
  876.00  1.9621E-003  
  876.50  1.5701E-003  
  877.00  1.5034E-003  
  877.50  2.3357E-003  
  878.00  2.5921E-003  
  878.50  2.2828E-003  
  879.00  2.4082E-003  
  879.50  1.9023E-003  
  880.00  1.2061E-003  
  880.50  9.8650E-004  
  881.00  1.4933E-003  
  881.50  2.5982E-003  
  882.00  2.4309E-003  
  882.50  1.7104E-003  
  883.00  1.7054E-003  
  883.50  1.8342E-003  
  884.00  1.2257E-003  
  884.50  1.5352E-003  
  885.00  2.2098E-003  
  885.50  2.0206E-003  
  886.00  1.9940E-003  
  886.50  1.7952E-003  
  887.00  1.3885E-003  
  887.50  6.9574E-004  
  888.00  1.9422E-004  
  888.50  9.2429E-004  
  889.00  2.3678E-003  
  889.50  2.3337E-003  
  890.00  1.1977E-003  
  890.50  1.6650E-003  
  891.00  2.6381E-003  
  891.50  2.6427E-003  
  892.00  2.4222E-003  
  892.50  1.8865E-003  
  893.00  2.5421E-003  
  893.50  2.8664E-003  
  894.00  1.8263E-003  
  894.50  3.6860E-004  
  895.00  9.9639E-004  
  895.50  1.8962E-003  
  896.00  1.8436E-003  
  896.50  1.5086E-003  
  897.00  1.7195E-003  
  897.50  2.5324E-003  
  898.00  3.3644E-003  
  898.50  3.1509E-003  
  899.00  2.4375E-003  
  899.50  3.4356E-005  
