
# From lspdd.org
# 
# Name: LFC ELume PAR38 Domestique
# Indice spectral Valeur 
# MSI 0.33 
# SLI 0.46 
# IPI 0.61 
# Pourcentage de bleu 16.9 
# Caractéristique Valeur 
# CCT calculée (K) 2719 
# CCT du fabricant (K) 2700 
# Tension (V) 120 
# Puissance (W) 23.0 
# Efficacité lumineuse (Lum/W) 55.7 
#
# Image: '/app/system/img_2s/2616/medium_image2.JPG?1413486700'
# Image: '/app/system/img_1s/2616/medium_image1.JPG?1413486704'
# 

  273.00  0.0000E+000  
  273.50  0.0000E+000  
  274.00  0.0000E+000  
  274.50  0.0000E+000  
  275.00  0.0000E+000  
  275.50  0.0000E+000  
  276.00  0.0000E+000  
  276.50  0.0000E+000  
  277.00  0.0000E+000  
  277.50  0.0000E+000  
  278.00  0.0000E+000  
  278.50  0.0000E+000  
  279.00  0.0000E+000  
  279.50  0.0000E+000  
  280.00  0.0000E+000  
  280.50  0.0000E+000  
  281.00  0.0000E+000  
  281.50  0.0000E+000  
  282.00  0.0000E+000  
  282.50  0.0000E+000  
  283.00  0.0000E+000  
  283.50  0.0000E+000  
  284.00  0.0000E+000  
  284.50  0.0000E+000  
  285.00  0.0000E+000  
  285.50  0.0000E+000  
  286.00  0.0000E+000  
  286.50  0.0000E+000  
  287.00  0.0000E+000  
  287.50  0.0000E+000  
  288.00  0.0000E+000  
  288.50  0.0000E+000  
  289.00  0.0000E+000  
  289.50  0.0000E+000  
  290.00  0.0000E+000  
  290.50  0.0000E+000  
  291.00  0.0000E+000  
  291.50  0.0000E+000  
  292.00  0.0000E+000  
  292.50  0.0000E+000  
  293.00  0.0000E+000  
  293.50  0.0000E+000  
  294.00  0.0000E+000  
  294.50  0.0000E+000  
  295.00  0.0000E+000  
  295.50  0.0000E+000  
  296.00  0.0000E+000  
  296.50  0.0000E+000  
  297.00  0.0000E+000  
  297.50  0.0000E+000  
  298.00  0.0000E+000  
  298.50  0.0000E+000  
  299.00  0.0000E+000  
  299.50  0.0000E+000  
  300.00  0.0000E+000  
  300.50  0.0000E+000  
  301.00  0.0000E+000  
  301.50  0.0000E+000  
  302.00  0.0000E+000  
  302.50  0.0000E+000  
  303.00  0.0000E+000  
  303.50  0.0000E+000  
  304.00  0.0000E+000  
  304.50  0.0000E+000  
  305.00  0.0000E+000  
  305.50  0.0000E+000  
  306.00  0.0000E+000  
  306.50  0.0000E+000  
  307.00  0.0000E+000  
  307.50  0.0000E+000  
  308.00  0.0000E+000  
  308.50  0.0000E+000  
  309.00  0.0000E+000  
  309.50  0.0000E+000  
  310.00  0.0000E+000  
  310.50  0.0000E+000  
  311.00  0.0000E+000  
  311.50  0.0000E+000  
  312.00  0.0000E+000  
  312.50  0.0000E+000  
  313.00  0.0000E+000  
  313.50  0.0000E+000  
  314.00  0.0000E+000  
  314.50  0.0000E+000  
  315.00  0.0000E+000  
  315.50  0.0000E+000  
  316.00  0.0000E+000  
  316.50  0.0000E+000  
  317.00  0.0000E+000  
  317.50  0.0000E+000  
  318.00  0.0000E+000  
  318.50  0.0000E+000  
  319.00  0.0000E+000  
  319.50  0.0000E+000  
  320.00  0.0000E+000  
  320.50  0.0000E+000  
  321.00  0.0000E+000  
  321.50  0.0000E+000  
  322.00  0.0000E+000  
  322.50  0.0000E+000  
  323.00  0.0000E+000  
  323.50  0.0000E+000  
  324.00  0.0000E+000  
  324.50  0.0000E+000  
  325.00  0.0000E+000  
  325.50  0.0000E+000  
  326.00  0.0000E+000  
  326.50  0.0000E+000  
  327.00  0.0000E+000  
  327.50  0.0000E+000  
  328.00  0.0000E+000  
  328.50  0.0000E+000  
  329.00  0.0000E+000  
  329.50  0.0000E+000  
  330.00  0.0000E+000  
  330.50  0.0000E+000  
  331.00  0.0000E+000  
  331.50  0.0000E+000  
  332.00  0.0000E+000  
  332.50  0.0000E+000  
  333.00  1.6768E-005  
  333.50  7.0181E-005  
  334.00  1.0228E-004  
  334.50  6.9460E-005  
  335.00  3.1384E-005  
  335.50  3.9129E-006  
  336.00  0.0000E+000  
  336.50  0.0000E+000  
  337.00  0.0000E+000  
  337.50  0.0000E+000  
  338.00  0.0000E+000  
  338.50  0.0000E+000  
  339.00  0.0000E+000  
  339.50  1.7854E-005  
  340.00  4.5129E-005  
  340.50  1.0082E-004  
  341.00  1.1054E-004  
  341.50  1.6145E-004  
  342.00  2.1420E-004  
  342.50  2.1284E-004  
  343.00  2.0923E-004  
  343.50  1.6418E-004  
  344.00  1.2672E-004  
  344.50  1.1440E-004  
  345.00  1.4317E-004  
  345.50  1.7213E-004  
  346.00  2.5086E-004  
  346.50  3.2388E-004  
  347.00  3.6975E-004  
  347.50  3.6843E-004  
  348.00  3.6932E-004  
  348.50  3.6551E-004  
  349.00  3.5607E-004  
  349.50  3.6177E-004  
  350.00  3.7834E-004  
  350.50  3.9420E-004  
  351.00  4.2089E-004  
  351.50  4.3192E-004  
  352.00  4.5433E-004  
  352.50  5.0318E-004  
  353.00  5.3858E-004  
  353.50  5.5688E-004  
  354.00  5.9852E-004  
  354.50  6.2803E-004  
  355.00  6.8526E-004  
  355.50  7.5819E-004  
  356.00  7.6150E-004  
  356.50  7.3605E-004  
  357.00  7.3632E-004  
  357.50  7.6917E-004  
  358.00  8.6342E-004  
  358.50  9.7518E-004  
  359.00  1.0458E-003  
  359.50  1.1025E-003  
  360.00  1.1241E-003  
  360.50  1.1704E-003  
  361.00  1.2241E-003  
  361.50  1.2885E-003  
  362.00  1.4422E-003  
  362.50  1.7946E-003  
  363.00  3.8230E-003  
  363.50  9.8394E-003  
  364.00  1.9954E-002  
  364.50  3.0711E-002  
  365.00  3.6682E-002  
  365.50  3.5055E-002  
  366.00  2.6333E-002  
  366.50  1.6768E-002  
  367.00  9.4134E-003  
  367.50  5.1912E-003  
  368.00  2.9430E-003  
  368.50  1.9359E-003  
  369.00  1.5468E-003  
  369.50  1.4185E-003  
  370.00  1.3400E-003  
  370.50  1.3116E-003  
  371.00  1.2273E-003  
  371.50  1.1420E-003  
  372.00  1.0975E-003  
  372.50  1.0354E-003  
  373.00  1.0057E-003  
  373.50  9.3357E-004  
  374.00  9.1542E-004  
  374.50  9.1193E-004  
  375.00  9.6946E-004  
  375.50  1.0501E-003  
  376.00  1.1169E-003  
  376.50  1.1547E-003  
  377.00  1.1386E-003  
  377.50  1.1322E-003  
  378.00  1.1459E-003  
  378.50  1.2366E-003  
  379.00  1.3224E-003  
  379.50  1.4196E-003  
  380.00  1.4633E-003  
  380.50  1.4346E-003  
  381.00  1.4016E-003  
  381.50  1.2624E-003  
  382.00  1.1778E-003  
  382.50  1.1059E-003  
  383.00  1.0588E-003  
  383.50  1.0393E-003  
  384.00  9.9850E-004  
  384.50  9.8847E-004  
  385.00  9.7970E-004  
  385.50  1.0243E-003  
  386.00  1.0049E-003  
  386.50  1.0113E-003  
  387.00  9.8600E-004  
  387.50  9.6730E-004  
  388.00  9.4906E-004  
  388.50  9.5415E-004  
  389.00  9.4442E-004  
  389.50  9.7112E-004  
  390.00  9.9248E-004  
  390.50  1.0047E-003  
  391.00  1.0275E-003  
  391.50  1.0609E-003  
  392.00  1.0659E-003  
  392.50  1.0354E-003  
  393.00  1.0031E-003  
  393.50  9.7910E-004  
  394.00  9.7307E-004  
  394.50  9.6957E-004  
  395.00  9.5094E-004  
  395.50  9.5202E-004  
  396.00  9.5602E-004  
  396.50  9.9195E-004  
  397.00  1.0391E-003  
  397.50  1.1028E-003  
  398.00  1.1784E-003  
  398.50  1.2896E-003  
  399.00  1.3618E-003  
  399.50  1.4841E-003  
  400.00  1.6143E-003  
  400.50  1.7573E-003  
  401.00  1.9564E-003  
  401.50  2.2156E-003  
  402.00  2.7720E-003  
  402.50  5.7829E-003  
  403.00  2.0496E-002  
  403.50  4.8900E-002  
  404.00  8.0636E-002  
  404.50  9.6122E-002  
  405.00  8.7106E-002  
  405.50  5.7788E-002  
  406.00  2.9867E-002  
  406.50  1.4943E-002  
  407.00  1.1727E-002  
  407.50  1.1513E-002  
  408.00  1.0406E-002  
  408.50  7.7496E-003  
  409.00  4.8849E-003  
  409.50  3.1952E-003  
  410.00  2.5025E-003  
  410.50  2.4086E-003  
  411.00  2.3823E-003  
  411.50  2.3604E-003  
  412.00  2.3735E-003  
  412.50  2.3433E-003  
  413.00  2.3045E-003  
  413.50  2.2969E-003  
  414.00  2.2976E-003  
  414.50  2.3359E-003  
  415.00  2.3877E-003  
  415.50  2.4305E-003  
  416.00  2.5198E-003  
  416.50  2.5834E-003  
  417.00  2.6279E-003  
  417.50  2.5995E-003  
  418.00  2.5655E-003  
  418.50  2.5499E-003  
  419.00  2.5379E-003  
  419.50  2.6012E-003  
  420.00  2.6899E-003  
  420.50  2.8068E-003  
  421.00  2.8720E-003  
  421.50  2.8568E-003  
  422.00  2.8492E-003  
  422.50  2.8825E-003  
  423.00  2.9641E-003  
  423.50  3.0709E-003  
  424.00  3.1239E-003  
  424.50  3.1863E-003  
  425.00  3.2607E-003  
  425.50  3.3728E-003  
  426.00  3.5057E-003  
  426.50  3.5763E-003  
  427.00  3.6438E-003  
  427.50  3.7105E-003  
  428.00  3.7695E-003  
  428.50  3.8325E-003  
  429.00  3.9198E-003  
  429.50  4.0127E-003  
  430.00  4.1472E-003  
  430.50  4.3324E-003  
  431.00  4.5681E-003  
  431.50  4.8678E-003  
  432.00  5.2968E-003  
  432.50  5.9851E-003  
  433.00  7.3109E-003  
  433.50  1.2893E-002  
  434.00  3.5659E-002  
  434.50  9.2262E-002  
  435.00  1.6404E-001  
  435.50  2.2052E-001  
  436.00  2.1730E-001  
  436.50  1.6412E-001  
  437.00  9.4569E-002  
  437.50  4.0691E-002  
  438.00  1.6940E-002  
  438.50  1.0056E-002  
  439.00  7.6101E-003  
  439.50  6.6128E-003  
  440.00  5.9312E-003  
  440.50  5.4226E-003  
  441.00  5.0688E-003  
  441.50  4.7890E-003  
  442.00  4.6689E-003  
  442.50  4.5674E-003  
  443.00  4.5471E-003  
  443.50  4.5230E-003  
  444.00  4.4249E-003  
  444.50  4.3292E-003  
  445.00  4.2352E-003  
  445.50  4.1963E-003  
  446.00  4.2002E-003  
  446.50  4.1206E-003  
  447.00  4.0272E-003  
  447.50  3.9197E-003  
  448.00  3.8687E-003  
  448.50  3.8623E-003  
  449.00  3.8704E-003  
  449.50  3.8909E-003  
  450.00  3.8403E-003  
  450.50  3.7784E-003  
  451.00  3.7110E-003  
  451.50  3.6451E-003  
  452.00  3.6226E-003  
  452.50  3.5731E-003  
  453.00  3.5759E-003  
  453.50  3.5815E-003  
  454.00  3.5938E-003  
  454.50  3.5477E-003  
  455.00  3.4692E-003  
  455.50  3.3921E-003  
  456.00  3.2857E-003  
  456.50  3.2332E-003  
  457.00  3.2159E-003  
  457.50  3.2550E-003  
  458.00  3.2459E-003  
  458.50  3.2041E-003  
  459.00  3.1319E-003  
  459.50  3.0897E-003  
  460.00  3.1123E-003  
  460.50  3.1210E-003  
  461.00  3.1431E-003  
  461.50  3.1243E-003  
  462.00  3.0729E-003  
  462.50  3.0063E-003  
  463.00  2.9686E-003  
  463.50  2.9990E-003  
  464.00  3.0607E-003  
  464.50  3.1255E-003  
  465.00  3.1702E-003  
  465.50  3.1665E-003  
  466.00  3.1758E-003  
  466.50  3.2535E-003  
  467.00  3.3158E-003  
  467.50  3.2602E-003  
  468.00  3.1108E-003  
  468.50  2.9046E-003  
  469.00  2.7690E-003  
  469.50  2.7170E-003  
  470.00  2.6767E-003  
  470.50  2.7747E-003  
  471.00  2.8731E-003  
  471.50  2.9873E-003  
  472.00  3.0438E-003  
  472.50  3.0578E-003  
  473.00  3.0962E-003  
  473.50  3.1300E-003  
  474.00  3.1512E-003  
  474.50  3.1076E-003  
  475.00  3.0644E-003  
  475.50  3.0375E-003  
  476.00  3.0225E-003  
  476.50  3.0690E-003  
  477.00  3.1365E-003  
  477.50  3.2684E-003  
  478.00  3.4285E-003  
  478.50  3.6628E-003  
  479.00  4.0170E-003  
  479.50  4.5008E-003  
  480.00  5.1931E-003  
  480.50  6.0769E-003  
  481.00  7.2635E-003  
  481.50  8.8053E-003  
  482.00  1.0868E-002  
  482.50  1.3448E-002  
  483.00  1.6584E-002  
  483.50  2.0136E-002  
  484.00  2.3863E-002  
  484.50  2.7653E-002  
  485.00  3.1465E-002  
  485.50  3.5124E-002  
  486.00  3.8152E-002  
  486.50  3.9936E-002  
  487.00  4.0325E-002  
  487.50  3.9472E-002  
  488.00  3.7766E-002  
  488.50  3.5553E-002  
  489.00  3.3238E-002  
  489.50  3.1099E-002  
  490.00  2.9547E-002  
  490.50  2.8550E-002  
  491.00  2.7922E-002  
  491.50  2.7118E-002  
  492.00  2.5871E-002  
  492.50  2.4277E-002  
  493.00  2.2691E-002  
  493.50  2.1237E-002  
  494.00  1.9936E-002  
  494.50  1.8732E-002  
  495.00  1.7641E-002  
  495.50  1.6669E-002  
  496.00  1.5709E-002  
  496.50  1.4874E-002  
  497.00  1.4034E-002  
  497.50  1.3186E-002  
  498.00  1.2284E-002  
  498.50  1.1348E-002  
  499.00  1.0492E-002  
  499.50  9.6879E-003  
  500.00  8.9682E-003  
  500.50  8.2383E-003  
  501.00  7.5647E-003  
  501.50  6.9366E-003  
  502.00  6.3957E-003  
  502.50  5.9254E-003  
  503.00  5.4696E-003  
  503.50  5.0611E-003  
  504.00  4.7003E-003  
  504.50  4.4257E-003  
  505.00  4.1894E-003  
  505.50  3.9962E-003  
  506.00  3.8174E-003  
  506.50  3.6934E-003  
  507.00  3.6319E-003  
  507.50  3.6360E-003  
  508.00  3.7103E-003  
  508.50  3.7825E-003  
  509.00  3.8378E-003  
  509.50  3.8097E-003  
  510.00  3.7285E-003  
  510.50  3.6489E-003  
  511.00  3.6143E-003  
  511.50  3.6284E-003  
  512.00  3.6629E-003  
  512.50  3.6807E-003  
  513.00  3.6711E-003  
  513.50  3.6263E-003  
  514.00  3.5745E-003  
  514.50  3.5104E-003  
  515.00  3.4464E-003  
  515.50  3.3934E-003  
  516.00  3.3754E-003  
  516.50  3.3747E-003  
  517.00  3.3307E-003  
  517.50  3.3008E-003  
  518.00  3.2732E-003  
  518.50  3.2824E-003  
  519.00  3.2899E-003  
  519.50  3.2737E-003  
  520.00  3.2499E-003  
  520.50  3.2180E-003  
  521.00  3.1831E-003  
  521.50  3.1443E-003  
  522.00  3.1194E-003  
  522.50  3.1291E-003  
  523.00  3.1560E-003  
  523.50  3.1985E-003  
  524.00  3.2209E-003  
  524.50  3.2250E-003  
  525.00  3.2709E-003  
  525.50  3.3658E-003  
  526.00  3.4929E-003  
  526.50  3.6425E-003  
  527.00  3.7788E-003  
  527.50  3.8703E-003  
  528.00  3.9285E-003  
  528.50  3.9553E-003  
  529.00  4.0255E-003  
  529.50  4.1061E-003  
  530.00  4.2438E-003  
  530.50  4.4682E-003  
  531.00  4.8583E-003  
  531.50  5.7187E-003  
  532.00  7.1411E-003  
  532.50  9.0840E-003  
  533.00  1.0831E-002  
  533.50  1.1608E-002  
  534.00  1.1511E-002  
  534.50  1.1175E-002  
  535.00  1.1478E-002  
  535.50  1.3005E-002  
  536.00  1.5943E-002  
  536.50  2.0481E-002  
  537.00  2.6262E-002  
  537.50  3.2559E-002  
  538.00  3.9125E-002  
  538.50  4.7115E-002  
  539.00  5.9565E-002  
  539.50  7.8498E-002  
  540.00  1.0222E-001  
  540.50  1.2395E-001  
  541.00  1.3765E-001  
  541.50  1.4331E-001  
  542.00  1.4419E-001  
  542.50  1.4457E-001  
  543.00  1.4492E-001  
  543.50  1.4526E-001  
  544.00  1.4557E-001  
  544.50  1.4583E-001  
  545.00  1.4610E-001  
  545.50  1.4634E-001  
  546.00  1.4661E-001  
  546.50  1.4663E-001  
  547.00  1.4363E-001  
  547.50  1.3768E-001  
  548.00  1.2808E-001  
  548.50  1.1707E-001  
  549.00  1.0582E-001  
  549.50  9.4529E-002  
  550.00  8.3548E-002  
  550.50  7.3097E-002  
  551.00  6.3427E-002  
  551.50  5.4980E-002  
  552.00  4.7714E-002  
  552.50  4.1633E-002  
  553.00  3.6503E-002  
  553.50  3.1981E-002  
  554.00  2.7743E-002  
  554.50  2.3794E-002  
  555.00  2.0271E-002  
  555.50  1.7529E-002  
  556.00  1.5406E-002  
  556.50  1.3794E-002  
  557.00  1.2480E-002  
  557.50  1.1404E-002  
  558.00  1.0480E-002  
  558.50  9.6873E-003  
  559.00  8.9983E-003  
  559.50  8.3969E-003  
  560.00  7.9942E-003  
  560.50  7.7052E-003  
  561.00  7.4951E-003  
  561.50  7.3217E-003  
  562.00  7.1619E-003  
  562.50  7.0103E-003  
  563.00  6.7590E-003  
  563.50  6.4789E-003  
  564.00  6.1592E-003  
  564.50  5.8705E-003  
  565.00  5.6448E-003  
  565.50  5.4768E-003  
  566.00  5.3973E-003  
  566.50  5.3976E-003  
  567.00  5.4111E-003  
  567.50  5.4573E-003  
  568.00  5.4912E-003  
  568.50  5.4466E-003  
  569.00  5.3006E-003  
  569.50  4.9611E-003  
  570.00  4.5551E-003  
  570.50  4.2049E-003  
  571.00  3.9756E-003  
  571.50  3.8730E-003  
  572.00  3.8484E-003  
  572.50  3.8858E-003  
  573.00  3.9873E-003  
  573.50  4.1743E-003  
  574.00  4.5182E-003  
  574.50  5.1913E-003  
  575.00  7.8883E-003  
  575.50  1.5968E-002  
  576.00  3.0505E-002  
  576.50  4.4999E-002  
  577.00  5.1676E-002  
  577.50  4.9274E-002  
  578.00  4.7389E-002  
  578.50  5.2238E-002  
  579.00  5.8504E-002  
  579.50  5.9379E-002  
  580.00  5.4319E-002  
  580.50  4.7643E-002  
  581.00  4.3369E-002  
  581.50  4.2438E-002  
  582.00  4.5202E-002  
  582.50  4.9280E-002  
  583.00  5.2315E-002  
  583.50  5.3329E-002  
  584.00  5.2643E-002  
  584.50  5.1119E-002  
  585.00  4.9904E-002  
  585.50  5.2147E-002  
  586.00  6.0458E-002  
  586.50  7.4682E-002  
  587.00  8.6169E-002  
  587.50  8.6071E-002  
  588.00  7.3224E-002  
  588.50  5.5677E-002  
  589.00  4.2583E-002  
  589.50  3.6064E-002  
  590.00  3.5235E-002  
  590.50  3.7453E-002  
  591.00  4.2409E-002  
  591.50  5.0790E-002  
  592.00  6.2302E-002  
  592.50  7.3761E-002  
  593.00  7.9506E-002  
  593.50  7.4654E-002  
  594.00  6.2307E-002  
  594.50  4.8206E-002  
  595.00  3.8063E-002  
  595.50  3.2462E-002  
  596.00  3.0598E-002  
  596.50  3.0523E-002  
  597.00  3.1886E-002  
  597.50  3.5132E-002  
  598.00  4.0608E-002  
  598.50  4.7622E-002  
  599.00  5.3632E-002  
  599.50  5.5350E-002  
  600.00  5.2084E-002  
  600.50  4.5096E-002  
  601.00  3.7275E-002  
  601.50  3.0593E-002  
  602.00  2.6078E-002  
  602.50  2.3337E-002  
  603.00  2.2245E-002  
  603.50  2.2377E-002  
  604.00  2.3191E-002  
  604.50  2.4429E-002  
  605.00  2.5945E-002  
  605.50  2.8038E-002  
  606.00  3.1001E-002  
  606.50  3.5207E-002  
  607.00  4.1291E-002  
  607.50  4.9988E-002  
  608.00  6.3390E-002  
  608.50  8.5251E-002  
  609.00  1.1917E-001  
  609.50  1.5738E-001  
  610.00  1.8750E-001  
  610.50  2.0119E-001  
  611.00  2.0392E-001  
  611.50  2.0442E-001  
  612.00  2.0505E-001  
  612.50  2.0566E-001  
  613.00  2.0626E-001  
  613.50  2.0589E-001  
  614.00  2.0300E-001  
  614.50  1.9449E-001  
  615.00  1.7814E-001  
  615.50  1.5342E-001  
  616.00  1.2459E-001  
  616.50  9.7724E-002  
  617.00  7.7643E-002  
  617.50  6.3696E-002  
  618.00  5.4605E-002  
  618.50  4.8837E-002  
  619.00  4.5337E-002  
  619.50  4.4117E-002  
  620.00  4.4290E-002  
  620.50  4.5204E-002  
  621.00  4.6044E-002  
  621.50  4.6589E-002  
  622.00  4.7589E-002  
  622.50  4.9321E-002  
  623.00  5.1755E-002  
  623.50  5.3976E-002  
  624.00  5.5621E-002  
  624.50  5.6728E-002  
  625.00  5.7619E-002  
  625.50  5.8407E-002  
  626.00  5.8951E-002  
  626.50  5.8995E-002  
  627.00  5.8512E-002  
  627.50  5.7470E-002  
  628.00  5.6598E-002  
  628.50  5.7060E-002  
  629.00  6.0895E-002  
  629.50  6.9954E-002  
  630.00  8.4659E-002  
  630.50  9.8134E-002  
  631.00  1.0161E-001  
  631.50  8.9146E-002  
  632.00  6.7263E-002  
  632.50  4.5176E-002  
  633.00  3.0031E-002  
  633.50  2.1585E-002  
  634.00  1.7740E-002  
  634.50  1.5646E-002  
  635.00  1.4278E-002  
  635.50  1.3234E-002  
  636.00  1.2373E-002  
  636.50  1.1640E-002  
  637.00  1.0986E-002  
  637.50  1.0364E-002  
  638.00  9.8314E-003  
  638.50  9.3723E-003  
  639.00  9.0111E-003  
  639.50  8.7348E-003  
  640.00  8.5867E-003  
  640.50  8.5049E-003  
  641.00  8.4945E-003  
  641.50  8.5033E-003  
  642.00  8.6169E-003  
  642.50  8.7061E-003  
  643.00  8.7698E-003  
  643.50  8.8043E-003  
  644.00  8.8464E-003  
  644.50  8.8497E-003  
  645.00  8.7319E-003  
  645.50  8.4871E-003  
  646.00  8.2669E-003  
  646.50  8.1077E-003  
  647.00  8.0769E-003  
  647.50  8.1601E-003  
  648.00  8.5431E-003  
  648.50  9.8056E-003  
  649.00  1.2831E-002  
  649.50  1.8309E-002  
  650.00  2.4168E-002  
  650.50  2.7445E-002  
  651.00  2.5936E-002  
  651.50  2.1634E-002  
  652.00  1.7486E-002  
  652.50  1.5352E-002  
  653.00  1.4509E-002  
  653.50  1.3653E-002  
  654.00  1.2145E-002  
  654.50  1.0375E-002  
  655.00  8.9762E-003  
  655.50  8.2522E-003  
  656.00  8.1335E-003  
  656.50  8.4326E-003  
  657.00  8.9736E-003  
  657.50  9.4577E-003  
  658.00  9.4231E-003  
  658.50  8.6719E-003  
  659.00  7.5400E-003  
  659.50  6.5729E-003  
  660.00  6.1249E-003  
  660.50  6.4829E-003  
  661.00  8.2484E-003  
  661.50  1.1636E-002  
  662.00  1.5230E-002  
  662.50  1.7098E-002  
  663.00  1.6030E-002  
  663.50  1.3221E-002  
  664.00  1.0112E-002  
  664.50  7.8634E-003  
  665.00  6.5016E-003  
  665.50  5.8322E-003  
  666.00  5.5893E-003  
  666.50  5.6030E-003  
  667.00  5.7002E-003  
  667.50  5.7274E-003  
  668.00  5.5443E-003  
  668.50  5.2903E-003  
  669.00  5.0923E-003  
  669.50  4.9946E-003  
  670.00  4.9200E-003  
  670.50  4.8499E-003  
  671.00  4.8153E-003  
  671.50  4.7910E-003  
  672.00  4.6996E-003  
  672.50  4.5076E-003  
  673.00  4.2744E-003  
  673.50  4.0646E-003  
  674.00  3.9089E-003  
  674.50  3.8124E-003  
  675.00  3.7314E-003  
  675.50  3.6882E-003  
  676.00  3.6308E-003  
  676.50  3.5861E-003  
  677.00  3.5210E-003  
  677.50  3.4999E-003  
  678.00  3.6133E-003  
  678.50  3.7729E-003  
  679.00  4.0086E-003  
  679.50  4.2020E-003  
  680.00  4.4505E-003  
  680.50  4.5917E-003  
  681.00  4.6649E-003  
  681.50  4.5752E-003  
  682.00  4.3741E-003  
  682.50  4.1634E-003  
  683.00  4.0631E-003  
  683.50  4.0552E-003  
  684.00  4.1180E-003  
  684.50  4.2596E-003  
  685.00  4.6518E-003  
  685.50  5.5787E-003  
  686.00  7.4148E-003  
  686.50  1.0233E-002  
  687.00  1.3502E-002  
  687.50  1.5803E-002  
  688.00  1.6021E-002  
  688.50  1.3991E-002  
  689.00  1.0698E-002  
  689.50  7.7539E-003  
  690.00  5.7974E-003  
  690.50  4.7512E-003  
  691.00  4.0998E-003  
  691.50  3.7621E-003  
  692.00  4.1707E-003  
  692.50  6.0005E-003  
  693.00  8.7406E-003  
  693.50  1.1075E-002  
  694.00  1.1139E-002  
  694.50  8.8666E-003  
  695.00  6.0270E-003  
  695.50  4.0012E-003  
  696.00  3.2252E-003  
  696.50  2.8434E-003  
  697.00  2.4659E-003  
  697.50  2.0191E-003  
  698.00  1.7423E-003  
  698.50  1.6994E-003  
  699.00  1.8329E-003  
  699.50  1.8896E-003  
  700.00  1.9470E-003  
  700.50  2.0426E-003  
  701.00  2.2262E-003  
  701.50  2.4552E-003  
  702.00  2.7862E-003  
  702.50  3.2937E-003  
  703.00  4.1014E-003  
  703.50  5.3168E-003  
  704.00  6.8997E-003  
  704.50  9.1394E-003  
  705.00  1.2721E-002  
  705.50  1.8734E-002  
  706.00  2.6785E-002  
  706.50  3.4814E-002  
  707.00  3.9581E-002  
  707.50  4.0465E-002  
  708.00  4.0951E-002  
  708.50  4.3247E-002  
  709.00  4.4176E-002  
  709.50  3.9027E-002  
  710.00  2.9305E-002  
  710.50  2.1408E-002  
  711.00  2.0947E-002  
  711.50  2.7447E-002  
  712.00  3.4429E-002  
  712.50  3.5921E-002  
  713.00  2.9723E-002  
  713.50  1.9765E-002  
  714.00  1.1154E-002  
  714.50  5.8686E-003  
  715.00  3.3229E-003  
  715.50  2.1495E-003  
  716.00  1.5826E-003  
  716.50  1.3552E-003  
  717.00  1.2954E-003  
  717.50  1.2671E-003  
  718.00  1.2493E-003  
  718.50  1.2131E-003  
  719.00  1.1817E-003  
  719.50  1.1672E-003  
  720.00  1.1260E-003  
  720.50  1.0547E-003  
  721.00  1.0091E-003  
  721.50  9.6805E-004  
  722.00  8.4873E-004  
  722.50  6.7569E-004  
  723.00  5.6364E-004  
  723.50  6.1783E-004  
  724.00  6.7755E-004  
  724.50  7.0051E-004  
  725.00  7.2262E-004  
  725.50  7.6475E-004  
  726.00  7.9119E-004  
  726.50  7.3658E-004  
  727.00  7.4217E-004  
  727.50  7.8331E-004  
  728.00  8.0591E-004  
  728.50  7.5966E-004  
  729.00  7.9534E-004  
  729.50  9.4855E-004  
  730.00  1.2009E-003  
  730.50  1.1664E-003  
  731.00  9.0809E-004  
  731.50  5.8719E-004  
  732.00  5.0616E-004  
  732.50  5.0130E-004  
  733.00  4.8148E-004  
  733.50  4.5792E-004  
  734.00  4.1049E-004  
  734.50  3.8824E-004  
  735.00  2.4236E-004  
  735.50  1.4527E-004  
  736.00  1.2558E-004  
  736.50  2.0969E-004  
  737.00  4.6055E-004  
  737.50  9.1767E-004  
  738.00  1.5201E-003  
  738.50  1.7543E-003  
  739.00  1.4956E-003  
  739.50  9.8015E-004  
  740.00  6.7117E-004  
  740.50  7.1390E-004  
  741.00  8.1058E-004  
  741.50  1.0319E-003  
  742.00  1.3305E-003  
  742.50  1.5366E-003  
  743.00  1.4388E-003  
  743.50  1.1261E-003  
  744.00  7.1722E-004  
  744.50  2.8967E-004  
  745.00  1.1493E-004  
  745.50  1.8080E-004  
  746.00  3.8509E-004  
  746.50  6.1975E-004  
  747.00  7.7254E-004  
  747.50  6.7314E-004  
  748.00  2.5761E-004  
  748.50  6.7169E-006  
  749.00  5.9640E-005  
  749.50  7.7590E-004  
  750.00  1.6921E-003  
  750.50  2.4877E-003  
  751.00  2.8107E-003  
  751.50  2.6016E-003  
  752.00  1.7524E-003  
  752.50  8.9806E-004  
  753.00  3.0022E-004  
  753.50  1.0871E-004  
  754.00  6.2302E-005  
  754.50  8.3627E-005  
  755.00  8.1502E-005  
  755.50  0.0000E+000  
  756.00  0.0000E+000  
  756.50  3.4754E-006  
  757.00  6.4160E-005  
  757.50  1.1877E-005  
  758.00  0.0000E+000  
  758.50  0.0000E+000  
  759.00  0.0000E+000  
  759.50  0.0000E+000  
  760.00  0.0000E+000  
  760.50  0.0000E+000  
  761.00  0.0000E+000  
  761.50  1.0272E-004  
  762.00  6.6075E-004  
  762.50  2.0916E-003  
  763.00  4.4124E-003  
  763.50  5.9226E-003  
  764.00  5.3293E-003  
  764.50  3.1244E-003  
  765.00  1.1425E-003  
  765.50  1.7881E-004  
  766.00  0.0000E+000  
  766.50  0.0000E+000  
  767.00  0.0000E+000  
  767.50  0.0000E+000  
  768.00  0.0000E+000  
  768.50  0.0000E+000  
  769.00  0.0000E+000  
  769.50  0.0000E+000  
  770.00  0.0000E+000  
  770.50  0.0000E+000  
  771.00  2.0035E-004  
  771.50  8.1742E-004  
  772.00  1.4206E-003  
  772.50  1.7603E-003  
  773.00  1.5827E-003  
  773.50  1.0745E-003  
  774.00  6.1437E-004  
  774.50  1.8038E-004  
  775.00  0.0000E+000  
  775.50  0.0000E+000  
  776.00  0.0000E+000  
  776.50  0.0000E+000  
  777.00  0.0000E+000  
  777.50  0.0000E+000  
  778.00  0.0000E+000  
  778.50  0.0000E+000  
  779.00  0.0000E+000  
  779.50  0.0000E+000  
  780.00  0.0000E+000  
  780.50  0.0000E+000  
  781.00  0.0000E+000  
  781.50  0.0000E+000  
  782.00  0.0000E+000  
  782.50  0.0000E+000  
  783.00  0.0000E+000  
  783.50  0.0000E+000  
  784.00  0.0000E+000  
  784.50  0.0000E+000  
  785.00  0.0000E+000  
  785.50  0.0000E+000  
  786.00  0.0000E+000  
  786.50  0.0000E+000  
  787.00  0.0000E+000  
  787.50  0.0000E+000  
  788.00  0.0000E+000  
  788.50  0.0000E+000  
  789.00  0.0000E+000  
  789.50  0.0000E+000  
  790.00  0.0000E+000  
  790.50  0.0000E+000  
  791.00  0.0000E+000  
  791.50  0.0000E+000  
  792.00  0.0000E+000  
  792.50  0.0000E+000  
  793.00  0.0000E+000  
  793.50  0.0000E+000  
  794.00  4.7228E-004  
  794.50  1.2384E-003  
  795.00  1.5107E-003  
  795.50  1.0381E-003  
  796.00  3.5762E-004  
  796.50  0.0000E+000  
  797.00  0.0000E+000  
  797.50  0.0000E+000  
  798.00  0.0000E+000  
  798.50  0.0000E+000  
  799.00  0.0000E+000  
  799.50  0.0000E+000  
  800.00  7.5006E-004  
  800.50  2.0631E-003  
  801.00  3.0537E-003  
  801.50  2.9185E-003  
  802.00  1.8859E-003  
  802.50  6.4085E-004  
  803.00  0.0000E+000  
  803.50  0.0000E+000  
  804.00  0.0000E+000  
  804.50  0.0000E+000  
  805.00  0.0000E+000  
  805.50  0.0000E+000  
  806.00  0.0000E+000  
  806.50  0.0000E+000  
  807.00  0.0000E+000  
  807.50  0.0000E+000  
  808.00  0.0000E+000  
  808.50  1.1088E-003  
  809.00  2.8468E-003  
  809.50  4.1496E-003  
  810.00  5.6237E-003  
  810.50  8.3487E-003  
  811.00  1.1081E-002  
  811.50  1.1649E-002  
  812.00  9.1655E-003  
  812.50  5.2302E-003  
  813.00  1.7283E-003  
  813.50  0.0000E+000  
  814.00  0.0000E+000  
  814.50  0.0000E+000  
  815.00  0.0000E+000  
  815.50  0.0000E+000  
  816.00  0.0000E+000  
  816.50  0.0000E+000  
  817.00  0.0000E+000  
  817.50  0.0000E+000  
  818.00  0.0000E+000  
  818.50  0.0000E+000  
  819.00  0.0000E+000  
  819.50  0.0000E+000  
  820.00  0.0000E+000  
  820.50  0.0000E+000  
  821.00  0.0000E+000  
  821.50  0.0000E+000  
  822.00  0.0000E+000  
  822.50  0.0000E+000  
  823.00  0.0000E+000  
  823.50  0.0000E+000  
  824.00  0.0000E+000  
  824.50  0.0000E+000  
  825.00  0.0000E+000  
  825.50  7.2049E-005  
  826.00  4.9791E-004  
  826.50  3.8837E-004  
  827.00  2.4987E-004  
  827.50  0.0000E+000  
  828.00  0.0000E+000  
  828.50  0.0000E+000  
  829.00  0.0000E+000  
  829.50  0.0000E+000  
  830.00  0.0000E+000  
  830.50  0.0000E+000  
  831.00  0.0000E+000  
  831.50  0.0000E+000  
  832.00  0.0000E+000  
  832.50  0.0000E+000  
  833.00  0.0000E+000  
  833.50  0.0000E+000  
  834.00  0.0000E+000  
  834.50  0.0000E+000  
  835.00  0.0000E+000  
  835.50  0.0000E+000  
  836.00  0.0000E+000  
  836.50  0.0000E+000  
  837.00  0.0000E+000  
  837.50  0.0000E+000  
  838.00  0.0000E+000  
  838.50  0.0000E+000  
  839.00  0.0000E+000  
  839.50  7.8925E-006  
  840.00  6.1303E-004  
  840.50  2.0090E-003  
  841.00  3.3057E-003  
  841.50  3.7195E-003  
  842.00  3.5324E-003  
  842.50  2.7994E-003  
  843.00  1.8656E-003  
  843.50  7.2660E-004  
  844.00  0.0000E+000  
  844.50  0.0000E+000  
  845.00  0.0000E+000  
  845.50  0.0000E+000  
  846.00  0.0000E+000  
  846.50  0.0000E+000  
  847.00  0.0000E+000  
  847.50  0.0000E+000  
  848.00  0.0000E+000  
  848.50  0.0000E+000  
  849.00  0.0000E+000  
  849.50  0.0000E+000  
  850.00  0.0000E+000  
  850.50  0.0000E+000  
  851.00  4.6371E-006  
  851.50  2.3209E-004  
  852.00  4.4579E-004  
  852.50  0.0000E+000  
  853.00  0.0000E+000  
  853.50  0.0000E+000  
  854.00  0.0000E+000  
  854.50  0.0000E+000  
  855.00  0.0000E+000  
  855.50  0.0000E+000  
  856.00  0.0000E+000  
  856.50  0.0000E+000  
  857.00  0.0000E+000  
  857.50  0.0000E+000  
  858.00  0.0000E+000  
  858.50  0.0000E+000  
  859.00  0.0000E+000  
  859.50  0.0000E+000  
  860.00  0.0000E+000  
  860.50  0.0000E+000  
  861.00  0.0000E+000  
  861.50  0.0000E+000  
  862.00  0.0000E+000  
  862.50  0.0000E+000  
  863.00  0.0000E+000  
  863.50  0.0000E+000  
  864.00  0.0000E+000  
  864.50  0.0000E+000  
  865.00  0.0000E+000  
  865.50  0.0000E+000  
  866.00  0.0000E+000  
  866.50  0.0000E+000  
  867.00  0.0000E+000  
  867.50  0.0000E+000  
  868.00  0.0000E+000  
  868.50  0.0000E+000  
  869.00  0.0000E+000  
  869.50  3.1097E-004  
  870.00  2.7846E-003  
  870.50  5.7432E-003  
  871.00  7.1391E-003  
  871.50  6.4379E-003  
  872.00  3.9402E-003  
  872.50  1.0279E-003  
  873.00  0.0000E+000  
  873.50  0.0000E+000  
  874.00  0.0000E+000  
  874.50  0.0000E+000  
  875.00  0.0000E+000  
  875.50  0.0000E+000  
  876.00  0.0000E+000  
  876.50  0.0000E+000  
  877.00  0.0000E+000  
  877.50  0.0000E+000  
  878.00  0.0000E+000  
  878.50  0.0000E+000  
  879.00  0.0000E+000  
  879.50  0.0000E+000  
  880.00  0.0000E+000  
  880.50  0.0000E+000  
  881.00  0.0000E+000  
  881.50  0.0000E+000  
  882.00  0.0000E+000  
  882.50  0.0000E+000  
  883.00  0.0000E+000  
  883.50  0.0000E+000  
  884.00  0.0000E+000  
  884.50  0.0000E+000  
  885.00  0.0000E+000  
  885.50  0.0000E+000  
  886.00  0.0000E+000  
  886.50  0.0000E+000  
  887.00  0.0000E+000  
  887.50  0.0000E+000  
  888.00  0.0000E+000  
  888.50  0.0000E+000  
  889.00  0.0000E+000  
  889.50  0.0000E+000  
  890.00  0.0000E+000  
  890.50  0.0000E+000  
  891.00  0.0000E+000  
  891.50  0.0000E+000  
  892.00  0.0000E+000  
  892.50  0.0000E+000  
  893.00  0.0000E+000  
  893.50  0.0000E+000  
  894.00  0.0000E+000  
  894.50  0.0000E+000  
  895.00  0.0000E+000  
  895.50  0.0000E+000  
  896.00  0.0000E+000  
  896.50  0.0000E+000  
  897.00  0.0000E+000  
  897.50  0.0000E+000  
  898.00  0.0000E+000  
  898.50  0.0000E+000  
  899.00  0.0000E+000  
  899.50  0.0000E+000  
