
# From lspdd.org
# 
# Name: DEL LiteBook LiteBook-Elite 1000Lux Luminothérapie
# Indice spectral Valeur 
# MSI 0.85 
# SLI 1.08 
# IPI 0.85 
# Pourcentage de bleu 49.1 
# Caractéristique Valeur 
# CCT calculée (K) 7462 
# CCT du fabricant (K) ND 
# Tension (V) ND 
# Puissance (W) ND 
# Efficacité lumineuse (Lum/W) ND 
#
# Image: '/app/system/img_1s/2619/medium_image1.JPG?1413486715'
# 

  273.00  0.0000E+000  
  273.50  0.0000E+000  
  274.00  0.0000E+000  
  274.50  0.0000E+000  
  275.00  0.0000E+000  
  275.50  0.0000E+000  
  276.00  0.0000E+000  
  276.50  0.0000E+000  
  277.00  0.0000E+000  
  277.50  0.0000E+000  
  278.00  0.0000E+000  
  278.50  0.0000E+000  
  279.00  0.0000E+000  
  279.50  0.0000E+000  
  280.00  0.0000E+000  
  280.50  0.0000E+000  
  281.00  0.0000E+000  
  281.50  0.0000E+000  
  282.00  0.0000E+000  
  282.50  0.0000E+000  
  283.00  0.0000E+000  
  283.50  0.0000E+000  
  284.00  0.0000E+000  
  284.50  0.0000E+000  
  285.00  0.0000E+000  
  285.50  0.0000E+000  
  286.00  0.0000E+000  
  286.50  0.0000E+000  
  287.00  0.0000E+000  
  287.50  0.0000E+000  
  288.00  0.0000E+000  
  288.50  0.0000E+000  
  289.00  0.0000E+000  
  289.50  0.0000E+000  
  290.00  0.0000E+000  
  290.50  0.0000E+000  
  291.00  0.0000E+000  
  291.50  0.0000E+000  
  292.00  0.0000E+000  
  292.50  0.0000E+000  
  293.00  0.0000E+000  
  293.50  0.0000E+000  
  294.00  0.0000E+000  
  294.50  0.0000E+000  
  295.00  0.0000E+000  
  295.50  0.0000E+000  
  296.00  0.0000E+000  
  296.50  0.0000E+000  
  297.00  0.0000E+000  
  297.50  0.0000E+000  
  298.00  0.0000E+000  
  298.50  0.0000E+000  
  299.00  0.0000E+000  
  299.50  0.0000E+000  
  300.00  0.0000E+000  
  300.50  0.0000E+000  
  301.00  6.9321E-006  
  301.50  0.0000E+000  
  302.00  0.0000E+000  
  302.50  0.0000E+000  
  303.00  0.0000E+000  
  303.50  0.0000E+000  
  304.00  0.0000E+000  
  304.50  0.0000E+000  
  305.00  0.0000E+000  
  305.50  0.0000E+000  
  306.00  0.0000E+000  
  306.50  0.0000E+000  
  307.00  0.0000E+000  
  307.50  0.0000E+000  
  308.00  0.0000E+000  
  308.50  0.0000E+000  
  309.00  0.0000E+000  
  309.50  0.0000E+000  
  310.00  0.0000E+000  
  310.50  0.0000E+000  
  311.00  0.0000E+000  
  311.50  0.0000E+000  
  312.00  0.0000E+000  
  312.50  0.0000E+000  
  313.00  0.0000E+000  
  313.50  0.0000E+000  
  314.00  0.0000E+000  
  314.50  0.0000E+000  
  315.00  0.0000E+000  
  315.50  0.0000E+000  
  316.00  0.0000E+000  
  316.50  0.0000E+000  
  317.00  0.0000E+000  
  317.50  0.0000E+000  
  318.00  0.0000E+000  
  318.50  0.0000E+000  
  319.00  0.0000E+000  
  319.50  0.0000E+000  
  320.00  0.0000E+000  
  320.50  0.0000E+000  
  321.00  0.0000E+000  
  321.50  0.0000E+000  
  322.00  0.0000E+000  
  322.50  0.0000E+000  
  323.00  0.0000E+000  
  323.50  0.0000E+000  
  324.00  0.0000E+000  
  324.50  0.0000E+000  
  325.00  0.0000E+000  
  325.50  0.0000E+000  
  326.00  0.0000E+000  
  326.50  0.0000E+000  
  327.00  0.0000E+000  
  327.50  0.0000E+000  
  328.00  0.0000E+000  
  328.50  0.0000E+000  
  329.00  0.0000E+000  
  329.50  0.0000E+000  
  330.00  0.0000E+000  
  330.50  0.0000E+000  
  331.00  0.0000E+000  
  331.50  0.0000E+000  
  332.00  0.0000E+000  
  332.50  0.0000E+000  
  333.00  0.0000E+000  
  333.50  0.0000E+000  
  334.00  0.0000E+000  
  334.50  0.0000E+000  
  335.00  0.0000E+000  
  335.50  0.0000E+000  
  336.00  0.0000E+000  
  336.50  0.0000E+000  
  337.00  1.0772E-005  
  337.50  2.3515E-007  
  338.00  0.0000E+000  
  338.50  0.0000E+000  
  339.00  0.0000E+000  
  339.50  0.0000E+000  
  340.00  0.0000E+000  
  340.50  0.0000E+000  
  341.00  0.0000E+000  
  341.50  0.0000E+000  
  342.00  0.0000E+000  
  342.50  0.0000E+000  
  343.00  0.0000E+000  
  343.50  0.0000E+000  
  344.00  0.0000E+000  
  344.50  0.0000E+000  
  345.00  0.0000E+000  
  345.50  0.0000E+000  
  346.00  0.0000E+000  
  346.50  0.0000E+000  
  347.00  0.0000E+000  
  347.50  0.0000E+000  
  348.00  0.0000E+000  
  348.50  0.0000E+000  
  349.00  0.0000E+000  
  349.50  0.0000E+000  
  350.00  0.0000E+000  
  350.50  0.0000E+000  
  351.00  0.0000E+000  
  351.50  0.0000E+000  
  352.00  0.0000E+000  
  352.50  0.0000E+000  
  353.00  0.0000E+000  
  353.50  0.0000E+000  
  354.00  0.0000E+000  
  354.50  0.0000E+000  
  355.00  0.0000E+000  
  355.50  0.0000E+000  
  356.00  0.0000E+000  
  356.50  0.0000E+000  
  357.00  0.0000E+000  
  357.50  0.0000E+000  
  358.00  0.0000E+000  
  358.50  2.5422E-005  
  359.00  2.2687E-005  
  359.50  3.9684E-005  
  360.00  0.0000E+000  
  360.50  0.0000E+000  
  361.00  0.0000E+000  
  361.50  0.0000E+000  
  362.00  0.0000E+000  
  362.50  0.0000E+000  
  363.00  0.0000E+000  
  363.50  0.0000E+000  
  364.00  0.0000E+000  
  364.50  0.0000E+000  
  365.00  0.0000E+000  
  365.50  0.0000E+000  
  366.00  0.0000E+000  
  366.50  0.0000E+000  
  367.00  0.0000E+000  
  367.50  0.0000E+000  
  368.00  0.0000E+000  
  368.50  0.0000E+000  
  369.00  0.0000E+000  
  369.50  0.0000E+000  
  370.00  0.0000E+000  
  370.50  0.0000E+000  
  371.00  0.0000E+000  
  371.50  0.0000E+000  
  372.00  0.0000E+000  
  372.50  0.0000E+000  
  373.00  0.0000E+000  
  373.50  0.0000E+000  
  374.00  0.0000E+000  
  374.50  0.0000E+000  
  375.00  0.0000E+000  
  375.50  0.0000E+000  
  376.00  0.0000E+000  
  376.50  0.0000E+000  
  377.00  0.0000E+000  
  377.50  0.0000E+000  
  378.00  0.0000E+000  
  378.50  0.0000E+000  
  379.00  0.0000E+000  
  379.50  0.0000E+000  
  380.00  0.0000E+000  
  380.50  0.0000E+000  
  381.00  0.0000E+000  
  381.50  0.0000E+000  
  382.00  0.0000E+000  
  382.50  0.0000E+000  
  383.00  0.0000E+000  
  383.50  0.0000E+000  
  384.00  0.0000E+000  
  384.50  0.0000E+000  
  385.00  0.0000E+000  
  385.50  1.3590E-005  
  386.00  1.5096E-006  
  386.50  0.0000E+000  
  387.00  0.0000E+000  
  387.50  0.0000E+000  
  388.00  0.0000E+000  
  388.50  0.0000E+000  
  389.00  0.0000E+000  
  389.50  0.0000E+000  
  390.00  0.0000E+000  
  390.50  0.0000E+000  
  391.00  0.0000E+000  
  391.50  0.0000E+000  
  392.00  0.0000E+000  
  392.50  0.0000E+000  
  393.00  0.0000E+000  
  393.50  0.0000E+000  
  394.00  0.0000E+000  
  394.50  0.0000E+000  
  395.00  0.0000E+000  
  395.50  6.4758E-006  
  396.00  0.0000E+000  
  396.50  0.0000E+000  
  397.00  0.0000E+000  
  397.50  0.0000E+000  
  398.00  0.0000E+000  
  398.50  0.0000E+000  
  399.00  0.0000E+000  
  399.50  0.0000E+000  
  400.00  0.0000E+000  
  400.50  0.0000E+000  
  401.00  0.0000E+000  
  401.50  0.0000E+000  
  402.00  1.9117E-005  
  402.50  4.3389E-005  
  403.00  6.5244E-005  
  403.50  7.0979E-005  
  404.00  0.0000E+000  
  404.50  0.0000E+000  
  405.00  0.0000E+000  
  405.50  0.0000E+000  
  406.00  0.0000E+000  
  406.50  0.0000E+000  
  407.00  0.0000E+000  
  407.50  0.0000E+000  
  408.00  0.0000E+000  
  408.50  5.6306E-006  
  409.00  1.8352E-005  
  409.50  1.5469E-005  
  410.00  5.3906E-007  
  410.50  0.0000E+000  
  411.00  2.4213E-006  
  411.50  6.9009E-005  
  412.00  9.5229E-005  
  412.50  7.8969E-005  
  413.00  4.3180E-005  
  413.50  7.8677E-006  
  414.00  2.4558E-005  
  414.50  4.0196E-005  
  415.00  6.4537E-005  
  415.50  8.2329E-005  
  416.00  4.3974E-005  
  416.50  3.5541E-006  
  417.00  0.0000E+000  
  417.50  0.0000E+000  
  418.00  2.7943E-005  
  418.50  1.4898E-004  
  419.00  2.3290E-004  
  419.50  2.3937E-004  
  420.00  2.2234E-004  
  420.50  2.0426E-004  
  421.00  2.1973E-004  
  421.50  2.6384E-004  
  422.00  2.8315E-004  
  422.50  2.7320E-004  
  423.00  2.3166E-004  
  423.50  1.7559E-004  
  424.00  2.0966E-004  
  424.50  3.1370E-004  
  425.00  4.3675E-004  
  425.50  5.6232E-004  
  426.00  5.8831E-004  
  426.50  6.2986E-004  
  427.00  6.3488E-004  
  427.50  6.6074E-004  
  428.00  7.0955E-004  
  428.50  7.3731E-004  
  429.00  8.1486E-004  
  429.50  8.5276E-004  
  430.00  8.8896E-004  
  430.50  9.4826E-004  
  431.00  1.0312E-003  
  431.50  1.1584E-003  
  432.00  1.2456E-003  
  432.50  1.2637E-003  
  433.00  1.2740E-003  
  433.50  1.3090E-003  
  434.00  1.3770E-003  
  434.50  1.4260E-003  
  435.00  1.4938E-003  
  435.50  1.5834E-003  
  436.00  1.7239E-003  
  436.50  1.8440E-003  
  437.00  2.0156E-003  
  437.50  2.1593E-003  
  438.00  2.3178E-003  
  438.50  2.4388E-003  
  439.00  2.5425E-003  
  439.50  2.7362E-003  
  440.00  2.8903E-003  
  440.50  3.0359E-003  
  441.00  3.1400E-003  
  441.50  3.2462E-003  
  442.00  3.4063E-003  
  442.50  3.5925E-003  
  443.00  3.7498E-003  
  443.50  3.9357E-003  
  444.00  4.1058E-003  
  444.50  4.3124E-003  
  445.00  4.5461E-003  
  445.50  4.8318E-003  
  446.00  5.1099E-003  
  446.50  5.3602E-003  
  447.00  5.5608E-003  
  447.50  5.7593E-003  
  448.00  6.0647E-003  
  448.50  6.4170E-003  
  449.00  6.8037E-003  
  449.50  7.1636E-003  
  450.00  7.5095E-003  
  450.50  7.9057E-003  
  451.00  8.3300E-003  
  451.50  8.7144E-003  
  452.00  9.1122E-003  
  452.50  9.5491E-003  
  453.00  1.0042E-002  
  453.50  1.0564E-002  
  454.00  1.1083E-002  
  454.50  1.1594E-002  
  455.00  1.2177E-002  
  455.50  1.2812E-002  
  456.00  1.3514E-002  
  456.50  1.4206E-002  
  457.00  1.4840E-002  
  457.50  1.5430E-002  
  458.00  1.6017E-002  
  458.50  1.6669E-002  
  459.00  1.7366E-002  
  459.50  1.8072E-002  
  460.00  1.8733E-002  
  460.50  1.9365E-002  
  461.00  2.0005E-002  
  461.50  2.0576E-002  
  462.00  2.1103E-002  
  462.50  2.1566E-002  
  463.00  2.1955E-002  
  463.50  2.2342E-002  
  464.00  2.2676E-002  
  464.50  2.2992E-002  
  465.00  2.3223E-002  
  465.50  2.3331E-002  
  466.00  2.3306E-002  
  466.50  2.3153E-002  
  467.00  2.2942E-002  
  467.50  2.2748E-002  
  468.00  2.2567E-002  
  468.50  2.2332E-002  
  469.00  2.1937E-002  
  469.50  2.1454E-002  
  470.00  2.0973E-002  
  470.50  2.0534E-002  
  471.00  2.0110E-002  
  471.50  1.9615E-002  
  472.00  1.9029E-002  
  472.50  1.8462E-002  
  473.00  1.7942E-002  
  473.50  1.7470E-002  
  474.00  1.7027E-002  
  474.50  1.6537E-002  
  475.00  1.6036E-002  
  475.50  1.5581E-002  
  476.00  1.5091E-002  
  476.50  1.4620E-002  
  477.00  1.4185E-002  
  477.50  1.3794E-002  
  478.00  1.3502E-002  
  478.50  1.3248E-002  
  479.00  1.2982E-002  
  479.50  1.2657E-002  
  480.00  1.2346E-002  
  480.50  1.2058E-002  
  481.00  1.1868E-002  
  481.50  1.1695E-002  
  482.00  1.1450E-002  
  482.50  1.1136E-002  
  483.00  1.0789E-002  
  483.50  1.0517E-002  
  484.00  1.0260E-002  
  484.50  1.0048E-002  
  485.00  9.7845E-003  
  485.50  9.5136E-003  
  486.00  9.2346E-003  
  486.50  9.0013E-003  
  487.00  8.8000E-003  
  487.50  8.5893E-003  
  488.00  8.3486E-003  
  488.50  8.0589E-003  
  489.00  7.8232E-003  
  489.50  7.6390E-003  
  490.00  7.4766E-003  
  490.50  7.3042E-003  
  491.00  7.1036E-003  
  491.50  6.9096E-003  
  492.00  6.7314E-003  
  492.50  6.5703E-003  
  493.00  6.4197E-003  
  493.50  6.2837E-003  
  494.00  6.1713E-003  
  494.50  6.0504E-003  
  495.00  5.9188E-003  
  495.50  5.8163E-003  
  496.00  5.7115E-003  
  496.50  5.6478E-003  
  497.00  5.5530E-003  
  497.50  5.4585E-003  
  498.00  5.3749E-003  
  498.50  5.3168E-003  
  499.00  5.2752E-003  
  499.50  5.2305E-003  
  500.00  5.1864E-003  
  500.50  5.1425E-003  
  501.00  5.0744E-003  
  501.50  5.0037E-003  
  502.00  4.9499E-003  
  502.50  4.9298E-003  
  503.00  4.9107E-003  
  503.50  4.8915E-003  
  504.00  4.8690E-003  
  504.50  4.8367E-003  
  505.00  4.8146E-003  
  505.50  4.7908E-003  
  506.00  4.7632E-003  
  506.50  4.7505E-003  
  507.00  4.7419E-003  
  507.50  4.7563E-003  
  508.00  4.7814E-003  
  508.50  4.7954E-003  
  509.00  4.7870E-003  
  509.50  4.7754E-003  
  510.00  4.7961E-003  
  510.50  4.8317E-003  
  511.00  4.8710E-003  
  511.50  4.8953E-003  
  512.00  4.9035E-003  
  512.50  4.9418E-003  
  513.00  4.9847E-003  
  513.50  5.0057E-003  
  514.00  5.0168E-003  
  514.50  5.0227E-003  
  515.00  5.0657E-003  
  515.50  5.1067E-003  
  516.00  5.1086E-003  
  516.50  5.1182E-003  
  517.00  5.1641E-003  
  517.50  5.2625E-003  
  518.00  5.3674E-003  
  518.50  5.4540E-003  
  519.00  5.4884E-003  
  519.50  5.5341E-003  
  520.00  5.5812E-003  
  520.50  5.6378E-003  
  521.00  5.7032E-003  
  521.50  5.7457E-003  
  522.00  5.8063E-003  
  522.50  5.8608E-003  
  523.00  5.9090E-003  
  523.50  5.9432E-003  
  524.00  6.0093E-003  
  524.50  6.0710E-003  
  525.00  6.1572E-003  
  525.50  6.2062E-003  
  526.00  6.2514E-003  
  526.50  6.2948E-003  
  527.00  6.3656E-003  
  527.50  6.4323E-003  
  528.00  6.4669E-003  
  528.50  6.4850E-003  
  529.00  6.5051E-003  
  529.50  6.5866E-003  
  530.00  6.6474E-003  
  530.50  6.7246E-003  
  531.00  6.7840E-003  
  531.50  6.8349E-003  
  532.00  6.8973E-003  
  532.50  6.9278E-003  
  533.00  6.9624E-003  
  533.50  6.9804E-003  
  534.00  6.9940E-003  
  534.50  7.0486E-003  
  535.00  7.1396E-003  
  535.50  7.1841E-003  
  536.00  7.2192E-003  
  536.50  7.2141E-003  
  537.00  7.2234E-003  
  537.50  7.2522E-003  
  538.00  7.2836E-003  
  538.50  7.3325E-003  
  539.00  7.4217E-003  
  539.50  7.4965E-003  
  540.00  7.5260E-003  
  540.50  7.5022E-003  
  541.00  7.4618E-003  
  541.50  7.4682E-003  
  542.00  7.5180E-003  
  542.50  7.5412E-003  
  543.00  7.5579E-003  
  543.50  7.5706E-003  
  544.00  7.5989E-003  
  544.50  7.6113E-003  
  545.00  7.6140E-003  
  545.50  7.6365E-003  
  546.00  7.6990E-003  
  546.50  7.7810E-003  
  547.00  7.8426E-003  
  547.50  7.9010E-003  
  548.00  7.9181E-003  
  548.50  7.9364E-003  
  549.00  7.9758E-003  
  549.50  8.0062E-003  
  550.00  8.0426E-003  
  550.50  8.0347E-003  
  551.00  8.0261E-003  
  551.50  8.0350E-003  
  552.00  8.0537E-003  
  552.50  8.1053E-003  
  553.00  8.1371E-003  
  553.50  8.1784E-003  
  554.00  8.1487E-003  
  554.50  8.1509E-003  
  555.00  8.1475E-003  
  555.50  8.2163E-003  
  556.00  8.2862E-003  
  556.50  8.3064E-003  
  557.00  8.3096E-003  
  557.50  8.2971E-003  
  558.00  8.3101E-003  
  558.50  8.2878E-003  
  559.00  8.2538E-003  
  559.50  8.2318E-003  
  560.00  8.2620E-003  
  560.50  8.2962E-003  
  561.00  8.3082E-003  
  561.50  8.2908E-003  
  562.00  8.2889E-003  
  562.50  8.2950E-003  
  563.00  8.3339E-003  
  563.50  8.3428E-003  
  564.00  8.3645E-003  
  564.50  8.3456E-003  
  565.00  8.3093E-003  
  565.50  8.2697E-003  
  566.00  8.2269E-003  
  566.50  8.2150E-003  
  567.00  8.2772E-003  
  567.50  8.3145E-003  
  568.00  8.3701E-003  
  568.50  8.3365E-003  
  569.00  8.2911E-003  
  569.50  8.2500E-003  
  570.00  8.2522E-003  
  570.50  8.2257E-003  
  571.00  8.1868E-003  
  571.50  8.1210E-003  
  572.00  8.1143E-003  
  572.50  8.1658E-003  
  573.00  8.1740E-003  
  573.50  8.2068E-003  
  574.00  8.1903E-003  
  574.50  8.2327E-003  
  575.00  8.2412E-003  
  575.50  8.2032E-003  
  576.00  8.1418E-003  
  576.50  8.0899E-003  
  577.00  8.0919E-003  
  577.50  8.1080E-003  
  578.00  8.0858E-003  
  578.50  8.0424E-003  
  579.00  7.9932E-003  
  579.50  7.9766E-003  
  580.00  7.9536E-003  
  580.50  7.9159E-003  
  581.00  7.9082E-003  
  581.50  7.8963E-003  
  582.00  7.9294E-003  
  582.50  7.9317E-003  
  583.00  7.8974E-003  
  583.50  7.8872E-003  
  584.00  7.8623E-003  
  584.50  7.8422E-003  
  585.00  7.7957E-003  
  585.50  7.7492E-003  
  586.00  7.7553E-003  
  586.50  7.7668E-003  
  587.00  7.7978E-003  
  587.50  7.7488E-003  
  588.00  7.7081E-003  
  588.50  7.6073E-003  
  589.00  7.6086E-003  
  589.50  7.6187E-003  
  590.00  7.6660E-003  
  590.50  7.6538E-003  
  591.00  7.5797E-003  
  591.50  7.4986E-003  
  592.00  7.4257E-003  
  592.50  7.3939E-003  
  593.00  7.3866E-003  
  593.50  7.3918E-003  
  594.00  7.3662E-003  
  594.50  7.3065E-003  
  595.00  7.2574E-003  
  595.50  7.2169E-003  
  596.00  7.2547E-003  
  596.50  7.2571E-003  
  597.00  7.2515E-003  
  597.50  7.1975E-003  
  598.00  7.1481E-003  
  598.50  7.1117E-003  
  599.00  7.0954E-003  
  599.50  7.0647E-003  
  600.00  7.0050E-003  
  600.50  6.9449E-003  
  601.00  6.9204E-003  
  601.50  6.9053E-003  
  602.00  6.8883E-003  
  602.50  6.8117E-003  
  603.00  6.8093E-003  
  603.50  6.7677E-003  
  604.00  6.7821E-003  
  604.50  6.7348E-003  
  605.00  6.7035E-003  
  605.50  6.6641E-003  
  606.00  6.6155E-003  
  606.50  6.5800E-003  
  607.00  6.5395E-003  
  607.50  6.5151E-003  
  608.00  6.5417E-003  
  608.50  6.5745E-003  
  609.00  6.5829E-003  
  609.50  6.4742E-003  
  610.00  6.3181E-003  
  610.50  6.1967E-003  
  611.00  6.1201E-003  
  611.50  6.1120E-003  
  612.00  6.0811E-003  
  612.50  6.0528E-003  
  613.00  6.0130E-003  
  613.50  5.9607E-003  
  614.00  5.9244E-003  
  614.50  5.9139E-003  
  615.00  5.9176E-003  
  615.50  5.9255E-003  
  616.00  5.8972E-003  
  616.50  5.8281E-003  
  617.00  5.7796E-003  
  617.50  5.7207E-003  
  618.00  5.6655E-003  
  618.50  5.6135E-003  
  619.00  5.5626E-003  
  619.50  5.5616E-003  
  620.00  5.5749E-003  
  620.50  5.5959E-003  
  621.00  5.5747E-003  
  621.50  5.5142E-003  
  622.00  5.4698E-003  
  622.50  5.4150E-003  
  623.00  5.3947E-003  
  623.50  5.3522E-003  
  624.00  5.3175E-003  
  624.50  5.2863E-003  
  625.00  5.2102E-003  
  625.50  5.1370E-003  
  626.00  5.0813E-003  
  626.50  5.0880E-003  
  627.00  5.1444E-003  
  627.50  5.1112E-003  
  628.00  5.0441E-003  
  628.50  4.9561E-003  
  629.00  4.9107E-003  
  629.50  4.9063E-003  
  630.00  4.8971E-003  
  630.50  4.8635E-003  
  631.00  4.7858E-003  
  631.50  4.6978E-003  
  632.00  4.6401E-003  
  632.50  4.6141E-003  
  633.00  4.6122E-003  
  633.50  4.6237E-003  
  634.00  4.5945E-003  
  634.50  4.5742E-003  
  635.00  4.5437E-003  
  635.50  4.5497E-003  
  636.00  4.5325E-003  
  636.50  4.4494E-003  
  637.00  4.3132E-003  
  637.50  4.2164E-003  
  638.00  4.1811E-003  
  638.50  4.2057E-003  
  639.00  4.1685E-003  
  639.50  4.0883E-003  
  640.00  4.0053E-003  
  640.50  4.0135E-003  
  641.00  4.0541E-003  
  641.50  4.1127E-003  
  642.00  4.0672E-003  
  642.50  4.0352E-003  
  643.00  3.9480E-003  
  643.50  3.9097E-003  
  644.00  3.8580E-003  
  644.50  3.8600E-003  
  645.00  3.7962E-003  
  645.50  3.7214E-003  
  646.00  3.6341E-003  
  646.50  3.6425E-003  
  647.00  3.6911E-003  
  647.50  3.6948E-003  
  648.00  3.6264E-003  
  648.50  3.5314E-003  
  649.00  3.5333E-003  
  649.50  3.5812E-003  
  650.00  3.5954E-003  
  650.50  3.5421E-003  
  651.00  3.4746E-003  
  651.50  3.4582E-003  
  652.00  3.4268E-003  
  652.50  3.3451E-003  
  653.00  3.2575E-003  
  653.50  3.2251E-003  
  654.00  3.2472E-003  
  654.50  3.2549E-003  
  655.00  3.1958E-003  
  655.50  3.0813E-003  
  656.00  2.9668E-003  
  656.50  2.9364E-003  
  657.00  2.9534E-003  
  657.50  2.9770E-003  
  658.00  2.9679E-003  
  658.50  2.9654E-003  
  659.00  2.9461E-003  
  659.50  2.8411E-003  
  660.00  2.7283E-003  
  660.50  2.6983E-003  
  661.00  2.7339E-003  
  661.50  2.7483E-003  
  662.00  2.7047E-003  
  662.50  2.6506E-003  
  663.00  2.6736E-003  
  663.50  2.6179E-003  
  664.00  2.6012E-003  
  664.50  2.5398E-003  
  665.00  2.5680E-003  
  665.50  2.5536E-003  
  666.00  2.5276E-003  
  666.50  2.4984E-003  
  667.00  2.5071E-003  
  667.50  2.4880E-003  
  668.00  2.4186E-003  
  668.50  2.3265E-003  
  669.00  2.2856E-003  
  669.50  2.2505E-003  
  670.00  2.2515E-003  
  670.50  2.2159E-003  
  671.00  2.2108E-003  
  671.50  2.1255E-003  
  672.00  2.0957E-003  
  672.50  2.1017E-003  
  673.00  2.1420E-003  
  673.50  2.1125E-003  
  674.00  2.0223E-003  
  674.50  1.9647E-003  
  675.00  1.9468E-003  
  675.50  1.9774E-003  
  676.00  1.9646E-003  
  676.50  1.8943E-003  
  677.00  1.8600E-003  
  677.50  1.8306E-003  
  678.00  1.7898E-003  
  678.50  1.7450E-003  
  679.00  1.6984E-003  
  679.50  1.7243E-003  
  680.00  1.8029E-003  
  680.50  1.8412E-003  
  681.00  1.7964E-003  
  681.50  1.6466E-003  
  682.00  1.5980E-003  
  682.50  1.5694E-003  
  683.00  1.5535E-003  
  683.50  1.5132E-003  
  684.00  1.4908E-003  
  684.50  1.4998E-003  
  685.00  1.6014E-003  
  685.50  1.6938E-003  
  686.00  1.6620E-003  
  686.50  1.5378E-003  
  687.00  1.4968E-003  
  687.50  1.5403E-003  
  688.00  1.5353E-003  
  688.50  1.4513E-003  
  689.00  1.4130E-003  
  689.50  1.3978E-003  
  690.00  1.3867E-003  
  690.50  1.3525E-003  
  691.00  1.3670E-003  
  691.50  1.2927E-003  
  692.00  1.2454E-003  
  692.50  1.2402E-003  
  693.00  1.3206E-003  
  693.50  1.3145E-003  
  694.00  1.2360E-003  
  694.50  1.1421E-003  
  695.00  1.0728E-003  
  695.50  1.0228E-003  
  696.00  1.0832E-003  
  696.50  1.1260E-003  
  697.00  1.0863E-003  
  697.50  9.8109E-004  
  698.00  9.0647E-004  
  698.50  9.0686E-004  
  699.00  9.0358E-004  
  699.50  8.5297E-004  
  700.00  8.1978E-004  
  700.50  8.5720E-004  
  701.00  9.3285E-004  
  701.50  1.0008E-003  
  702.00  1.0903E-003  
  702.50  1.1352E-003  
  703.00  1.0803E-003  
  703.50  9.6055E-004  
  704.00  8.5966E-004  
  704.50  7.3892E-004  
  705.00  6.5690E-004  
  705.50  6.7731E-004  
  706.00  7.4962E-004  
  706.50  7.6415E-004  
  707.00  7.5382E-004  
  707.50  8.2886E-004  
  708.00  8.3852E-004  
  708.50  7.6539E-004  
  709.00  5.9667E-004  
  709.50  6.0274E-004  
  710.00  6.4796E-004  
  710.50  7.6500E-004  
  711.00  8.4201E-004  
  711.50  8.9495E-004  
  712.00  8.0616E-004  
  712.50  7.2889E-004  
  713.00  6.7910E-004  
  713.50  6.8398E-004  
  714.00  6.5248E-004  
  714.50  6.0466E-004  
  715.00  6.1019E-004  
  715.50  6.0924E-004  
  716.00  6.3270E-004  
  716.50  6.1149E-004  
  717.00  6.3059E-004  
  717.50  6.7546E-004  
  718.00  7.2249E-004  
  718.50  7.3435E-004  
  719.00  7.2110E-004  
  719.50  6.0032E-004  
  720.00  4.4959E-004  
  720.50  3.2310E-004  
  721.00  2.3649E-004  
  721.50  2.7276E-004  
  722.00  4.0013E-004  
  722.50  6.2186E-004  
  723.00  6.6920E-004  
  723.50  5.8941E-004  
  724.00  4.4921E-004  
  724.50  4.4694E-004  
  725.00  4.7015E-004  
  725.50  4.7061E-004  
  726.00  4.5497E-004  
  726.50  4.9838E-004  
  727.00  5.5161E-004  
  727.50  5.6138E-004  
  728.00  5.5065E-004  
  728.50  4.8869E-004  
  729.00  5.0951E-004  
  729.50  4.7484E-004  
  730.00  4.7482E-004  
  730.50  4.5837E-004  
  731.00  4.5263E-004  
  731.50  4.2842E-004  
  732.00  4.4884E-004  
  732.50  5.0753E-004  
  733.00  4.7939E-004  
  733.50  4.1538E-004  
  734.00  3.3114E-004  
  734.50  3.2786E-004  
  735.00  3.4302E-004  
  735.50  2.7750E-004  
  736.00  2.0767E-004  
  736.50  2.6933E-004  
  737.00  3.8185E-004  
  737.50  4.3735E-004  
  738.00  3.1213E-004  
  738.50  2.2079E-004  
  739.00  1.2598E-004  
  739.50  1.7037E-004  
  740.00  2.3577E-004  
  740.50  3.6136E-004  
  741.00  3.1852E-004  
  741.50  2.8736E-004  
  742.00  1.7718E-004  
  742.50  1.8071E-004  
  743.00  1.4881E-004  
  743.50  1.0852E-004  
  744.00  7.5044E-005  
  744.50  6.5598E-005  
  745.00  1.1845E-004  
  745.50  1.3203E-004  
  746.00  3.5160E-005  
  746.50  8.7351E-006  
  747.00  2.8057E-006  
  747.50  6.3146E-005  
  748.00  9.9924E-005  
  748.50  1.1095E-004  
  749.00  2.0553E-004  
  749.50  2.2229E-004  
  750.00  2.0694E-004  
  750.50  1.7223E-004  
  751.00  2.5627E-004  
  751.50  1.9838E-004  
  752.00  1.6396E-004  
  752.50  1.9060E-004  
  753.00  2.4973E-004  
  753.50  1.4734E-004  
  754.00  1.0830E-004  
  754.50  1.1874E-004  
  755.00  1.2334E-004  
  755.50  6.5188E-005  
  756.00  1.3200E-004  
  756.50  1.6339E-004  
  757.00  1.6329E-004  
  757.50  1.1147E-004  
  758.00  1.2404E-004  
  758.50  1.4464E-004  
  759.00  1.9365E-004  
  759.50  1.4213E-004  
  760.00  4.8463E-006  
  760.50  0.0000E+000  
  761.00  0.0000E+000  
  761.50  0.0000E+000  
  762.00  0.0000E+000  
  762.50  0.0000E+000  
  763.00  0.0000E+000  
  763.50  0.0000E+000  
  764.00  1.2510E-005  
  764.50  1.5353E-004  
  765.00  1.8304E-004  
  765.50  7.7419E-005  
  766.00  0.0000E+000  
  766.50  0.0000E+000  
  767.00  0.0000E+000  
  767.50  4.1277E-005  
  768.00  0.0000E+000  
  768.50  0.0000E+000  
  769.00  1.1653E-005  
  769.50  0.0000E+000  
  770.00  0.0000E+000  
  770.50  0.0000E+000  
  771.00  0.0000E+000  
  771.50  1.8709E-005  
  772.00  9.1518E-005  
  772.50  2.6024E-004  
  773.00  3.2460E-004  
  773.50  1.6905E-004  
  774.00  1.9015E-007  
  774.50  0.0000E+000  
  775.00  0.0000E+000  
  775.50  0.0000E+000  
  776.00  2.0734E-005  
  776.50  6.6005E-005  
  777.00  9.8699E-005  
  777.50  2.4946E-005  
  778.00  0.0000E+000  
  778.50  0.0000E+000  
  779.00  0.0000E+000  
  779.50  0.0000E+000  
  780.00  0.0000E+000  
  780.50  0.0000E+000  
  781.00  6.0899E-005  
  781.50  1.4511E-004  
  782.00  1.0841E-004  
  782.50  6.7601E-007  
  783.00  0.0000E+000  
  783.50  0.0000E+000  
  784.00  0.0000E+000  
  784.50  0.0000E+000  
  785.00  0.0000E+000  
  785.50  0.0000E+000  
  786.00  0.0000E+000  
  786.50  0.0000E+000  
  787.00  1.1744E-005  
  787.50  8.9291E-005  
  788.00  4.1245E-005  
  788.50  1.0830E-005  
  789.00  5.4894E-005  
  789.50  1.3355E-004  
  790.00  3.4769E-005  
  790.50  0.0000E+000  
  791.00  0.0000E+000  
  791.50  0.0000E+000  
  792.00  0.0000E+000  
  792.50  0.0000E+000  
  793.00  0.0000E+000  
  793.50  0.0000E+000  
  794.00  0.0000E+000  
  794.50  0.0000E+000  
  795.00  0.0000E+000  
  795.50  0.0000E+000  
  796.00  0.0000E+000  
  796.50  0.0000E+000  
  797.00  3.4684E-005  
  797.50  1.5925E-004  
  798.00  2.5417E-004  
  798.50  2.3281E-004  
  799.00  3.8393E-006  
  799.50  0.0000E+000  
  800.00  0.0000E+000  
  800.50  0.0000E+000  
  801.00  0.0000E+000  
  801.50  0.0000E+000  
  802.00  0.0000E+000  
  802.50  0.0000E+000  
  803.00  0.0000E+000  
  803.50  1.0474E-004  
  804.00  2.2551E-004  
  804.50  2.9666E-004  
  805.00  5.9517E-005  
  805.50  0.0000E+000  
  806.00  0.0000E+000  
  806.50  0.0000E+000  
  807.00  0.0000E+000  
  807.50  0.0000E+000  
  808.00  0.0000E+000  
  808.50  0.0000E+000  
  809.00  0.0000E+000  
  809.50  0.0000E+000  
  810.00  0.0000E+000  
  810.50  0.0000E+000  
  811.00  0.0000E+000  
  811.50  0.0000E+000  
  812.00  0.0000E+000  
  812.50  0.0000E+000  
  813.00  0.0000E+000  
  813.50  0.0000E+000  
  814.00  0.0000E+000  
  814.50  0.0000E+000  
  815.00  0.0000E+000  
  815.50  0.0000E+000  
  816.00  0.0000E+000  
  816.50  0.0000E+000  
  817.00  0.0000E+000  
  817.50  0.0000E+000  
  818.00  0.0000E+000  
  818.50  0.0000E+000  
  819.00  0.0000E+000  
  819.50  0.0000E+000  
  820.00  0.0000E+000  
  820.50  0.0000E+000  
  821.00  0.0000E+000  
  821.50  0.0000E+000  
  822.00  0.0000E+000  
  822.50  0.0000E+000  
  823.00  0.0000E+000  
  823.50  0.0000E+000  
  824.00  6.7485E-005  
  824.50  4.4627E-004  
  825.00  3.7953E-004  
  825.50  3.3594E-005  
  826.00  0.0000E+000  
  826.50  0.0000E+000  
  827.00  0.0000E+000  
  827.50  0.0000E+000  
  828.00  0.0000E+000  
  828.50  0.0000E+000  
  829.00  0.0000E+000  
  829.50  0.0000E+000  
  830.00  0.0000E+000  
  830.50  0.0000E+000  
  831.00  0.0000E+000  
  831.50  0.0000E+000  
  832.00  0.0000E+000  
  832.50  0.0000E+000  
  833.00  0.0000E+000  
  833.50  0.0000E+000  
  834.00  0.0000E+000  
  834.50  0.0000E+000  
  835.00  0.0000E+000  
  835.50  0.0000E+000  
  836.00  0.0000E+000  
  836.50  0.0000E+000  
  837.00  0.0000E+000  
  837.50  0.0000E+000  
  838.00  0.0000E+000  
  838.50  0.0000E+000  
  839.00  0.0000E+000  
  839.50  0.0000E+000  
  840.00  0.0000E+000  
  840.50  0.0000E+000  
  841.00  0.0000E+000  
  841.50  0.0000E+000  
  842.00  0.0000E+000  
  842.50  0.0000E+000  
  843.00  0.0000E+000  
  843.50  0.0000E+000  
  844.00  0.0000E+000  
  844.50  0.0000E+000  
  845.00  0.0000E+000  
  845.50  0.0000E+000  
  846.00  0.0000E+000  
  846.50  0.0000E+000  
  847.00  0.0000E+000  
  847.50  0.0000E+000  
  848.00  0.0000E+000  
  848.50  0.0000E+000  
  849.00  0.0000E+000  
  849.50  0.0000E+000  
  850.00  0.0000E+000  
  850.50  0.0000E+000  
  851.00  0.0000E+000  
  851.50  0.0000E+000  
  852.00  0.0000E+000  
  852.50  0.0000E+000  
  853.00  0.0000E+000  
  853.50  0.0000E+000  
  854.00  0.0000E+000  
  854.50  0.0000E+000  
  855.00  0.0000E+000  
  855.50  0.0000E+000  
  856.00  0.0000E+000  
  856.50  0.0000E+000  
  857.00  0.0000E+000  
  857.50  0.0000E+000  
  858.00  0.0000E+000  
  858.50  0.0000E+000  
  859.00  0.0000E+000  
  859.50  0.0000E+000  
  860.00  0.0000E+000  
  860.50  0.0000E+000  
  861.00  0.0000E+000  
  861.50  0.0000E+000  
  862.00  0.0000E+000  
  862.50  0.0000E+000  
  863.00  0.0000E+000  
  863.50  0.0000E+000  
  864.00  0.0000E+000  
  864.50  0.0000E+000  
  865.00  0.0000E+000  
  865.50  0.0000E+000  
  866.00  0.0000E+000  
  866.50  0.0000E+000  
  867.00  0.0000E+000  
  867.50  0.0000E+000  
  868.00  0.0000E+000  
  868.50  0.0000E+000  
  869.00  0.0000E+000  
  869.50  0.0000E+000  
  870.00  0.0000E+000  
  870.50  0.0000E+000  
  871.00  0.0000E+000  
  871.50  0.0000E+000  
  872.00  0.0000E+000  
  872.50  0.0000E+000  
  873.00  0.0000E+000  
  873.50  0.0000E+000  
  874.00  0.0000E+000  
  874.50  0.0000E+000  
  875.00  0.0000E+000  
  875.50  0.0000E+000  
  876.00  0.0000E+000  
  876.50  0.0000E+000  
  877.00  0.0000E+000  
  877.50  0.0000E+000  
  878.00  0.0000E+000  
  878.50  0.0000E+000  
  879.00  0.0000E+000  
  879.50  0.0000E+000  
  880.00  0.0000E+000  
  880.50  0.0000E+000  
  881.00  2.5852E-004  
  881.50  0.0000E+000  
  882.00  0.0000E+000  
  882.50  0.0000E+000  
  883.00  0.0000E+000  
  883.50  1.9823E-005  
  884.00  0.0000E+000  
  884.50  0.0000E+000  
  885.00  0.0000E+000  
  885.50  0.0000E+000  
  886.00  0.0000E+000  
  886.50  0.0000E+000  
  887.00  0.0000E+000  
  887.50  0.0000E+000  
  888.00  0.0000E+000  
  888.50  0.0000E+000  
  889.00  0.0000E+000  
  889.50  0.0000E+000  
  890.00  0.0000E+000  
  890.50  0.0000E+000  
  891.00  0.0000E+000  
  891.50  0.0000E+000  
  892.00  0.0000E+000  
  892.50  0.0000E+000  
  893.00  4.5517E-005  
  893.50  5.5563E-004  
  894.00  8.5535E-005  
  894.50  0.0000E+000  
  895.00  0.0000E+000  
  895.50  0.0000E+000  
  896.00  0.0000E+000  
  896.50  0.0000E+000  
  897.00  0.0000E+000  
  897.50  0.0000E+000  
  898.00  0.0000E+000  
  898.50  0.0000E+000  
  899.00  0.0000E+000  
  899.50  0.0000E+000  
