
# From lspdd.org
# 
# Name: Halo Globe A19 Domestique
# Indice spectral Valeur 
# MSI 0.30 
# SLI 0.53 
# IPI 0.90 
# Pourcentage de bleu 14.0 
# Caractéristique Valeur 
# CCT calculée (K) 2783 
# CCT du fabricant (K) 2800 
# Tension (V) 120 
# Puissance (W) 29.0 
# Efficacité lumineuse (Lum/W) 11.9 
#
# Image: '/app/system/img_2s/2620/medium_image2.JPG?1413486719'
# Image: '/app/system/img_1s/2620/medium_image1.JPG?1413486723'
# 

  273.00  0.0000E+000  
  273.50  0.0000E+000  
  274.00  0.0000E+000  
  274.50  0.0000E+000  
  275.00  0.0000E+000  
  275.50  0.0000E+000  
  276.00  0.0000E+000  
  276.50  0.0000E+000  
  277.00  0.0000E+000  
  277.50  0.0000E+000  
  278.00  0.0000E+000  
  278.50  0.0000E+000  
  279.00  0.0000E+000  
  279.50  0.0000E+000  
  280.00  0.0000E+000  
  280.50  0.0000E+000  
  281.00  0.0000E+000  
  281.50  0.0000E+000  
  282.00  0.0000E+000  
  282.50  0.0000E+000  
  283.00  0.0000E+000  
  283.50  0.0000E+000  
  284.00  0.0000E+000  
  284.50  0.0000E+000  
  285.00  0.0000E+000  
  285.50  0.0000E+000  
  286.00  0.0000E+000  
  286.50  0.0000E+000  
  287.00  0.0000E+000  
  287.50  0.0000E+000  
  288.00  0.0000E+000  
  288.50  0.0000E+000  
  289.00  0.0000E+000  
  289.50  0.0000E+000  
  290.00  0.0000E+000  
  290.50  0.0000E+000  
  291.00  0.0000E+000  
  291.50  0.0000E+000  
  292.00  0.0000E+000  
  292.50  0.0000E+000  
  293.00  0.0000E+000  
  293.50  0.0000E+000  
  294.00  0.0000E+000  
  294.50  0.0000E+000  
  295.00  0.0000E+000  
  295.50  0.0000E+000  
  296.00  0.0000E+000  
  296.50  0.0000E+000  
  297.00  0.0000E+000  
  297.50  0.0000E+000  
  298.00  0.0000E+000  
  298.50  0.0000E+000  
  299.00  0.0000E+000  
  299.50  0.0000E+000  
  300.00  0.0000E+000  
  300.50  0.0000E+000  
  301.00  0.0000E+000  
  301.50  0.0000E+000  
  302.00  0.0000E+000  
  302.50  0.0000E+000  
  303.00  0.0000E+000  
  303.50  0.0000E+000  
  304.00  0.0000E+000  
  304.50  0.0000E+000  
  305.00  0.0000E+000  
  305.50  0.0000E+000  
  306.00  0.0000E+000  
  306.50  0.0000E+000  
  307.00  0.0000E+000  
  307.50  0.0000E+000  
  308.00  0.0000E+000  
  308.50  0.0000E+000  
  309.00  0.0000E+000  
  309.50  0.0000E+000  
  310.00  0.0000E+000  
  310.50  0.0000E+000  
  311.00  0.0000E+000  
  311.50  0.0000E+000  
  312.00  0.0000E+000  
  312.50  0.0000E+000  
  313.00  0.0000E+000  
  313.50  0.0000E+000  
  314.00  0.0000E+000  
  314.50  0.0000E+000  
  315.00  0.0000E+000  
  315.50  0.0000E+000  
  316.00  0.0000E+000  
  316.50  0.0000E+000  
  317.00  0.0000E+000  
  317.50  0.0000E+000  
  318.00  0.0000E+000  
  318.50  0.0000E+000  
  319.00  0.0000E+000  
  319.50  0.0000E+000  
  320.00  0.0000E+000  
  320.50  0.0000E+000  
  321.00  0.0000E+000  
  321.50  0.0000E+000  
  322.00  0.0000E+000  
  322.50  0.0000E+000  
  323.00  0.0000E+000  
  323.50  0.0000E+000  
  324.00  0.0000E+000  
  324.50  0.0000E+000  
  325.00  0.0000E+000  
  325.50  0.0000E+000  
  326.00  0.0000E+000  
  326.50  0.0000E+000  
  327.00  0.0000E+000  
  327.50  0.0000E+000  
  328.00  0.0000E+000  
  328.50  0.0000E+000  
  329.00  0.0000E+000  
  329.50  0.0000E+000  
  330.00  0.0000E+000  
  330.50  0.0000E+000  
  331.00  0.0000E+000  
  331.50  6.3130E-006  
  332.00  2.8370E-005  
  332.50  7.5114E-006  
  333.00  0.0000E+000  
  333.50  0.0000E+000  
  334.00  0.0000E+000  
  334.50  0.0000E+000  
  335.00  0.0000E+000  
  335.50  0.0000E+000  
  336.00  0.0000E+000  
  336.50  0.0000E+000  
  337.00  0.0000E+000  
  337.50  0.0000E+000  
  338.00  0.0000E+000  
  338.50  0.0000E+000  
  339.00  0.0000E+000  
  339.50  0.0000E+000  
  340.00  0.0000E+000  
  340.50  0.0000E+000  
  341.00  0.0000E+000  
  341.50  0.0000E+000  
  342.00  0.0000E+000  
  342.50  0.0000E+000  
  343.00  0.0000E+000  
  343.50  0.0000E+000  
  344.00  0.0000E+000  
  344.50  0.0000E+000  
  345.00  0.0000E+000  
  345.50  0.0000E+000  
  346.00  0.0000E+000  
  346.50  0.0000E+000  
  347.00  0.0000E+000  
  347.50  0.0000E+000  
  348.00  0.0000E+000  
  348.50  0.0000E+000  
  349.00  0.0000E+000  
  349.50  0.0000E+000  
  350.00  0.0000E+000  
  350.50  0.0000E+000  
  351.00  0.0000E+000  
  351.50  0.0000E+000  
  352.00  9.7287E-006  
  352.50  6.8778E-006  
  353.00  1.3233E-005  
  353.50  2.7525E-005  
  354.00  0.0000E+000  
  354.50  0.0000E+000  
  355.00  0.0000E+000  
  355.50  0.0000E+000  
  356.00  1.3300E-005  
  356.50  4.7621E-005  
  357.00  8.3421E-005  
  357.50  1.2198E-004  
  358.00  1.0268E-004  
  358.50  6.6680E-005  
  359.00  1.0848E-005  
  359.50  0.0000E+000  
  360.00  0.0000E+000  
  360.50  0.0000E+000  
  361.00  0.0000E+000  
  361.50  0.0000E+000  
  362.00  0.0000E+000  
  362.50  1.0489E-005  
  363.00  4.4069E-006  
  363.50  1.7593E-006  
  364.00  1.0160E-005  
  364.50  0.0000E+000  
  365.00  0.0000E+000  
  365.50  0.0000E+000  
  366.00  0.0000E+000  
  366.50  1.1265E-005  
  367.00  2.5272E-005  
  367.50  1.7951E-005  
  368.00  4.6229E-005  
  368.50  9.2127E-005  
  369.00  1.2795E-004  
  369.50  1.6612E-004  
  370.00  1.7874E-004  
  370.50  1.5870E-004  
  371.00  1.5680E-004  
  371.50  1.3316E-004  
  372.00  8.3083E-005  
  372.50  6.1199E-005  
  373.00  2.0327E-005  
  373.50  0.0000E+000  
  374.00  0.0000E+000  
  374.50  2.5679E-006  
  375.00  2.7835E-005  
  375.50  6.0040E-005  
  376.00  8.5790E-005  
  376.50  8.0439E-005  
  377.00  6.3291E-005  
  377.50  3.5586E-005  
  378.00  1.5437E-006  
  378.50  0.0000E+000  
  379.00  0.0000E+000  
  379.50  0.0000E+000  
  380.00  2.4381E-005  
  380.50  5.2982E-005  
  381.00  8.4878E-005  
  381.50  1.3602E-004  
  382.00  1.5794E-004  
  382.50  1.5373E-004  
  383.00  1.3568E-004  
  383.50  9.8696E-005  
  384.00  6.5937E-005  
  384.50  8.9234E-005  
  385.00  1.1656E-004  
  385.50  1.7078E-004  
  386.00  2.1380E-004  
  386.50  2.2007E-004  
  387.00  2.6865E-004  
  387.50  3.5478E-004  
  388.00  3.7338E-004  
  388.50  3.7928E-004  
  389.00  3.6537E-004  
  389.50  3.5091E-004  
  390.00  3.8209E-004  
  390.50  4.0703E-004  
  391.00  3.8949E-004  
  391.50  3.7375E-004  
  392.00  3.4141E-004  
  392.50  3.8158E-004  
  393.00  4.7324E-004  
  393.50  5.7013E-004  
  394.00  6.7313E-004  
  394.50  7.0736E-004  
  395.00  6.9974E-004  
  395.50  6.6549E-004  
  396.00  6.1474E-004  
  396.50  5.9438E-004  
  397.00  6.4096E-004  
  397.50  7.2353E-004  
  398.00  7.9949E-004  
  398.50  8.2913E-004  
  399.00  8.3564E-004  
  399.50  8.5141E-004  
  400.00  8.3511E-004  
  400.50  8.7782E-004  
  401.00  9.6435E-004  
  401.50  1.0098E-003  
  402.00  1.0762E-003  
  402.50  1.0751E-003  
  403.00  1.0980E-003  
  403.50  1.2028E-003  
  404.00  1.2670E-003  
  404.50  1.3055E-003  
  405.00  1.2802E-003  
  405.50  1.2481E-003  
  406.00  1.2564E-003  
  406.50  1.2943E-003  
  407.00  1.4269E-003  
  407.50  1.5118E-003  
  408.00  1.5871E-003  
  408.50  1.6033E-003  
  409.00  1.6317E-003  
  409.50  1.6900E-003  
  410.00  1.7246E-003  
  410.50  1.7365E-003  
  411.00  1.6863E-003  
  411.50  1.6850E-003  
  412.00  1.7231E-003  
  412.50  1.7941E-003  
  413.00  1.8699E-003  
  413.50  1.8958E-003  
  414.00  1.9075E-003  
  414.50  1.9504E-003  
  415.00  2.0207E-003  
  415.50  2.0848E-003  
  416.00  2.0979E-003  
  416.50  2.0819E-003  
  417.00  2.0368E-003  
  417.50  2.0438E-003  
  418.00  2.0598E-003  
  418.50  2.0796E-003  
  419.00  2.0933E-003  
  419.50  2.0888E-003  
  420.00  2.0758E-003  
  420.50  2.1031E-003  
  421.00  2.1380E-003  
  421.50  2.2165E-003  
  422.00  2.3192E-003  
  422.50  2.3774E-003  
  423.00  2.4294E-003  
  423.50  2.3888E-003  
  424.00  2.3941E-003  
  424.50  2.4004E-003  
  425.00  2.4702E-003  
  425.50  2.5130E-003  
  426.00  2.5031E-003  
  426.50  2.5026E-003  
  427.00  2.5302E-003  
  427.50  2.5797E-003  
  428.00  2.6526E-003  
  428.50  2.6451E-003  
  429.00  2.6611E-003  
  429.50  2.7022E-003  
  430.00  2.7052E-003  
  430.50  2.7024E-003  
  431.00  2.6458E-003  
  431.50  2.6323E-003  
  432.00  2.6559E-003  
  432.50  2.7314E-003  
  433.00  2.7815E-003  
  433.50  2.8199E-003  
  434.00  2.8253E-003  
  434.50  2.8392E-003  
  435.00  2.8504E-003  
  435.50  2.8876E-003  
  436.00  2.9183E-003  
  436.50  2.9448E-003  
  437.00  3.0156E-003  
  437.50  3.0500E-003  
  438.00  3.1052E-003  
  438.50  3.1718E-003  
  439.00  3.2153E-003  
  439.50  3.1994E-003  
  440.00  3.1601E-003  
  440.50  3.1468E-003  
  441.00  3.1714E-003  
  441.50  3.2159E-003  
  442.00  3.2682E-003  
  442.50  3.2583E-003  
  443.00  3.2885E-003  
  443.50  3.2877E-003  
  444.00  3.3232E-003  
  444.50  3.4254E-003  
  445.00  3.5123E-003  
  445.50  3.5957E-003  
  446.00  3.6144E-003  
  446.50  3.5786E-003  
  447.00  3.5327E-003  
  447.50  3.5120E-003  
  448.00  3.5308E-003  
  448.50  3.5432E-003  
  449.00  3.6028E-003  
  449.50  3.6813E-003  
  450.00  3.7556E-003  
  450.50  3.7760E-003  
  451.00  3.7478E-003  
  451.50  3.7134E-003  
  452.00  3.7412E-003  
  452.50  3.8433E-003  
  453.00  3.8997E-003  
  453.50  3.8946E-003  
  454.00  3.9151E-003  
  454.50  3.9159E-003  
  455.00  3.9232E-003  
  455.50  4.0152E-003  
  456.00  4.0905E-003  
  456.50  4.1634E-003  
  457.00  4.2128E-003  
  457.50  4.1776E-003  
  458.00  4.1886E-003  
  458.50  4.1812E-003  
  459.00  4.1639E-003  
  459.50  4.1656E-003  
  460.00  4.1945E-003  
  460.50  4.2989E-003  
  461.00  4.3868E-003  
  461.50  4.4870E-003  
  462.00  4.5040E-003  
  462.50  4.5077E-003  
  463.00  4.5354E-003  
  463.50  4.5720E-003  
  464.00  4.6089E-003  
  464.50  4.5862E-003  
  465.00  4.5719E-003  
  465.50  4.6027E-003  
  466.00  4.6625E-003  
  466.50  4.7390E-003  
  467.00  4.7965E-003  
  467.50  4.8239E-003  
  468.00  4.8911E-003  
  468.50  4.9211E-003  
  469.00  4.9565E-003  
  469.50  4.9727E-003  
  470.00  4.9716E-003  
  470.50  4.9888E-003  
  471.00  5.0775E-003  
  471.50  5.1258E-003  
  472.00  5.1509E-003  
  472.50  5.1730E-003  
  473.00  5.2051E-003  
  473.50  5.2961E-003  
  474.00  5.3430E-003  
  474.50  5.3162E-003  
  475.00  5.3242E-003  
  475.50  5.3368E-003  
  476.00  5.4072E-003  
  476.50  5.4942E-003  
  477.00  5.5211E-003  
  477.50  5.5406E-003  
  478.00  5.5183E-003  
  478.50  5.5550E-003  
  479.00  5.6229E-003  
  479.50  5.7142E-003  
  480.00  5.8050E-003  
  480.50  5.8321E-003  
  481.00  5.8215E-003  
  481.50  5.8278E-003  
  482.00  5.8331E-003  
  482.50  5.8569E-003  
  483.00  5.8700E-003  
  483.50  5.9382E-003  
  484.00  6.0156E-003  
  484.50  6.0640E-003  
  485.00  6.0671E-003  
  485.50  6.0625E-003  
  486.00  6.0959E-003  
  486.50  6.1555E-003  
  487.00  6.2185E-003  
  487.50  6.2620E-003  
  488.00  6.2927E-003  
  488.50  6.3315E-003  
  489.00  6.3506E-003  
  489.50  6.3730E-003  
  490.00  6.3741E-003  
  490.50  6.3637E-003  
  491.00  6.3959E-003  
  491.50  6.4402E-003  
  492.00  6.4946E-003  
  492.50  6.5385E-003  
  493.00  6.5766E-003  
  493.50  6.6270E-003  
  494.00  6.7035E-003  
  494.50  6.8159E-003  
  495.00  6.9084E-003  
  495.50  6.9814E-003  
  496.00  6.9772E-003  
  496.50  6.9723E-003  
  497.00  7.0007E-003  
  497.50  7.0682E-003  
  498.00  7.1537E-003  
  498.50  7.1941E-003  
  499.00  7.2100E-003  
  499.50  7.2473E-003  
  500.00  7.3142E-003  
  500.50  7.3753E-003  
  501.00  7.4524E-003  
  501.50  7.4954E-003  
  502.00  7.5894E-003  
  502.50  7.6568E-003  
  503.00  7.6775E-003  
  503.50  7.6931E-003  
  504.00  7.7253E-003  
  504.50  7.8199E-003  
  505.00  7.9310E-003  
  505.50  8.0180E-003  
  506.00  8.0570E-003  
  506.50  8.0811E-003  
  507.00  8.1153E-003  
  507.50  8.1511E-003  
  508.00  8.1740E-003  
  508.50  8.1740E-003  
  509.00  8.2584E-003  
  509.50  8.3717E-003  
  510.00  8.4981E-003  
  510.50  8.5799E-003  
  511.00  8.6230E-003  
  511.50  8.6708E-003  
  512.00  8.7279E-003  
  512.50  8.7902E-003  
  513.00  8.8608E-003  
  513.50  8.9324E-003  
  514.00  8.9769E-003  
  514.50  9.0243E-003  
  515.00  9.0525E-003  
  515.50  9.0799E-003  
  516.00  9.1518E-003  
  516.50  9.2300E-003  
  517.00  9.3241E-003  
  517.50  9.3875E-003  
  518.00  9.4510E-003  
  518.50  9.5306E-003  
  519.00  9.6240E-003  
  519.50  9.6820E-003  
  520.00  9.7337E-003  
  520.50  9.8032E-003  
  521.00  9.8738E-003  
  521.50  9.9282E-003  
  522.00  9.9977E-003  
  522.50  1.0097E-002  
  523.00  1.0210E-002  
  523.50  1.0302E-002  
  524.00  1.0346E-002  
  524.50  1.0358E-002  
  525.00  1.0390E-002  
  525.50  1.0418E-002  
  526.00  1.0475E-002  
  526.50  1.0523E-002  
  527.00  1.0600E-002  
  527.50  1.0675E-002  
  528.00  1.0762E-002  
  528.50  1.0827E-002  
  529.00  1.0916E-002  
  529.50  1.1004E-002  
  530.00  1.1091E-002  
  530.50  1.1155E-002  
  531.00  1.1208E-002  
  531.50  1.1280E-002  
  532.00  1.1342E-002  
  532.50  1.1415E-002  
  533.00  1.1468E-002  
  533.50  1.1501E-002  
  534.00  1.1544E-002  
  534.50  1.1614E-002  
  535.00  1.1675E-002  
  535.50  1.1739E-002  
  536.00  1.1769E-002  
  536.50  1.1842E-002  
  537.00  1.1931E-002  
  537.50  1.2054E-002  
  538.00  1.2139E-002  
  538.50  1.2175E-002  
  539.00  1.2212E-002  
  539.50  1.2273E-002  
  540.00  1.2384E-002  
  540.50  1.2516E-002  
  541.00  1.2591E-002  
  541.50  1.2654E-002  
  542.00  1.2695E-002  
  542.50  1.2754E-002  
  543.00  1.2932E-002  
  543.50  1.3055E-002  
  544.00  1.3144E-002  
  544.50  1.3173E-002  
  545.00  1.3217E-002  
  545.50  1.3280E-002  
  546.00  1.3298E-002  
  546.50  1.3311E-002  
  547.00  1.3343E-002  
  547.50  1.3432E-002  
  548.00  1.3517E-002  
  548.50  1.3630E-002  
  549.00  1.3732E-002  
  549.50  1.3772E-002  
  550.00  1.3784E-002  
  550.50  1.3840E-002  
  551.00  1.3946E-002  
  551.50  1.4040E-002  
  552.00  1.4081E-002  
  552.50  1.4116E-002  
  553.00  1.4185E-002  
  553.50  1.4288E-002  
  554.00  1.4350E-002  
  554.50  1.4411E-002  
  555.00  1.4470E-002  
  555.50  1.4533E-002  
  556.00  1.4601E-002  
  556.50  1.4657E-002  
  557.00  1.4724E-002  
  557.50  1.4837E-002  
  558.00  1.4933E-002  
  558.50  1.5010E-002  
  559.00  1.5062E-002  
  559.50  1.5119E-002  
  560.00  1.5208E-002  
  560.50  1.5297E-002  
  561.00  1.5366E-002  
  561.50  1.5425E-002  
  562.00  1.5486E-002  
  562.50  1.5524E-002  
  563.00  1.5530E-002  
  563.50  1.5558E-002  
  564.00  1.5580E-002  
  564.50  1.5625E-002  
  565.00  1.5656E-002  
  565.50  1.5770E-002  
  566.00  1.5879E-002  
  566.50  1.5973E-002  
  567.00  1.5999E-002  
  567.50  1.6034E-002  
  568.00  1.6046E-002  
  568.50  1.6086E-002  
  569.00  1.6137E-002  
  569.50  1.6249E-002  
  570.00  1.6343E-002  
  570.50  1.6407E-002  
  571.00  1.6472E-002  
  571.50  1.6507E-002  
  572.00  1.6517E-002  
  572.50  1.6529E-002  
  573.00  1.6582E-002  
  573.50  1.6638E-002  
  574.00  1.6724E-002  
  574.50  1.6781E-002  
  575.00  1.6865E-002  
  575.50  1.6909E-002  
  576.00  1.6944E-002  
  576.50  1.7037E-002  
  577.00  1.7119E-002  
  577.50  1.7194E-002  
  578.00  1.7228E-002  
  578.50  1.7284E-002  
  579.00  1.7320E-002  
  579.50  1.7335E-002  
  580.00  1.7313E-002  
  580.50  1.7357E-002  
  581.00  1.7445E-002  
  581.50  1.7561E-002  
  582.00  1.7595E-002  
  582.50  1.7591E-002  
  583.00  1.7574E-002  
  583.50  1.7638E-002  
  584.00  1.7746E-002  
  584.50  1.7820E-002  
  585.00  1.7823E-002  
  585.50  1.7821E-002  
  586.00  1.7843E-002  
  586.50  1.7980E-002  
  587.00  1.8060E-002  
  587.50  1.8182E-002  
  588.00  1.8186E-002  
  588.50  1.8244E-002  
  589.00  1.8292E-002  
  589.50  1.8358E-002  
  590.00  1.8424E-002  
  590.50  1.8468E-002  
  591.00  1.8465E-002  
  591.50  1.8461E-002  
  592.00  1.8497E-002  
  592.50  1.8581E-002  
  593.00  1.8643E-002  
  593.50  1.8630E-002  
  594.00  1.8620E-002  
  594.50  1.8648E-002  
  595.00  1.8736E-002  
  595.50  1.8787E-002  
  596.00  1.8874E-002  
  596.50  1.8923E-002  
  597.00  1.8964E-002  
  597.50  1.8967E-002  
  598.00  1.9016E-002  
  598.50  1.9103E-002  
  599.00  1.9205E-002  
  599.50  1.9257E-002  
  600.00  1.9322E-002  
  600.50  1.9323E-002  
  601.00  1.9345E-002  
  601.50  1.9296E-002  
  602.00  1.9334E-002  
  602.50  1.9366E-002  
  603.00  1.9440E-002  
  603.50  1.9471E-002  
  604.00  1.9504E-002  
  604.50  1.9548E-002  
  605.00  1.9597E-002  
  605.50  1.9635E-002  
  606.00  1.9627E-002  
  606.50  1.9685E-002  
  607.00  1.9741E-002  
  607.50  1.9767E-002  
  608.00  1.9783E-002  
  608.50  1.9791E-002  
  609.00  1.9857E-002  
  609.50  1.9858E-002  
  610.00  1.9841E-002  
  610.50  1.9876E-002  
  611.00  1.9953E-002  
  611.50  2.0049E-002  
  612.00  2.0085E-002  
  612.50  2.0103E-002  
  613.00  2.0128E-002  
  613.50  2.0081E-002  
  614.00  2.0115E-002  
  614.50  2.0148E-002  
  615.00  2.0260E-002  
  615.50  2.0305E-002  
  616.00  2.0270E-002  
  616.50  2.0250E-002  
  617.00  2.0257E-002  
  617.50  2.0311E-002  
  618.00  2.0374E-002  
  618.50  2.0438E-002  
  619.00  2.0488E-002  
  619.50  2.0502E-002  
  620.00  2.0493E-002  
  620.50  2.0510E-002  
  621.00  2.0572E-002  
  621.50  2.0650E-002  
  622.00  2.0726E-002  
  622.50  2.0773E-002  
  623.00  2.0776E-002  
  623.50  2.0766E-002  
  624.00  2.0733E-002  
  624.50  2.0789E-002  
  625.00  2.0898E-002  
  625.50  2.0971E-002  
  626.00  2.0981E-002  
  626.50  2.0928E-002  
  627.00  2.0938E-002  
  627.50  2.0914E-002  
  628.00  2.0916E-002  
  628.50  2.0954E-002  
  629.00  2.1057E-002  
  629.50  2.1153E-002  
  630.00  2.1144E-002  
  630.50  2.1122E-002  
  631.00  2.1147E-002  
  631.50  2.1230E-002  
  632.00  2.1348E-002  
  632.50  2.1413E-002  
  633.00  2.1433E-002  
  633.50  2.1441E-002  
  634.00  2.1403E-002  
  634.50  2.1410E-002  
  635.00  2.1439E-002  
  635.50  2.1483E-002  
  636.00  2.1515E-002  
  636.50  2.1513E-002  
  637.00  2.1512E-002  
  637.50  2.1497E-002  
  638.00  2.1474E-002  
  638.50  2.1503E-002  
  639.00  2.1562E-002  
  639.50  2.1676E-002  
  640.00  2.1723E-002  
  640.50  2.1772E-002  
  641.00  2.1770E-002  
  641.50  2.1875E-002  
  642.00  2.1940E-002  
  642.50  2.1977E-002  
  643.00  2.1899E-002  
  643.50  2.1865E-002  
  644.00  2.1797E-002  
  644.50  2.1811E-002  
  645.00  2.1824E-002  
  645.50  2.1901E-002  
  646.00  2.1969E-002  
  646.50  2.1998E-002  
  647.00  2.2075E-002  
  647.50  2.2134E-002  
  648.00  2.2216E-002  
  648.50  2.2219E-002  
  649.00  2.2165E-002  
  649.50  2.2107E-002  
  650.00  2.2091E-002  
  650.50  2.2076E-002  
  651.00  2.2050E-002  
  651.50  2.2066E-002  
  652.00  2.2092E-002  
  652.50  2.2222E-002  
  653.00  2.2300E-002  
  653.50  2.2352E-002  
  654.00  2.2394E-002  
  654.50  2.2407E-002  
  655.00  2.2440E-002  
  655.50  2.2441E-002  
  656.00  2.2480E-002  
  656.50  2.2456E-002  
  657.00  2.2402E-002  
  657.50  2.2364E-002  
  658.00  2.2385E-002  
  658.50  2.2434E-002  
  659.00  2.2546E-002  
  659.50  2.2707E-002  
  660.00  2.2806E-002  
  660.50  2.2728E-002  
  661.00  2.2615E-002  
  661.50  2.2604E-002  
  662.00  2.2674E-002  
  662.50  2.2700E-002  
  663.00  2.2701E-002  
  663.50  2.2684E-002  
  664.00  2.2705E-002  
  664.50  2.2660E-002  
  665.00  2.2624E-002  
  665.50  2.2603E-002  
  666.00  2.2651E-002  
  666.50  2.2695E-002  
  667.00  2.2808E-002  
  667.50  2.2805E-002  
  668.00  2.2810E-002  
  668.50  2.2760E-002  
  669.00  2.2725E-002  
  669.50  2.2730E-002  
  670.00  2.2796E-002  
  670.50  2.2903E-002  
  671.00  2.3014E-002  
  671.50  2.3017E-002  
  672.00  2.3143E-002  
  672.50  2.3215E-002  
  673.00  2.3246E-002  
  673.50  2.3172E-002  
  674.00  2.3070E-002  
  674.50  2.3065E-002  
  675.00  2.3053E-002  
  675.50  2.3074E-002  
  676.00  2.2987E-002  
  676.50  2.2988E-002  
  677.00  2.2978E-002  
  677.50  2.3076E-002  
  678.00  2.3132E-002  
  678.50  2.3139E-002  
  679.00  2.3148E-002  
  679.50  2.3198E-002  
  680.00  2.3287E-002  
  680.50  2.3353E-002  
  681.00  2.3273E-002  
  681.50  2.3232E-002  
  682.00  2.3191E-002  
  682.50  2.3292E-002  
  683.00  2.3392E-002  
  683.50  2.3430E-002  
  684.00  2.3431E-002  
  684.50  2.3425E-002  
  685.00  2.3463E-002  
  685.50  2.3413E-002  
  686.00  2.3411E-002  
  686.50  2.3472E-002  
  687.00  2.3647E-002  
  687.50  2.3717E-002  
  688.00  2.3646E-002  
  688.50  2.3512E-002  
  689.00  2.3449E-002  
  689.50  2.3526E-002  
  690.00  2.3666E-002  
  690.50  2.3762E-002  
  691.00  2.3769E-002  
  691.50  2.3651E-002  
  692.00  2.3665E-002  
  692.50  2.3678E-002  
  693.00  2.3856E-002  
  693.50  2.3949E-002  
  694.00  2.4062E-002  
  694.50  2.4012E-002  
  695.00  2.3932E-002  
  695.50  2.3910E-002  
  696.00  2.4014E-002  
  696.50  2.4108E-002  
  697.00  2.4178E-002  
  697.50  2.4285E-002  
  698.00  2.4236E-002  
  698.50  2.4054E-002  
  699.00  2.3828E-002  
  699.50  2.3806E-002  
  700.00  2.3999E-002  
  700.50  2.4169E-002  
  701.00  2.4278E-002  
  701.50  2.4218E-002  
  702.00  2.4276E-002  
  702.50  2.4320E-002  
  703.00  2.4456E-002  
  703.50  2.4464E-002  
  704.00  2.4566E-002  
  704.50  2.4627E-002  
  705.00  2.4640E-002  
  705.50  2.4498E-002  
  706.00  2.4393E-002  
  706.50  2.4486E-002  
  707.00  2.4619E-002  
  707.50  2.4646E-002  
  708.00  2.4737E-002  
  708.50  2.4888E-002  
  709.00  2.4952E-002  
  709.50  2.4956E-002  
  710.00  2.4893E-002  
  710.50  2.4767E-002  
  711.00  2.4659E-002  
  711.50  2.4585E-002  
  712.00  2.4674E-002  
  712.50  2.4799E-002  
  713.00  2.5005E-002  
  713.50  2.5165E-002  
  714.00  2.5130E-002  
  714.50  2.5053E-002  
  715.00  2.5027E-002  
  715.50  2.5149E-002  
  716.00  2.5248E-002  
  716.50  2.5199E-002  
  717.00  2.5206E-002  
  717.50  2.5312E-002  
  718.00  2.5391E-002  
  718.50  2.5379E-002  
  719.00  2.5384E-002  
  719.50  2.5492E-002  
  720.00  2.5611E-002  
  720.50  2.5560E-002  
  721.00  2.5505E-002  
  721.50  2.5318E-002  
  722.00  2.5374E-002  
  722.50  2.5497E-002  
  723.00  2.5671E-002  
  723.50  2.5461E-002  
  724.00  2.5314E-002  
  724.50  2.5423E-002  
  725.00  2.5685E-002  
  725.50  2.5764E-002  
  726.00  2.5651E-002  
  726.50  2.5598E-002  
  727.00  2.5554E-002  
  727.50  2.5589E-002  
  728.00  2.5622E-002  
  728.50  2.5784E-002  
  729.00  2.5939E-002  
  729.50  2.6001E-002  
  730.00  2.6059E-002  
  730.50  2.6091E-002  
  731.00  2.6117E-002  
  731.50  2.6042E-002  
  732.00  2.6028E-002  
  732.50  2.6097E-002  
  733.00  2.6176E-002  
  733.50  2.6226E-002  
  734.00  2.6217E-002  
  734.50  2.6140E-002  
  735.00  2.6134E-002  
  735.50  2.6216E-002  
  736.00  2.6244E-002  
  736.50  2.6233E-002  
  737.00  2.6201E-002  
  737.50  2.6200E-002  
  738.00  2.6228E-002  
  738.50  2.6203E-002  
  739.00  2.6247E-002  
  739.50  2.6402E-002  
  740.00  2.6537E-002  
  740.50  2.6567E-002  
  741.00  2.6541E-002  
  741.50  2.6573E-002  
  742.00  2.6756E-002  
  742.50  2.6853E-002  
  743.00  2.6845E-002  
  743.50  2.6833E-002  
  744.00  2.6857E-002  
  744.50  2.6881E-002  
  745.00  2.6902E-002  
  745.50  2.6802E-002  
  746.00  2.6756E-002  
  746.50  2.6840E-002  
  747.00  2.6892E-002  
  747.50  2.6881E-002  
  748.00  2.6909E-002  
  748.50  2.6967E-002  
  749.00  2.6977E-002  
  749.50  2.6973E-002  
  750.00  2.7056E-002  
  750.50  2.7188E-002  
  751.00  2.7420E-002  
  751.50  2.7296E-002  
  752.00  2.7134E-002  
  752.50  2.6992E-002  
  753.00  2.7094E-002  
  753.50  2.7226E-002  
  754.00  2.7256E-002  
  754.50  2.7201E-002  
  755.00  2.7136E-002  
  755.50  2.7020E-002  
  756.00  2.7160E-002  
  756.50  2.7422E-002  
  757.00  2.7544E-002  
  757.50  2.7316E-002  
  758.00  2.7063E-002  
  758.50  2.7044E-002  
  759.00  2.7234E-002  
  759.50  2.7396E-002  
  760.00  2.7384E-002  
  760.50  2.7492E-002  
  761.00  2.7455E-002  
  761.50  2.7502E-002  
  762.00  2.7520E-002  
  762.50  2.7541E-002  
  763.00  2.7638E-002  
  763.50  2.7722E-002  
  764.00  2.7650E-002  
  764.50  2.7418E-002  
  765.00  2.7534E-002  
  765.50  2.7666E-002  
  766.00  2.7762E-002  
  766.50  2.7852E-002  
  767.00  2.7793E-002  
  767.50  2.7643E-002  
  768.00  2.7626E-002  
  768.50  2.7666E-002  
  769.00  2.7631E-002  
  769.50  2.7511E-002  
  770.00  2.7524E-002  
  770.50  2.7778E-002  
  771.00  2.7987E-002  
  771.50  2.8245E-002  
  772.00  2.8049E-002  
  772.50  2.7778E-002  
  773.00  2.7578E-002  
  773.50  2.7653E-002  
  774.00  2.7747E-002  
  774.50  2.7893E-002  
  775.00  2.8157E-002  
  775.50  2.8441E-002  
  776.00  2.8611E-002  
  776.50  2.8591E-002  
  777.00  2.8436E-002  
  777.50  2.8239E-002  
  778.00  2.8106E-002  
  778.50  2.8165E-002  
  779.00  2.8169E-002  
  779.50  2.8124E-002  
  780.00  2.8173E-002  
  780.50  2.8336E-002  
  781.00  2.8302E-002  
  781.50  2.8276E-002  
  782.00  2.8313E-002  
  782.50  2.8243E-002  
  783.00  2.8165E-002  
  783.50  2.8228E-002  
  784.00  2.8173E-002  
  784.50  2.8068E-002  
  785.00  2.8164E-002  
  785.50  2.8363E-002  
  786.00  2.8363E-002  
  786.50  2.8451E-002  
  787.00  2.8541E-002  
  787.50  2.8722E-002  
  788.00  2.8569E-002  
  788.50  2.8532E-002  
  789.00  2.8798E-002  
  789.50  2.8959E-002  
  790.00  2.8995E-002  
  790.50  2.8872E-002  
  791.00  2.8875E-002  
  791.50  2.8787E-002  
  792.00  2.8775E-002  
  792.50  2.8647E-002  
  793.00  2.8713E-002  
  793.50  2.8873E-002  
  794.00  2.8870E-002  
  794.50  2.8811E-002  
  795.00  2.8832E-002  
  795.50  2.8791E-002  
  796.00  2.8868E-002  
  796.50  2.8914E-002  
  797.00  2.8786E-002  
  797.50  2.8597E-002  
  798.00  2.8497E-002  
  798.50  2.8849E-002  
  799.00  2.9193E-002  
  799.50  2.9329E-002  
  800.00  2.9179E-002  
  800.50  2.9011E-002  
  801.00  2.8958E-002  
  801.50  2.9085E-002  
  802.00  2.9176E-002  
  802.50  2.9198E-002  
  803.00  2.9050E-002  
  803.50  2.9109E-002  
  804.00  2.9513E-002  
  804.50  2.9595E-002  
  805.00  2.9487E-002  
  805.50  2.9665E-002  
  806.00  2.9739E-002  
  806.50  2.9557E-002  
  807.00  2.9221E-002  
  807.50  2.9143E-002  
  808.00  2.9202E-002  
  808.50  2.9482E-002  
  809.00  2.9573E-002  
  809.50  2.9330E-002  
  810.00  2.9316E-002  
  810.50  2.9508E-002  
  811.00  2.9440E-002  
  811.50  2.9224E-002  
  812.00  2.8983E-002  
  812.50  2.8661E-002  
  813.00  2.8761E-002  
  813.50  2.9117E-002  
  814.00  2.9135E-002  
  814.50  2.9167E-002  
  815.00  2.9461E-002  
  815.50  2.9734E-002  
  816.00  2.9543E-002  
  816.50  2.9380E-002  
  817.00  2.9470E-002  
  817.50  2.9426E-002  
  818.00  2.9592E-002  
  818.50  2.9761E-002  
  819.00  2.9798E-002  
  819.50  2.9677E-002  
  820.00  2.9067E-002  
  820.50  2.9123E-002  
  821.00  2.9219E-002  
  821.50  2.9549E-002  
  822.00  2.9946E-002  
  822.50  3.0162E-002  
  823.00  3.0043E-002  
  823.50  2.9957E-002  
  824.00  3.0225E-002  
  824.50  3.0205E-002  
  825.00  2.9982E-002  
  825.50  2.9862E-002  
  826.00  3.0144E-002  
  826.50  3.0276E-002  
  827.00  3.0144E-002  
  827.50  3.0038E-002  
  828.00  2.9898E-002  
  828.50  2.9568E-002  
  829.00  2.9274E-002  
  829.50  2.9161E-002  
  830.00  2.9377E-002  
  830.50  2.9619E-002  
  831.00  2.9490E-002  
  831.50  2.9510E-002  
  832.00  2.9638E-002  
  832.50  3.0145E-002  
  833.00  3.0553E-002  
  833.50  3.0240E-002  
  834.00  2.9487E-002  
  834.50  2.9688E-002  
  835.00  3.0096E-002  
  835.50  3.0111E-002  
  836.00  3.0134E-002  
  836.50  3.0326E-002  
  837.00  3.0470E-002  
  837.50  3.0264E-002  
  838.00  2.9844E-002  
  838.50  2.9967E-002  
  839.00  3.0247E-002  
  839.50  2.9623E-002  
  840.00  2.9603E-002  
  840.50  2.9485E-002  
  841.00  2.9614E-002  
  841.50  2.9741E-002  
  842.00  3.0104E-002  
  842.50  3.0269E-002  
  843.00  3.0064E-002  
  843.50  3.0098E-002  
  844.00  3.0040E-002  
  844.50  2.9852E-002  
  845.00  2.9965E-002  
  845.50  3.0134E-002  
  846.00  3.0395E-002  
  846.50  3.0822E-002  
  847.00  3.0616E-002  
  847.50  2.9989E-002  
  848.00  3.0162E-002  
  848.50  3.0660E-002  
  849.00  3.0614E-002  
  849.50  2.9964E-002  
  850.00  2.9474E-002  
  850.50  3.0148E-002  
  851.00  3.0844E-002  
  851.50  3.0391E-002  
  852.00  3.0015E-002  
  852.50  2.9999E-002  
  853.00  2.9970E-002  
  853.50  2.9899E-002  
  854.00  2.9824E-002  
  854.50  2.9811E-002  
  855.00  3.0028E-002  
  855.50  3.0564E-002  
  856.00  3.1095E-002  
  856.50  3.1022E-002  
  857.00  3.0390E-002  
  857.50  3.0443E-002  
  858.00  3.0426E-002  
  858.50  3.0381E-002  
  859.00  3.0244E-002  
  859.50  3.0066E-002  
  860.00  3.0252E-002  
  860.50  3.0845E-002  
  861.00  3.1197E-002  
  861.50  3.0405E-002  
  862.00  2.9950E-002  
  862.50  3.0134E-002  
  863.00  3.0489E-002  
  863.50  3.0906E-002  
  864.00  3.0849E-002  
  864.50  3.0604E-002  
  865.00  3.0504E-002  
  865.50  3.0621E-002  
  866.00  3.1270E-002  
  866.50  3.1199E-002  
  867.00  3.0834E-002  
  867.50  3.0570E-002  
  868.00  3.1215E-002  
  868.50  3.1462E-002  
  869.00  3.1399E-002  
  869.50  3.1074E-002  
  870.00  3.0960E-002  
  870.50  3.0777E-002  
  871.00  3.0420E-002  
  871.50  2.9436E-002  
  872.00  2.9234E-002  
  872.50  2.9814E-002  
  873.00  3.1290E-002  
  873.50  3.1136E-002  
  874.00  3.0641E-002  
  874.50  3.0354E-002  
  875.00  3.0296E-002  
  875.50  3.0392E-002  
  876.00  3.0095E-002  
  876.50  3.0153E-002  
  877.00  3.0752E-002  
  877.50  3.1076E-002  
  878.00  3.0838E-002  
  878.50  3.1019E-002  
  879.00  3.1351E-002  
  879.50  3.0642E-002  
  880.00  2.9494E-002  
  880.50  2.9829E-002  
  881.00  3.0997E-002  
  881.50  3.0900E-002  
  882.00  3.0606E-002  
  882.50  3.1188E-002  
  883.00  3.1864E-002  
  883.50  3.1950E-002  
  884.00  3.1410E-002  
  884.50  3.0845E-002  
  885.00  3.0701E-002  
  885.50  3.0897E-002  
  886.00  3.0231E-002  
  886.50  2.9031E-002  
  887.00  2.9217E-002  
  887.50  3.0266E-002  
  888.00  3.0300E-002  
  888.50  3.0127E-002  
  889.00  3.0599E-002  
  889.50  3.1177E-002  
  890.00  3.1522E-002  
  890.50  3.0860E-002  
  891.00  3.0530E-002  
  891.50  3.0441E-002  
  892.00  3.1339E-002  
  892.50  3.2484E-002  
  893.00  3.1910E-002  
  893.50  3.1725E-002  
  894.00  3.1700E-002  
  894.50  3.0914E-002  
  895.00  3.0481E-002  
  895.50  3.0957E-002  
  896.00  3.1390E-002  
  896.50  3.1703E-002  
  897.00  3.1208E-002  
  897.50  3.0368E-002  
  898.00  3.0272E-002  
  898.50  3.0108E-002  
  899.00  2.9972E-002  
  899.50  6.0191E-004  
