
# From lspdd.org
# 
# Name: DEL Standard A15 Domestique
# Indice spectral Valeur 
# MSI 0.23 
# SLI 0.43 
# IPI 0.66 
# Pourcentage de bleu 14.4 
# Caractéristique Valeur 
# CCT calculée (K) 2543 
# CCT du fabricant (K) 2700 
# Tension (V) 120 
# Puissance (W) 5.0 
# Efficacité lumineuse (Lum/W) 60.0 
#
# Image: '/app/system/img_2s/2621/medium_image2.JPG?1413486726'
# Image: '/app/system/img_1s/2621/medium_image1.JPG?1413486730'
# 

  273.00  0.0000E+000  
  273.50  0.0000E+000  
  274.00  0.0000E+000  
  274.50  0.0000E+000  
  275.00  0.0000E+000  
  275.50  0.0000E+000  
  276.00  0.0000E+000  
  276.50  0.0000E+000  
  277.00  0.0000E+000  
  277.50  0.0000E+000  
  278.00  0.0000E+000  
  278.50  0.0000E+000  
  279.00  0.0000E+000  
  279.50  0.0000E+000  
  280.00  0.0000E+000  
  280.50  0.0000E+000  
  281.00  0.0000E+000  
  281.50  0.0000E+000  
  282.00  0.0000E+000  
  282.50  0.0000E+000  
  283.00  0.0000E+000  
  283.50  0.0000E+000  
  284.00  0.0000E+000  
  284.50  0.0000E+000  
  285.00  0.0000E+000  
  285.50  0.0000E+000  
  286.00  0.0000E+000  
  286.50  0.0000E+000  
  287.00  0.0000E+000  
  287.50  0.0000E+000  
  288.00  0.0000E+000  
  288.50  0.0000E+000  
  289.00  0.0000E+000  
  289.50  0.0000E+000  
  290.00  0.0000E+000  
  290.50  0.0000E+000  
  291.00  0.0000E+000  
  291.50  0.0000E+000  
  292.00  0.0000E+000  
  292.50  0.0000E+000  
  293.00  0.0000E+000  
  293.50  0.0000E+000  
  294.00  0.0000E+000  
  294.50  0.0000E+000  
  295.00  0.0000E+000  
  295.50  0.0000E+000  
  296.00  0.0000E+000  
  296.50  0.0000E+000  
  297.00  0.0000E+000  
  297.50  0.0000E+000  
  298.00  0.0000E+000  
  298.50  0.0000E+000  
  299.00  0.0000E+000  
  299.50  0.0000E+000  
  300.00  0.0000E+000  
  300.50  0.0000E+000  
  301.00  0.0000E+000  
  301.50  0.0000E+000  
  302.00  0.0000E+000  
  302.50  0.0000E+000  
  303.00  0.0000E+000  
  303.50  0.0000E+000  
  304.00  0.0000E+000  
  304.50  0.0000E+000  
  305.00  0.0000E+000  
  305.50  0.0000E+000  
  306.00  0.0000E+000  
  306.50  0.0000E+000  
  307.00  0.0000E+000  
  307.50  0.0000E+000  
  308.00  0.0000E+000  
  308.50  0.0000E+000  
  309.00  0.0000E+000  
  309.50  0.0000E+000  
  310.00  0.0000E+000  
  310.50  0.0000E+000  
  311.00  0.0000E+000  
  311.50  0.0000E+000  
  312.00  0.0000E+000  
  312.50  0.0000E+000  
  313.00  0.0000E+000  
  313.50  0.0000E+000  
  314.00  0.0000E+000  
  314.50  0.0000E+000  
  315.00  0.0000E+000  
  315.50  0.0000E+000  
  316.00  0.0000E+000  
  316.50  0.0000E+000  
  317.00  0.0000E+000  
  317.50  0.0000E+000  
  318.00  0.0000E+000  
  318.50  0.0000E+000  
  319.00  0.0000E+000  
  319.50  0.0000E+000  
  320.00  0.0000E+000  
  320.50  0.0000E+000  
  321.00  0.0000E+000  
  321.50  0.0000E+000  
  322.00  0.0000E+000  
  322.50  0.0000E+000  
  323.00  0.0000E+000  
  323.50  0.0000E+000  
  324.00  0.0000E+000  
  324.50  0.0000E+000  
  325.00  0.0000E+000  
  325.50  0.0000E+000  
  326.00  0.0000E+000  
  326.50  0.0000E+000  
  327.00  0.0000E+000  
  327.50  0.0000E+000  
  328.00  0.0000E+000  
  328.50  0.0000E+000  
  329.00  0.0000E+000  
  329.50  0.0000E+000  
  330.00  0.0000E+000  
  330.50  0.0000E+000  
  331.00  0.0000E+000  
  331.50  0.0000E+000  
  332.00  0.0000E+000  
  332.50  0.0000E+000  
  333.00  0.0000E+000  
  333.50  0.0000E+000  
  334.00  0.0000E+000  
  334.50  0.0000E+000  
  335.00  0.0000E+000  
  335.50  0.0000E+000  
  336.00  0.0000E+000  
  336.50  0.0000E+000  
  337.00  0.0000E+000  
  337.50  0.0000E+000  
  338.00  0.0000E+000  
  338.50  0.0000E+000  
  339.00  0.0000E+000  
  339.50  0.0000E+000  
  340.00  0.0000E+000  
  340.50  0.0000E+000  
  341.00  0.0000E+000  
  341.50  0.0000E+000  
  342.00  0.0000E+000  
  342.50  0.0000E+000  
  343.00  0.0000E+000  
  343.50  0.0000E+000  
  344.00  0.0000E+000  
  344.50  0.0000E+000  
  345.00  0.0000E+000  
  345.50  0.0000E+000  
  346.00  0.0000E+000  
  346.50  0.0000E+000  
  347.00  0.0000E+000  
  347.50  0.0000E+000  
  348.00  0.0000E+000  
  348.50  0.0000E+000  
  349.00  0.0000E+000  
  349.50  0.0000E+000  
  350.00  0.0000E+000  
  350.50  0.0000E+000  
  351.00  0.0000E+000  
  351.50  0.0000E+000  
  352.00  0.0000E+000  
  352.50  0.0000E+000  
  353.00  0.0000E+000  
  353.50  0.0000E+000  
  354.00  0.0000E+000  
  354.50  0.0000E+000  
  355.00  0.0000E+000  
  355.50  0.0000E+000  
  356.00  0.0000E+000  
  356.50  0.0000E+000  
  357.00  0.0000E+000  
  357.50  0.0000E+000  
  358.00  0.0000E+000  
  358.50  0.0000E+000  
  359.00  0.0000E+000  
  359.50  0.0000E+000  
  360.00  0.0000E+000  
  360.50  0.0000E+000  
  361.00  0.0000E+000  
  361.50  0.0000E+000  
  362.00  0.0000E+000  
  362.50  0.0000E+000  
  363.00  0.0000E+000  
  363.50  0.0000E+000  
  364.00  0.0000E+000  
  364.50  0.0000E+000  
  365.00  0.0000E+000  
  365.50  0.0000E+000  
  366.00  0.0000E+000  
  366.50  0.0000E+000  
  367.00  0.0000E+000  
  367.50  0.0000E+000  
  368.00  0.0000E+000  
  368.50  0.0000E+000  
  369.00  0.0000E+000  
  369.50  0.0000E+000  
  370.00  0.0000E+000  
  370.50  0.0000E+000  
  371.00  0.0000E+000  
  371.50  0.0000E+000  
  372.00  0.0000E+000  
  372.50  0.0000E+000  
  373.00  0.0000E+000  
  373.50  0.0000E+000  
  374.00  0.0000E+000  
  374.50  0.0000E+000  
  375.00  0.0000E+000  
  375.50  0.0000E+000  
  376.00  0.0000E+000  
  376.50  0.0000E+000  
  377.00  0.0000E+000  
  377.50  0.0000E+000  
  378.00  0.0000E+000  
  378.50  0.0000E+000  
  379.00  0.0000E+000  
  379.50  0.0000E+000  
  380.00  0.0000E+000  
  380.50  0.0000E+000  
  381.00  2.0265E-005  
  381.50  3.8779E-005  
  382.00  4.9132E-006  
  382.50  0.0000E+000  
  383.00  0.0000E+000  
  383.50  0.0000E+000  
  384.00  0.0000E+000  
  384.50  0.0000E+000  
  385.00  0.0000E+000  
  385.50  0.0000E+000  
  386.00  0.0000E+000  
  386.50  0.0000E+000  
  387.00  0.0000E+000  
  387.50  0.0000E+000  
  388.00  0.0000E+000  
  388.50  0.0000E+000  
  389.00  0.0000E+000  
  389.50  0.0000E+000  
  390.00  0.0000E+000  
  390.50  0.0000E+000  
  391.00  0.0000E+000  
  391.50  0.0000E+000  
  392.00  1.5628E-005  
  392.50  3.3346E-005  
  393.00  2.4808E-005  
  393.50  1.1860E-005  
  394.00  2.9922E-006  
  394.50  0.0000E+000  
  395.00  0.0000E+000  
  395.50  0.0000E+000  
  396.00  0.0000E+000  
  396.50  0.0000E+000  
  397.00  0.0000E+000  
  397.50  0.0000E+000  
  398.00  0.0000E+000  
  398.50  0.0000E+000  
  399.00  0.0000E+000  
  399.50  0.0000E+000  
  400.00  0.0000E+000  
  400.50  0.0000E+000  
  401.00  0.0000E+000  
  401.50  6.1810E-006  
  402.00  4.3459E-005  
  402.50  7.5093E-005  
  403.00  6.8175E-005  
  403.50  5.3586E-005  
  404.00  1.0613E-004  
  404.50  9.9175E-005  
  405.00  8.1168E-005  
  405.50  3.3881E-005  
  406.00  0.0000E+000  
  406.50  3.6062E-006  
  407.00  6.0749E-005  
  407.50  1.1534E-004  
  408.00  1.7663E-004  
  408.50  1.4708E-004  
  409.00  1.4067E-004  
  409.50  1.7661E-004  
  410.00  2.6027E-004  
  410.50  3.5619E-004  
  411.00  4.2345E-004  
  411.50  4.9167E-004  
  412.00  5.5954E-004  
  412.50  5.9731E-004  
  413.00  6.1263E-004  
  413.50  6.1353E-004  
  414.00  6.0925E-004  
  414.50  6.9210E-004  
  415.00  7.8401E-004  
  415.50  8.9517E-004  
  416.00  1.0055E-003  
  416.50  1.1193E-003  
  417.00  1.2444E-003  
  417.50  1.3584E-003  
  418.00  1.4655E-003  
  418.50  1.5205E-003  
  419.00  1.5962E-003  
  419.50  1.7124E-003  
  420.00  1.9057E-003  
  420.50  2.1486E-003  
  421.00  2.3735E-003  
  421.50  2.5311E-003  
  422.00  2.6820E-003  
  422.50  2.8619E-003  
  423.00  3.0684E-003  
  423.50  3.3120E-003  
  424.00  3.5142E-003  
  424.50  3.7301E-003  
  425.00  3.9982E-003  
  425.50  4.3054E-003  
  426.00  4.6467E-003  
  426.50  4.9435E-003  
  427.00  5.2494E-003  
  427.50  5.5613E-003  
  428.00  5.9144E-003  
  428.50  6.3041E-003  
  429.00  6.6830E-003  
  429.50  7.1178E-003  
  430.00  7.5450E-003  
  430.50  7.9847E-003  
  431.00  8.3926E-003  
  431.50  8.7560E-003  
  432.00  9.2406E-003  
  432.50  9.7507E-003  
  433.00  1.0303E-002  
  433.50  1.0792E-002  
  434.00  1.1298E-002  
  434.50  1.1903E-002  
  435.00  1.2587E-002  
  435.50  1.3326E-002  
  436.00  1.4129E-002  
  436.50  1.4962E-002  
  437.00  1.5902E-002  
  437.50  1.6867E-002  
  438.00  1.7890E-002  
  438.50  1.8837E-002  
  439.00  1.9801E-002  
  439.50  2.0867E-002  
  440.00  2.2017E-002  
  440.50  2.3291E-002  
  441.00  2.4533E-002  
  441.50  2.5779E-002  
  442.00  2.7080E-002  
  442.50  2.8387E-002  
  443.00  2.9688E-002  
  443.50  3.0848E-002  
  444.00  3.2069E-002  
  444.50  3.3270E-002  
  445.00  3.4415E-002  
  445.50  3.5314E-002  
  446.00  3.5961E-002  
  446.50  3.6393E-002  
  447.00  3.6673E-002  
  447.50  3.6798E-002  
  448.00  3.6714E-002  
  448.50  3.6472E-002  
  449.00  3.6017E-002  
  449.50  3.5413E-002  
  450.00  3.4586E-002  
  450.50  3.3611E-002  
  451.00  3.2548E-002  
  451.50  3.1374E-002  
  452.00  3.0215E-002  
  452.50  2.9050E-002  
  453.00  2.7831E-002  
  453.50  2.6599E-002  
  454.00  2.5406E-002  
  454.50  2.4300E-002  
  455.00  2.3375E-002  
  455.50  2.2506E-002  
  456.00  2.1688E-002  
  456.50  2.0980E-002  
  457.00  2.0290E-002  
  457.50  1.9667E-002  
  458.00  1.9084E-002  
  458.50  1.8540E-002  
  459.00  1.8130E-002  
  459.50  1.7773E-002  
  460.00  1.7517E-002  
  460.50  1.7274E-002  
  461.00  1.7031E-002  
  461.50  1.6779E-002  
  462.00  1.6488E-002  
  462.50  1.6175E-002  
  463.00  1.5843E-002  
  463.50  1.5488E-002  
  464.00  1.5230E-002  
  464.50  1.4947E-002  
  465.00  1.4694E-002  
  465.50  1.4354E-002  
  466.00  1.3954E-002  
  466.50  1.3613E-002  
  467.00  1.3289E-002  
  467.50  1.3037E-002  
  468.00  1.2763E-002  
  468.50  1.2436E-002  
  469.00  1.2097E-002  
  469.50  1.1815E-002  
  470.00  1.1570E-002  
  470.50  1.1435E-002  
  471.00  1.1246E-002  
  471.50  1.1028E-002  
  472.00  1.0813E-002  
  472.50  1.0669E-002  
  473.00  1.0643E-002  
  473.50  1.0720E-002  
  474.00  1.0790E-002  
  474.50  1.0823E-002  
  475.00  1.0834E-002  
  475.50  1.0837E-002  
  476.00  1.0829E-002  
  476.50  1.0840E-002  
  477.00  1.0941E-002  
  477.50  1.1034E-002  
  478.00  1.1129E-002  
  478.50  1.1227E-002  
  479.00  1.1374E-002  
  479.50  1.1571E-002  
  480.00  1.1786E-002  
  480.50  1.1911E-002  
  481.00  1.2015E-002  
  481.50  1.2134E-002  
  482.00  1.2307E-002  
  482.50  1.2493E-002  
  483.00  1.2656E-002  
  483.50  1.2822E-002  
  484.00  1.3001E-002  
  484.50  1.3192E-002  
  485.00  1.3404E-002  
  485.50  1.3662E-002  
  486.00  1.3914E-002  
  486.50  1.4212E-002  
  487.00  1.4451E-002  
  487.50  1.4698E-002  
  488.00  1.4966E-002  
  488.50  1.5272E-002  
  489.00  1.5606E-002  
  489.50  1.5919E-002  
  490.00  1.6207E-002  
  490.50  1.6483E-002  
  491.00  1.6812E-002  
  491.50  1.7144E-002  
  492.00  1.7511E-002  
  492.50  1.7865E-002  
  493.00  1.8225E-002  
  493.50  1.8561E-002  
  494.00  1.8889E-002  
  494.50  1.9275E-002  
  495.00  1.9676E-002  
  495.50  2.0079E-002  
  496.00  2.0445E-002  
  496.50  2.0814E-002  
  497.00  2.1194E-002  
  497.50  2.1579E-002  
  498.00  2.1973E-002  
  498.50  2.2351E-002  
  499.00  2.2804E-002  
  499.50  2.3191E-002  
  500.00  2.3563E-002  
  500.50  2.3855E-002  
  501.00  2.4166E-002  
  501.50  2.4547E-002  
  502.00  2.4980E-002  
  502.50  2.5434E-002  
  503.00  2.5812E-002  
  503.50  2.6130E-002  
  504.00  2.6462E-002  
  504.50  2.6800E-002  
  505.00  2.7178E-002  
  505.50  2.7590E-002  
  506.00  2.7962E-002  
  506.50  2.8309E-002  
  507.00  2.8652E-002  
  507.50  2.9025E-002  
  508.00  2.9424E-002  
  508.50  2.9809E-002  
  509.00  3.0120E-002  
  509.50  3.0452E-002  
  510.00  3.0784E-002  
  510.50  3.1120E-002  
  511.00  3.1516E-002  
  511.50  3.1857E-002  
  512.00  3.2286E-002  
  512.50  3.2687E-002  
  513.00  3.3090E-002  
  513.50  3.3494E-002  
  514.00  3.3859E-002  
  514.50  3.4260E-002  
  515.00  3.4566E-002  
  515.50  3.4911E-002  
  516.00  3.5244E-002  
  516.50  3.5670E-002  
  517.00  3.6078E-002  
  517.50  3.6482E-002  
  518.00  3.6845E-002  
  518.50  3.7165E-002  
  519.00  3.7569E-002  
  519.50  3.7993E-002  
  520.00  3.8423E-002  
  520.50  3.8799E-002  
  521.00  3.9107E-002  
  521.50  3.9479E-002  
  522.00  3.9888E-002  
  522.50  4.0338E-002  
  523.00  4.0782E-002  
  523.50  4.1244E-002  
  524.00  4.1685E-002  
  524.50  4.2113E-002  
  525.00  4.2500E-002  
  525.50  4.2884E-002  
  526.00  4.3300E-002  
  526.50  4.3738E-002  
  527.00  4.4097E-002  
  527.50  4.4480E-002  
  528.00  4.4843E-002  
  528.50  4.5330E-002  
  529.00  4.5845E-002  
  529.50  4.6270E-002  
  530.00  4.6674E-002  
  530.50  4.7058E-002  
  531.00  4.7534E-002  
  531.50  4.8109E-002  
  532.00  4.8664E-002  
  532.50  4.9221E-002  
  533.00  4.9723E-002  
  533.50  5.0164E-002  
  534.00  5.0593E-002  
  534.50  5.1026E-002  
  535.00  5.1453E-002  
  535.50  5.1916E-002  
  536.00  5.2394E-002  
  536.50  5.2924E-002  
  537.00  5.3493E-002  
  537.50  5.4035E-002  
  538.00  5.4582E-002  
  538.50  5.5049E-002  
  539.00  5.5551E-002  
  539.50  5.6106E-002  
  540.00  5.6764E-002  
  540.50  5.7382E-002  
  541.00  5.7914E-002  
  541.50  5.8351E-002  
  542.00  5.8835E-002  
  542.50  5.9352E-002  
  543.00  5.9910E-002  
  543.50  6.0422E-002  
  544.00  6.1042E-002  
  544.50  6.1624E-002  
  545.00  6.2228E-002  
  545.50  6.2809E-002  
  546.00  6.3318E-002  
  546.50  6.3824E-002  
  547.00  6.4295E-002  
  547.50  6.4837E-002  
  548.00  6.5460E-002  
  548.50  6.6047E-002  
  549.00  6.6644E-002  
  549.50  6.7178E-002  
  550.00  6.7756E-002  
  550.50  6.8409E-002  
  551.00  6.9059E-002  
  551.50  6.9678E-002  
  552.00  7.0189E-002  
  552.50  7.0777E-002  
  553.00  7.1445E-002  
  553.50  7.2140E-002  
  554.00  7.2671E-002  
  554.50  7.3264E-002  
  555.00  7.3808E-002  
  555.50  7.4432E-002  
  556.00  7.5094E-002  
  556.50  7.5724E-002  
  557.00  7.6407E-002  
  557.50  7.7040E-002  
  558.00  7.7555E-002  
  558.50  7.8224E-002  
  559.00  7.8864E-002  
  559.50  7.9572E-002  
  560.00  8.0134E-002  
  560.50  8.0582E-002  
  561.00  8.1042E-002  
  561.50  8.1492E-002  
  562.00  8.2059E-002  
  562.50  8.2618E-002  
  563.00  8.3209E-002  
  563.50  8.3833E-002  
  564.00  8.4374E-002  
  564.50  8.4939E-002  
  565.00  8.5487E-002  
  565.50  8.6028E-002  
  566.00  8.6595E-002  
  566.50  8.7139E-002  
  567.00  8.7551E-002  
  567.50  8.7993E-002  
  568.00  8.8538E-002  
  568.50  8.9100E-002  
  569.00  8.9692E-002  
  569.50  9.0191E-002  
  570.00  9.0685E-002  
  570.50  9.1321E-002  
  571.00  9.2020E-002  
  571.50  9.2695E-002  
  572.00  9.3289E-002  
  572.50  9.3742E-002  
  573.00  9.4080E-002  
  573.50  9.4464E-002  
  574.00  9.4865E-002  
  574.50  9.5392E-002  
  575.00  9.6064E-002  
  575.50  9.6701E-002  
  576.00  9.7380E-002  
  576.50  9.7914E-002  
  577.00  9.8351E-002  
  577.50  9.8788E-002  
  578.00  9.9173E-002  
  578.50  9.9842E-002  
  579.00  1.0043E-001  
  579.50  1.0106E-001  
  580.00  1.0153E-001  
  580.50  1.0198E-001  
  581.00  1.0247E-001  
  581.50  1.0298E-001  
  582.00  1.0345E-001  
  582.50  1.0394E-001  
  583.00  1.0436E-001  
  583.50  1.0490E-001  
  584.00  1.0544E-001  
  584.50  1.0610E-001  
  585.00  1.0659E-001  
  585.50  1.0702E-001  
  586.00  1.0738E-001  
  586.50  1.0787E-001  
  587.00  1.0835E-001  
  587.50  1.0872E-001  
  588.00  1.0902E-001  
  588.50  1.0939E-001  
  589.00  1.0984E-001  
  589.50  1.1034E-001  
  590.00  1.1078E-001  
  590.50  1.1121E-001  
  591.00  1.1160E-001  
  591.50  1.1196E-001  
  592.00  1.1225E-001  
  592.50  1.1241E-001  
  593.00  1.1264E-001  
  593.50  1.1300E-001  
  594.00  1.1346E-001  
  594.50  1.1381E-001  
  595.00  1.1417E-001  
  595.50  1.1441E-001  
  596.00  1.1470E-001  
  596.50  1.1500E-001  
  597.00  1.1539E-001  
  597.50  1.1578E-001  
  598.00  1.1603E-001  
  598.50  1.1614E-001  
  599.00  1.1626E-001  
  599.50  1.1639E-001  
  600.00  1.1652E-001  
  600.50  1.1660E-001  
  601.00  1.1689E-001  
  601.50  1.1725E-001  
  602.00  1.1749E-001  
  602.50  1.1769E-001  
  603.00  1.1774E-001  
  603.50  1.1783E-001  
  604.00  1.1797E-001  
  604.50  1.1810E-001  
  605.00  1.1818E-001  
  605.50  1.1813E-001  
  606.00  1.1817E-001  
  606.50  1.1843E-001  
  607.00  1.1853E-001  
  607.50  1.1850E-001  
  608.00  1.1839E-001  
  608.50  1.1854E-001  
  609.00  1.1870E-001  
  609.50  1.1874E-001  
  610.00  1.1855E-001  
  610.50  1.1838E-001  
  611.00  1.1830E-001  
  611.50  1.1836E-001  
  612.00  1.1835E-001  
  612.50  1.1822E-001  
  613.00  1.1796E-001  
  613.50  1.1774E-001  
  614.00  1.1763E-001  
  614.50  1.1766E-001  
  615.00  1.1768E-001  
  615.50  1.1749E-001  
  616.00  1.1713E-001  
  616.50  1.1687E-001  
  617.00  1.1672E-001  
  617.50  1.1652E-001  
  618.00  1.1625E-001  
  618.50  1.1598E-001  
  619.00  1.1576E-001  
  619.50  1.1547E-001  
  620.00  1.1525E-001  
  620.50  1.1499E-001  
  621.00  1.1476E-001  
  621.50  1.1429E-001  
  622.00  1.1391E-001  
  622.50  1.1344E-001  
  623.00  1.1302E-001  
  623.50  1.1274E-001  
  624.00  1.1250E-001  
  624.50  1.1216E-001  
  625.00  1.1157E-001  
  625.50  1.1093E-001  
  626.00  1.1041E-001  
  626.50  1.0988E-001  
  627.00  1.0939E-001  
  627.50  1.0886E-001  
  628.00  1.0838E-001  
  628.50  1.0793E-001  
  629.00  1.0760E-001  
  629.50  1.0721E-001  
  630.00  1.0681E-001  
  630.50  1.0626E-001  
  631.00  1.0584E-001  
  631.50  1.0552E-001  
  632.00  1.0502E-001  
  632.50  1.0438E-001  
  633.00  1.0355E-001  
  633.50  1.0287E-001  
  634.00  1.0233E-001  
  634.50  1.0189E-001  
  635.00  1.0141E-001  
  635.50  1.0080E-001  
  636.00  1.0006E-001  
  636.50  9.9217E-002  
  637.00  9.8482E-002  
  637.50  9.7823E-002  
  638.00  9.7251E-002  
  638.50  9.6722E-002  
  639.00  9.6097E-002  
  639.50  9.5477E-002  
  640.00  9.4866E-002  
  640.50  9.4232E-002  
  641.00  9.3545E-002  
  641.50  9.2722E-002  
  642.00  9.1945E-002  
  642.50  9.1352E-002  
  643.00  9.0870E-002  
  643.50  9.0420E-002  
  644.00  8.9945E-002  
  644.50  8.9223E-002  
  645.00  8.8407E-002  
  645.50  8.7428E-002  
  646.00  8.6637E-002  
  646.50  8.5851E-002  
  647.00  8.5188E-002  
  647.50  8.4631E-002  
  648.00  8.3995E-002  
  648.50  8.3307E-002  
  649.00  8.2510E-002  
  649.50  8.1775E-002  
  650.00  8.1134E-002  
  650.50  8.0477E-002  
  651.00  7.9785E-002  
  651.50  7.8854E-002  
  652.00  7.7881E-002  
  652.50  7.7130E-002  
  653.00  7.6466E-002  
  653.50  7.5758E-002  
  654.00  7.5079E-002  
  654.50  7.4341E-002  
  655.00  7.3731E-002  
  655.50  7.3018E-002  
  656.00  7.2456E-002  
  656.50  7.1791E-002  
  657.00  7.0990E-002  
  657.50  7.0278E-002  
  658.00  6.9669E-002  
  658.50  6.9045E-002  
  659.00  6.8361E-002  
  659.50  6.7583E-002  
  660.00  6.6772E-002  
  660.50  6.5968E-002  
  661.00  6.5161E-002  
  661.50  6.4552E-002  
  662.00  6.3816E-002  
  662.50  6.3071E-002  
  663.00  6.2267E-002  
  663.50  6.1630E-002  
  664.00  6.0991E-002  
  664.50  6.0395E-002  
  665.00  5.9685E-002  
  665.50  5.8993E-002  
  666.00  5.8163E-002  
  666.50  5.7476E-002  
  667.00  5.6913E-002  
  667.50  5.6384E-002  
  668.00  5.5737E-002  
  668.50  5.5044E-002  
  669.00  5.4430E-002  
  669.50  5.3825E-002  
  670.00  5.3055E-002  
  670.50  5.2233E-002  
  671.00  5.1540E-002  
  671.50  5.0976E-002  
  672.00  5.0479E-002  
  672.50  4.9819E-002  
  673.00  4.9236E-002  
  673.50  4.8673E-002  
  674.00  4.8161E-002  
  674.50  4.7676E-002  
  675.00  4.7149E-002  
  675.50  4.6589E-002  
  676.00  4.5889E-002  
  676.50  4.5232E-002  
  677.00  4.4694E-002  
  677.50  4.4185E-002  
  678.00  4.3691E-002  
  678.50  4.3020E-002  
  679.00  4.2298E-002  
  679.50  4.1612E-002  
  680.00  4.1058E-002  
  680.50  4.0604E-002  
  681.00  4.0086E-002  
  681.50  3.9666E-002  
  682.00  3.9250E-002  
  682.50  3.8865E-002  
  683.00  3.8456E-002  
  683.50  3.7953E-002  
  684.00  3.7324E-002  
  684.50  3.6667E-002  
  685.00  3.6226E-002  
  685.50  3.5773E-002  
  686.00  3.5344E-002  
  686.50  3.4819E-002  
  687.00  3.4377E-002  
  687.50  3.4001E-002  
  688.00  3.3626E-002  
  688.50  3.3249E-002  
  689.00  3.2657E-002  
  689.50  3.2004E-002  
  690.00  3.1444E-002  
  690.50  3.1041E-002  
  691.00  3.0738E-002  
  691.50  3.0343E-002  
  692.00  2.9931E-002  
  692.50  2.9520E-002  
  693.00  2.9091E-002  
  693.50  2.8644E-002  
  694.00  2.8305E-002  
  694.50  2.7977E-002  
  695.00  2.7670E-002  
  695.50  2.7263E-002  
  696.00  2.6910E-002  
  696.50  2.6394E-002  
  697.00  2.5908E-002  
  697.50  2.5603E-002  
  698.00  2.5419E-002  
  698.50  2.5158E-002  
  699.00  2.4784E-002  
  699.50  2.4485E-002  
  700.00  2.4069E-002  
  700.50  2.3555E-002  
  701.00  2.3061E-002  
  701.50  2.2691E-002  
  702.00  2.2290E-002  
  702.50  2.1989E-002  
  703.00  2.1656E-002  
  703.50  2.1473E-002  
  704.00  2.1183E-002  
  704.50  2.1007E-002  
  705.00  2.0637E-002  
  705.50  2.0184E-002  
  706.00  1.9780E-002  
  706.50  1.9498E-002  
  707.00  1.9312E-002  
  707.50  1.9158E-002  
  708.00  1.8928E-002  
  708.50  1.8664E-002  
  709.00  1.8298E-002  
  709.50  1.8110E-002  
  710.00  1.7823E-002  
  710.50  1.7589E-002  
  711.00  1.7318E-002  
  711.50  1.7024E-002  
  712.00  1.6698E-002  
  712.50  1.6437E-002  
  713.00  1.6213E-002  
  713.50  1.5956E-002  
  714.00  1.5624E-002  
  714.50  1.5467E-002  
  715.00  1.5263E-002  
  715.50  1.5083E-002  
  716.00  1.4725E-002  
  716.50  1.4439E-002  
  717.00  1.4159E-002  
  717.50  1.4043E-002  
  718.00  1.3894E-002  
  718.50  1.3752E-002  
  719.00  1.3556E-002  
  719.50  1.3547E-002  
  720.00  1.3363E-002  
  720.50  1.3135E-002  
  721.00  1.2819E-002  
  721.50  1.2536E-002  
  722.00  1.2180E-002  
  722.50  1.1903E-002  
  723.00  1.1789E-002  
  723.50  1.1683E-002  
  724.00  1.1513E-002  
  724.50  1.1291E-002  
  725.00  1.1179E-002  
  725.50  1.1066E-002  
  726.00  1.1026E-002  
  726.50  1.0763E-002  
  727.00  1.0465E-002  
  727.50  1.0287E-002  
  728.00  1.0279E-002  
  728.50  1.0192E-002  
  729.00  1.0033E-002  
  729.50  9.9519E-003  
  730.00  9.9489E-003  
  730.50  9.7907E-003  
  731.00  9.4434E-003  
  731.50  9.1135E-003  
  732.00  8.9705E-003  
  732.50  8.8887E-003  
  733.00  8.7771E-003  
  733.50  8.6717E-003  
  734.00  8.5508E-003  
  734.50  8.4852E-003  
  735.00  8.3996E-003  
  735.50  8.2136E-003  
  736.00  7.9492E-003  
  736.50  7.7439E-003  
  737.00  7.5634E-003  
  737.50  7.4493E-003  
  738.00  7.3700E-003  
  738.50  7.3310E-003  
  739.00  7.2190E-003  
  739.50  7.1446E-003  
  740.00  7.0903E-003  
  740.50  7.0408E-003  
  741.00  6.9557E-003  
  741.50  6.7881E-003  
  742.00  6.6174E-003  
  742.50  6.4257E-003  
  743.00  6.3278E-003  
  743.50  6.0910E-003  
  744.00  5.9459E-003  
  744.50  5.8502E-003  
  745.00  5.8159E-003  
  745.50  5.7203E-003  
  746.00  5.6982E-003  
  746.50  5.6759E-003  
  747.00  5.6649E-003  
  747.50  5.5429E-003  
  748.00  5.3187E-003  
  748.50  5.0454E-003  
  749.00  5.1197E-003  
  749.50  5.2502E-003  
  750.00  5.2571E-003  
  750.50  4.6819E-003  
  751.00  4.2866E-003  
  751.50  4.1689E-003  
  752.00  4.4085E-003  
  752.50  4.4040E-003  
  753.00  4.2951E-003  
  753.50  4.2629E-003  
  754.00  4.2241E-003  
  754.50  4.2663E-003  
  755.00  4.2317E-003  
  755.50  4.0384E-003  
  756.00  3.9858E-003  
  756.50  3.9928E-003  
  757.00  4.1111E-003  
  757.50  4.0275E-003  
  758.00  3.8546E-003  
  758.50  3.7378E-003  
  759.00  3.7135E-003  
  759.50  3.7163E-003  
  760.00  3.5274E-003  
  760.50  3.3346E-003  
  761.00  3.3683E-003  
  761.50  3.5111E-003  
  762.00  3.4841E-003  
  762.50  3.2182E-003  
  763.00  3.0136E-003  
  763.50  2.9104E-003  
  764.00  2.7971E-003  
  764.50  2.6609E-003  
  765.00  2.7282E-003  
  765.50  2.8987E-003  
  766.00  2.9413E-003  
  766.50  2.8166E-003  
  767.00  2.5109E-003  
  767.50  2.3196E-003  
  768.00  2.3610E-003  
  768.50  2.4979E-003  
  769.00  2.4442E-003  
  769.50  2.2790E-003  
  770.00  2.2373E-003  
  770.50  2.2975E-003  
  771.00  2.3160E-003  
  771.50  2.0872E-003  
  772.00  1.8717E-003  
  772.50  1.7686E-003  
  773.00  1.8485E-003  
  773.50  2.0544E-003  
  774.00  2.2694E-003  
  774.50  2.1478E-003  
  775.00  1.8707E-003  
  775.50  1.8418E-003  
  776.00  1.9682E-003  
  776.50  1.8692E-003  
  777.00  1.7083E-003  
  777.50  1.6292E-003  
  778.00  1.5517E-003  
  778.50  1.4596E-003  
  779.00  1.3967E-003  
  779.50  1.4057E-003  
  780.00  1.5554E-003  
  780.50  1.5446E-003  
  781.00  1.5408E-003  
  781.50  1.5090E-003  
  782.00  1.6816E-003  
  782.50  1.6394E-003  
  783.00  1.4283E-003  
  783.50  1.2919E-003  
  784.00  1.2367E-003  
  784.50  1.3161E-003  
  785.00  1.3335E-003  
  785.50  1.2341E-003  
  786.00  1.0070E-003  
  786.50  9.8889E-004  
  787.00  1.1139E-003  
  787.50  1.1611E-003  
  788.00  8.9147E-004  
  788.50  6.2867E-004  
  789.00  5.2124E-004  
  789.50  6.2092E-004  
  790.00  7.2818E-004  
  790.50  7.6240E-004  
  791.00  7.5338E-004  
  791.50  7.9020E-004  
  792.00  7.6583E-004  
  792.50  7.8119E-004  
  793.00  7.2266E-004  
  793.50  4.5143E-004  
  794.00  4.4789E-004  
  794.50  4.5636E-004  
  795.00  5.6045E-004  
  795.50  4.3754E-004  
  796.00  3.8364E-004  
  796.50  3.7300E-004  
  797.00  4.1849E-004  
  797.50  4.2638E-004  
  798.00  3.4228E-004  
  798.50  2.5446E-004  
  799.00  3.4760E-004  
  799.50  4.3211E-004  
  800.00  3.4399E-004  
  800.50  3.1590E-004  
  801.00  2.5594E-004  
  801.50  2.8672E-004  
  802.00  2.9531E-004  
  802.50  2.4641E-004  
  803.00  1.9202E-004  
  803.50  1.2003E-004  
  804.00  7.6086E-005  
  804.50  1.8088E-004  
  805.00  1.0160E-004  
  805.50  1.4858E-004  
  806.00  2.2638E-004  
  806.50  2.4773E-004  
  807.00  1.0197E-004  
  807.50  4.0281E-006  
  808.00  0.0000E+000  
  808.50  0.0000E+000  
  809.00  0.0000E+000  
  809.50  0.0000E+000  
  810.00  0.0000E+000  
  810.50  0.0000E+000  
  811.00  0.0000E+000  
  811.50  0.0000E+000  
  812.00  0.0000E+000  
  812.50  2.5139E-005  
  813.00  0.0000E+000  
  813.50  0.0000E+000  
  814.00  0.0000E+000  
  814.50  0.0000E+000  
  815.00  0.0000E+000  
  815.50  0.0000E+000  
  816.00  0.0000E+000  
  816.50  0.0000E+000  
  817.00  0.0000E+000  
  817.50  0.0000E+000  
  818.00  0.0000E+000  
  818.50  0.0000E+000  
  819.00  0.0000E+000  
  819.50  0.0000E+000  
  820.00  0.0000E+000  
  820.50  0.0000E+000  
  821.00  0.0000E+000  
  821.50  0.0000E+000  
  822.00  0.0000E+000  
  822.50  0.0000E+000  
  823.00  0.0000E+000  
  823.50  0.0000E+000  
  824.00  0.0000E+000  
  824.50  0.0000E+000  
  825.00  0.0000E+000  
  825.50  0.0000E+000  
  826.00  0.0000E+000  
  826.50  0.0000E+000  
  827.00  0.0000E+000  
  827.50  0.0000E+000  
  828.00  0.0000E+000  
  828.50  0.0000E+000  
  829.00  0.0000E+000  
  829.50  0.0000E+000  
  830.00  0.0000E+000  
  830.50  0.0000E+000  
  831.00  0.0000E+000  
  831.50  0.0000E+000  
  832.00  0.0000E+000  
  832.50  0.0000E+000  
  833.00  0.0000E+000  
  833.50  0.0000E+000  
  834.00  0.0000E+000  
  834.50  0.0000E+000  
  835.00  0.0000E+000  
  835.50  0.0000E+000  
  836.00  0.0000E+000  
  836.50  0.0000E+000  
  837.00  0.0000E+000  
  837.50  0.0000E+000  
  838.00  0.0000E+000  
  838.50  0.0000E+000  
  839.00  0.0000E+000  
  839.50  0.0000E+000  
  840.00  0.0000E+000  
  840.50  0.0000E+000  
  841.00  0.0000E+000  
  841.50  0.0000E+000  
  842.00  0.0000E+000  
  842.50  0.0000E+000  
  843.00  0.0000E+000  
  843.50  0.0000E+000  
  844.00  0.0000E+000  
  844.50  0.0000E+000  
  845.00  0.0000E+000  
  845.50  0.0000E+000  
  846.00  0.0000E+000  
  846.50  0.0000E+000  
  847.00  0.0000E+000  
  847.50  0.0000E+000  
  848.00  0.0000E+000  
  848.50  0.0000E+000  
  849.00  0.0000E+000  
  849.50  0.0000E+000  
  850.00  0.0000E+000  
  850.50  0.0000E+000  
  851.00  0.0000E+000  
  851.50  0.0000E+000  
  852.00  0.0000E+000  
  852.50  0.0000E+000  
  853.00  0.0000E+000  
  853.50  0.0000E+000  
  854.00  0.0000E+000  
  854.50  0.0000E+000  
  855.00  0.0000E+000  
  855.50  0.0000E+000  
  856.00  0.0000E+000  
  856.50  0.0000E+000  
  857.00  0.0000E+000  
  857.50  0.0000E+000  
  858.00  0.0000E+000  
  858.50  0.0000E+000  
  859.00  0.0000E+000  
  859.50  0.0000E+000  
  860.00  0.0000E+000  
  860.50  0.0000E+000  
  861.00  0.0000E+000  
  861.50  0.0000E+000  
  862.00  0.0000E+000  
  862.50  0.0000E+000  
  863.00  0.0000E+000  
  863.50  0.0000E+000  
  864.00  0.0000E+000  
  864.50  0.0000E+000  
  865.00  0.0000E+000  
  865.50  0.0000E+000  
  866.00  0.0000E+000  
  866.50  0.0000E+000  
  867.00  0.0000E+000  
  867.50  0.0000E+000  
  868.00  0.0000E+000  
  868.50  0.0000E+000  
  869.00  0.0000E+000  
  869.50  0.0000E+000  
  870.00  0.0000E+000  
  870.50  0.0000E+000  
  871.00  0.0000E+000  
  871.50  0.0000E+000  
  872.00  0.0000E+000  
  872.50  0.0000E+000  
  873.00  0.0000E+000  
  873.50  0.0000E+000  
  874.00  0.0000E+000  
  874.50  0.0000E+000  
  875.00  0.0000E+000  
  875.50  0.0000E+000  
  876.00  0.0000E+000  
  876.50  0.0000E+000  
  877.00  0.0000E+000  
  877.50  0.0000E+000  
  878.00  0.0000E+000  
  878.50  0.0000E+000  
  879.00  0.0000E+000  
  879.50  0.0000E+000  
  880.00  0.0000E+000  
  880.50  0.0000E+000  
  881.00  0.0000E+000  
  881.50  0.0000E+000  
  882.00  0.0000E+000  
  882.50  0.0000E+000  
  883.00  0.0000E+000  
  883.50  0.0000E+000  
  884.00  0.0000E+000  
  884.50  0.0000E+000  
  885.00  0.0000E+000  
  885.50  0.0000E+000  
  886.00  0.0000E+000  
  886.50  0.0000E+000  
  887.00  0.0000E+000  
  887.50  0.0000E+000  
  888.00  0.0000E+000  
  888.50  0.0000E+000  
  889.00  0.0000E+000  
  889.50  0.0000E+000  
  890.00  0.0000E+000  
  890.50  0.0000E+000  
  891.00  0.0000E+000  
  891.50  0.0000E+000  
  892.00  0.0000E+000  
  892.50  0.0000E+000  
  893.00  0.0000E+000  
  893.50  0.0000E+000  
  894.00  0.0000E+000  
  894.50  0.0000E+000  
  895.00  0.0000E+000  
  895.50  0.0000E+000  
  896.00  0.0000E+000  
  896.50  0.0000E+000  
  897.00  0.0000E+000  
  897.50  0.0000E+000  
  898.00  0.0000E+000  
  898.50  0.0000E+000  
  899.00  0.0000E+000  
  899.50  0.0000E+000  
