
# From lspdd.org
# 
# Name: DEL Ecosmart Encastre 10.1cm Domestique
# Indice spectral Valeur 
# MSI 0.25 
# SLI 0.46 
# IPI 0.58 
# Pourcentage de bleu 17.7 
# Caractéristique Valeur 
# CCT calculée (K) 2636 
# CCT du fabricant (K) 2700 
# Tension (V) 120 
# Puissance (W) 9.5 
# Efficacité lumineuse (Lum/W) 60.5 
#
# Image: '/app/system/img_2s/2624/medium_image2.JPG?1413486744'
# Image: '/app/system/img_1s/2624/medium_image1.JPG?1413486748'
# 

  273.00  0.0000E+000  
  273.50  0.0000E+000  
  274.00  0.0000E+000  
  274.50  0.0000E+000  
  275.00  0.0000E+000  
  275.50  0.0000E+000  
  276.00  0.0000E+000  
  276.50  0.0000E+000  
  277.00  0.0000E+000  
  277.50  0.0000E+000  
  278.00  0.0000E+000  
  278.50  0.0000E+000  
  279.00  0.0000E+000  
  279.50  0.0000E+000  
  280.00  0.0000E+000  
  280.50  0.0000E+000  
  281.00  0.0000E+000  
  281.50  0.0000E+000  
  282.00  0.0000E+000  
  282.50  0.0000E+000  
  283.00  0.0000E+000  
  283.50  0.0000E+000  
  284.00  0.0000E+000  
  284.50  0.0000E+000  
  285.00  0.0000E+000  
  285.50  0.0000E+000  
  286.00  0.0000E+000  
  286.50  0.0000E+000  
  287.00  0.0000E+000  
  287.50  0.0000E+000  
  288.00  0.0000E+000  
  288.50  0.0000E+000  
  289.00  0.0000E+000  
  289.50  0.0000E+000  
  290.00  0.0000E+000  
  290.50  0.0000E+000  
  291.00  0.0000E+000  
  291.50  0.0000E+000  
  292.00  0.0000E+000  
  292.50  0.0000E+000  
  293.00  0.0000E+000  
  293.50  0.0000E+000  
  294.00  0.0000E+000  
  294.50  0.0000E+000  
  295.00  0.0000E+000  
  295.50  0.0000E+000  
  296.00  0.0000E+000  
  296.50  0.0000E+000  
  297.00  0.0000E+000  
  297.50  0.0000E+000  
  298.00  0.0000E+000  
  298.50  0.0000E+000  
  299.00  0.0000E+000  
  299.50  0.0000E+000  
  300.00  0.0000E+000  
  300.50  0.0000E+000  
  301.00  0.0000E+000  
  301.50  0.0000E+000  
  302.00  0.0000E+000  
  302.50  0.0000E+000  
  303.00  0.0000E+000  
  303.50  0.0000E+000  
  304.00  0.0000E+000  
  304.50  0.0000E+000  
  305.00  0.0000E+000  
  305.50  0.0000E+000  
  306.00  4.2792E-006  
  306.50  0.0000E+000  
  307.00  0.0000E+000  
  307.50  0.0000E+000  
  308.00  0.0000E+000  
  308.50  0.0000E+000  
  309.00  0.0000E+000  
  309.50  0.0000E+000  
  310.00  0.0000E+000  
  310.50  0.0000E+000  
  311.00  0.0000E+000  
  311.50  0.0000E+000  
  312.00  0.0000E+000  
  312.50  0.0000E+000  
  313.00  0.0000E+000  
  313.50  0.0000E+000  
  314.00  0.0000E+000  
  314.50  0.0000E+000  
  315.00  0.0000E+000  
  315.50  0.0000E+000  
  316.00  0.0000E+000  
  316.50  0.0000E+000  
  317.00  0.0000E+000  
  317.50  0.0000E+000  
  318.00  0.0000E+000  
  318.50  0.0000E+000  
  319.00  0.0000E+000  
  319.50  0.0000E+000  
  320.00  0.0000E+000  
  320.50  0.0000E+000  
  321.00  0.0000E+000  
  321.50  0.0000E+000  
  322.00  0.0000E+000  
  322.50  0.0000E+000  
  323.00  0.0000E+000  
  323.50  0.0000E+000  
  324.00  0.0000E+000  
  324.50  0.0000E+000  
  325.00  0.0000E+000  
  325.50  0.0000E+000  
  326.00  0.0000E+000  
  326.50  0.0000E+000  
  327.00  0.0000E+000  
  327.50  0.0000E+000  
  328.00  0.0000E+000  
  328.50  0.0000E+000  
  329.00  0.0000E+000  
  329.50  0.0000E+000  
  330.00  0.0000E+000  
  330.50  0.0000E+000  
  331.00  0.0000E+000  
  331.50  0.0000E+000  
  332.00  0.0000E+000  
  332.50  0.0000E+000  
  333.00  0.0000E+000  
  333.50  0.0000E+000  
  334.00  0.0000E+000  
  334.50  0.0000E+000  
  335.00  0.0000E+000  
  335.50  0.0000E+000  
  336.00  0.0000E+000  
  336.50  0.0000E+000  
  337.00  0.0000E+000  
  337.50  0.0000E+000  
  338.00  0.0000E+000  
  338.50  0.0000E+000  
  339.00  0.0000E+000  
  339.50  0.0000E+000  
  340.00  0.0000E+000  
  340.50  0.0000E+000  
  341.00  0.0000E+000  
  341.50  0.0000E+000  
  342.00  0.0000E+000  
  342.50  1.5190E-005  
  343.00  8.2125E-006  
  343.50  0.0000E+000  
  344.00  0.0000E+000  
  344.50  0.0000E+000  
  345.00  0.0000E+000  
  345.50  1.8155E-005  
  346.00  2.0683E-005  
  346.50  5.8550E-007  
  347.00  0.0000E+000  
  347.50  0.0000E+000  
  348.00  0.0000E+000  
  348.50  0.0000E+000  
  349.00  1.4210E-005  
  349.50  1.4159E-005  
  350.00  0.0000E+000  
  350.50  0.0000E+000  
  351.00  0.0000E+000  
  351.50  0.0000E+000  
  352.00  1.7836E-005  
  352.50  3.0060E-005  
  353.00  9.1954E-006  
  353.50  0.0000E+000  
  354.00  0.0000E+000  
  354.50  0.0000E+000  
  355.00  0.0000E+000  
  355.50  0.0000E+000  
  356.00  0.0000E+000  
  356.50  0.0000E+000  
  357.00  0.0000E+000  
  357.50  0.0000E+000  
  358.00  0.0000E+000  
  358.50  0.0000E+000  
  359.00  0.0000E+000  
  359.50  0.0000E+000  
  360.00  0.0000E+000  
  360.50  0.0000E+000  
  361.00  0.0000E+000  
  361.50  0.0000E+000  
  362.00  0.0000E+000  
  362.50  0.0000E+000  
  363.00  0.0000E+000  
  363.50  0.0000E+000  
  364.00  1.9400E-005  
  364.50  1.7476E-005  
  365.00  2.4721E-005  
  365.50  2.3260E-005  
  366.00  0.0000E+000  
  366.50  0.0000E+000  
  367.00  0.0000E+000  
  367.50  0.0000E+000  
  368.00  0.0000E+000  
  368.50  0.0000E+000  
  369.00  0.0000E+000  
  369.50  0.0000E+000  
  370.00  0.0000E+000  
  370.50  0.0000E+000  
  371.00  0.0000E+000  
  371.50  0.0000E+000  
  372.00  0.0000E+000  
  372.50  0.0000E+000  
  373.00  0.0000E+000  
  373.50  0.0000E+000  
  374.00  0.0000E+000  
  374.50  0.0000E+000  
  375.00  0.0000E+000  
  375.50  0.0000E+000  
  376.00  0.0000E+000  
  376.50  0.0000E+000  
  377.00  0.0000E+000  
  377.50  0.0000E+000  
  378.00  0.0000E+000  
  378.50  0.0000E+000  
  379.00  0.0000E+000  
  379.50  0.0000E+000  
  380.00  0.0000E+000  
  380.50  0.0000E+000  
  381.00  0.0000E+000  
  381.50  2.5295E-005  
  382.00  9.2685E-005  
  382.50  5.7940E-005  
  383.00  6.1378E-005  
  383.50  3.1385E-005  
  384.00  9.9941E-007  
  384.50  7.0776E-006  
  385.00  2.5555E-007  
  385.50  0.0000E+000  
  386.00  0.0000E+000  
  386.50  0.0000E+000  
  387.00  0.0000E+000  
  387.50  0.0000E+000  
  388.00  0.0000E+000  
  388.50  0.0000E+000  
  389.00  0.0000E+000  
  389.50  0.0000E+000  
  390.00  0.0000E+000  
  390.50  0.0000E+000  
  391.00  0.0000E+000  
  391.50  0.0000E+000  
  392.00  0.0000E+000  
  392.50  0.0000E+000  
  393.00  0.0000E+000  
  393.50  0.0000E+000  
  394.00  0.0000E+000  
  394.50  0.0000E+000  
  395.00  0.0000E+000  
  395.50  0.0000E+000  
  396.00  0.0000E+000  
  396.50  0.0000E+000  
  397.00  0.0000E+000  
  397.50  0.0000E+000  
  398.00  0.0000E+000  
  398.50  0.0000E+000  
  399.00  0.0000E+000  
  399.50  0.0000E+000  
  400.00  8.0381E-006  
  400.50  7.2718E-006  
  401.00  1.4144E-005  
  401.50  0.0000E+000  
  402.00  0.0000E+000  
  402.50  6.3683E-008  
  403.00  1.3423E-005  
  403.50  4.1708E-005  
  404.00  1.0921E-004  
  404.50  1.1278E-004  
  405.00  4.7871E-005  
  405.50  4.2351E-006  
  406.00  0.0000E+000  
  406.50  0.0000E+000  
  407.00  1.3064E-005  
  407.50  4.3404E-005  
  408.00  4.8262E-005  
  408.50  9.4080E-005  
  409.00  8.2875E-005  
  409.50  7.2078E-005  
  410.00  4.9402E-005  
  410.50  3.8539E-005  
  411.00  6.8108E-005  
  411.50  2.6314E-005  
  412.00  3.1740E-006  
  412.50  2.0200E-005  
  413.00  7.4526E-005  
  413.50  1.3547E-004  
  414.00  1.6680E-004  
  414.50  1.8967E-004  
  415.00  2.6925E-004  
  415.50  3.4568E-004  
  416.00  4.0717E-004  
  416.50  4.2186E-004  
  417.00  4.2104E-004  
  417.50  4.8094E-004  
  418.00  5.7765E-004  
  418.50  6.4573E-004  
  419.00  7.2969E-004  
  419.50  7.3875E-004  
  420.00  7.9463E-004  
  420.50  8.3241E-004  
  421.00  9.0222E-004  
  421.50  1.0120E-003  
  422.00  1.1238E-003  
  422.50  1.2154E-003  
  423.00  1.2717E-003  
  423.50  1.2844E-003  
  424.00  1.3308E-003  
  424.50  1.3997E-003  
  425.00  1.4617E-003  
  425.50  1.5361E-003  
  426.00  1.6698E-003  
  426.50  1.7979E-003  
  427.00  1.9511E-003  
  427.50  2.0902E-003  
  428.00  2.1666E-003  
  428.50  2.3036E-003  
  429.00  2.3662E-003  
  429.50  2.4603E-003  
  430.00  2.5200E-003  
  430.50  2.5954E-003  
  431.00  2.7066E-003  
  431.50  2.7851E-003  
  432.00  2.8988E-003  
  432.50  2.9908E-003  
  433.00  3.1469E-003  
  433.50  3.2808E-003  
  434.00  3.4056E-003  
  434.50  3.5084E-003  
  435.00  3.6044E-003  
  435.50  3.7046E-003  
  436.00  3.8714E-003  
  436.50  4.0557E-003  
  437.00  4.2695E-003  
  437.50  4.4674E-003  
  438.00  4.6038E-003  
  438.50  4.7177E-003  
  439.00  4.8046E-003  
  439.50  4.9203E-003  
  440.00  5.0425E-003  
  440.50  5.2064E-003  
  441.00  5.3763E-003  
  441.50  5.5818E-003  
  442.00  5.7463E-003  
  442.50  5.9127E-003  
  443.00  6.0583E-003  
  443.50  6.2025E-003  
  444.00  6.3135E-003  
  444.50  6.3798E-003  
  445.00  6.4384E-003  
  445.50  6.5310E-003  
  446.00  6.6469E-003  
  446.50  6.7171E-003  
  447.00  6.6933E-003  
  447.50  6.6643E-003  
  448.00  6.6703E-003  
  448.50  6.7073E-003  
  449.00  6.7191E-003  
  449.50  6.6664E-003  
  450.00  6.5314E-003  
  450.50  6.3828E-003  
  451.00  6.1859E-003  
  451.50  5.9782E-003  
  452.00  5.7775E-003  
  452.50  5.5946E-003  
  453.00  5.4124E-003  
  453.50  5.2061E-003  
  454.00  5.0184E-003  
  454.50  4.8524E-003  
  455.00  4.6639E-003  
  455.50  4.4735E-003  
  456.00  4.2625E-003  
  456.50  4.0539E-003  
  457.00  3.8804E-003  
  457.50  3.7228E-003  
  458.00  3.5593E-003  
  458.50  3.4379E-003  
  459.00  3.2891E-003  
  459.50  3.1319E-003  
  460.00  2.9934E-003  
  460.50  2.8523E-003  
  461.00  2.7275E-003  
  461.50  2.5923E-003  
  462.00  2.5056E-003  
  462.50  2.4687E-003  
  463.00  2.4284E-003  
  463.50  2.3792E-003  
  464.00  2.3188E-003  
  464.50  2.2513E-003  
  465.00  2.2108E-003  
  465.50  2.1356E-003  
  466.00  2.0500E-003  
  466.50  1.9821E-003  
  467.00  1.8890E-003  
  467.50  1.8233E-003  
  468.00  1.7509E-003  
  468.50  1.6982E-003  
  469.00  1.6780E-003  
  469.50  1.6661E-003  
  470.00  1.6326E-003  
  470.50  1.6367E-003  
  471.00  1.6393E-003  
  471.50  1.6329E-003  
  472.00  1.6103E-003  
  472.50  1.5328E-003  
  473.00  1.4718E-003  
  473.50  1.4373E-003  
  474.00  1.4340E-003  
  474.50  1.4102E-003  
  475.00  1.3745E-003  
  475.50  1.3421E-003  
  476.00  1.3156E-003  
  476.50  1.3375E-003  
  477.00  1.3593E-003  
  477.50  1.3709E-003  
  478.00  1.3352E-003  
  478.50  1.2816E-003  
  479.00  1.2409E-003  
  479.50  1.2241E-003  
  480.00  1.2086E-003  
  480.50  1.1873E-003  
  481.00  1.1745E-003  
  481.50  1.1378E-003  
  482.00  1.1107E-003  
  482.50  1.1333E-003  
  483.00  1.1623E-003  
  483.50  1.2098E-003  
  484.00  1.2493E-003  
  484.50  1.2725E-003  
  485.00  1.3346E-003  
  485.50  1.3636E-003  
  486.00  1.3774E-003  
  486.50  1.3501E-003  
  487.00  1.3388E-003  
  487.50  1.3710E-003  
  488.00  1.4405E-003  
  488.50  1.5150E-003  
  489.00  1.5349E-003  
  489.50  1.5386E-003  
  490.00  1.5629E-003  
  490.50  1.6191E-003  
  491.00  1.6792E-003  
  491.50  1.7267E-003  
  492.00  1.7742E-003  
  492.50  1.8406E-003  
  493.00  1.9119E-003  
  493.50  1.9728E-003  
  494.00  2.0306E-003  
  494.50  2.0844E-003  
  495.00  2.1325E-003  
  495.50  2.1876E-003  
  496.00  2.2580E-003  
  496.50  2.3502E-003  
  497.00  2.4531E-003  
  497.50  2.5279E-003  
  498.00  2.6320E-003  
  498.50  2.7501E-003  
  499.00  2.9041E-003  
  499.50  3.0581E-003  
  500.00  3.2179E-003  
  500.50  3.3307E-003  
  501.00  3.4654E-003  
  501.50  3.5808E-003  
  502.00  3.7366E-003  
  502.50  3.8751E-003  
  503.00  4.0247E-003  
  503.50  4.1441E-003  
  504.00  4.2824E-003  
  504.50  4.4329E-003  
  505.00  4.6021E-003  
  505.50  4.8130E-003  
  506.00  5.0015E-003  
  506.50  5.1562E-003  
  507.00  5.3068E-003  
  507.50  5.4677E-003  
  508.00  5.6221E-003  
  508.50  5.7680E-003  
  509.00  5.9033E-003  
  509.50  6.0393E-003  
  510.00  6.2438E-003  
  510.50  6.4358E-003  
  511.00  6.6394E-003  
  511.50  6.8303E-003  
  512.00  7.0251E-003  
  512.50  7.2361E-003  
  513.00  7.4270E-003  
  513.50  7.5838E-003  
  514.00  7.7466E-003  
  514.50  7.9218E-003  
  515.00  8.1092E-003  
  515.50  8.2616E-003  
  516.00  8.4418E-003  
  516.50  8.6288E-003  
  517.00  8.8528E-003  
  517.50  9.0505E-003  
  518.00  9.2018E-003  
  518.50  9.3521E-003  
  519.00  9.4512E-003  
  519.50  9.5357E-003  
  520.00  9.6562E-003  
  520.50  9.8321E-003  
  521.00  1.0031E-002  
  521.50  1.0243E-002  
  522.00  1.0407E-002  
  522.50  1.0546E-002  
  523.00  1.0664E-002  
  523.50  1.0794E-002  
  524.00  1.0965E-002  
  524.50  1.1124E-002  
  525.00  1.1256E-002  
  525.50  1.1329E-002  
  526.00  1.1408E-002  
  526.50  1.1521E-002  
  527.00  1.1617E-002  
  527.50  1.1711E-002  
  528.00  1.1785E-002  
  528.50  1.1898E-002  
  529.00  1.2033E-002  
  529.50  1.2149E-002  
  530.00  1.2211E-002  
  530.50  1.2269E-002  
  531.00  1.2349E-002  
  531.50  1.2454E-002  
  532.00  1.2549E-002  
  532.50  1.2607E-002  
  533.00  1.2694E-002  
  533.50  1.2809E-002  
  534.00  1.2914E-002  
  534.50  1.3001E-002  
  535.00  1.3061E-002  
  535.50  1.3137E-002  
  536.00  1.3207E-002  
  536.50  1.3272E-002  
  537.00  1.3306E-002  
  537.50  1.3343E-002  
  538.00  1.3358E-002  
  538.50  1.3364E-002  
  539.00  1.3395E-002  
  539.50  1.3439E-002  
  540.00  1.3466E-002  
  540.50  1.3501E-002  
  541.00  1.3531E-002  
  541.50  1.3583E-002  
  542.00  1.3668E-002  
  542.50  1.3696E-002  
  543.00  1.3745E-002  
  543.50  1.3749E-002  
  544.00  1.3782E-002  
  544.50  1.3831E-002  
  545.00  1.3882E-002  
  545.50  1.3940E-002  
  546.00  1.3975E-002  
  546.50  1.4016E-002  
  547.00  1.4033E-002  
  547.50  1.4031E-002  
  548.00  1.4002E-002  
  548.50  1.3973E-002  
  549.00  1.3983E-002  
  549.50  1.4021E-002  
  550.00  1.4078E-002  
  550.50  1.4089E-002  
  551.00  1.4098E-002  
  551.50  1.4122E-002  
  552.00  1.4161E-002  
  552.50  1.4204E-002  
  553.00  1.4219E-002  
  553.50  1.4194E-002  
  554.00  1.4192E-002  
  554.50  1.4158E-002  
  555.00  1.4184E-002  
  555.50  1.4181E-002  
  556.00  1.4186E-002  
  556.50  1.4181E-002  
  557.00  1.4204E-002  
  557.50  1.4237E-002  
  558.00  1.4228E-002  
  558.50  1.4220E-002  
  559.00  1.4215E-002  
  559.50  1.4264E-002  
  560.00  1.4304E-002  
  560.50  1.4296E-002  
  561.00  1.4246E-002  
  561.50  1.4174E-002  
  562.00  1.4138E-002  
  562.50  1.4166E-002  
  563.00  1.4193E-002  
  563.50  1.4194E-002  
  564.00  1.4137E-002  
  564.50  1.4085E-002  
  565.00  1.4076E-002  
  565.50  1.4067E-002  
  566.00  1.4040E-002  
  566.50  1.3985E-002  
  567.00  1.3907E-002  
  567.50  1.3885E-002  
  568.00  1.3899E-002  
  568.50  1.3934E-002  
  569.00  1.3944E-002  
  569.50  1.3890E-002  
  570.00  1.3816E-002  
  570.50  1.3779E-002  
  571.00  1.3782E-002  
  571.50  1.3776E-002  
  572.00  1.3756E-002  
  572.50  1.3737E-002  
  573.00  1.3737E-002  
  573.50  1.3741E-002  
  574.00  1.3712E-002  
  574.50  1.3686E-002  
  575.00  1.3648E-002  
  575.50  1.3619E-002  
  576.00  1.3603E-002  
  576.50  1.3604E-002  
  577.00  1.3591E-002  
  577.50  1.3568E-002  
  578.00  1.3509E-002  
  578.50  1.3489E-002  
  579.00  1.3493E-002  
  579.50  1.3486E-002  
  580.00  1.3504E-002  
  580.50  1.3532E-002  
  581.00  1.3583E-002  
  581.50  1.3590E-002  
  582.00  1.3527E-002  
  582.50  1.3467E-002  
  583.00  1.3446E-002  
  583.50  1.3441E-002  
  584.00  1.3424E-002  
  584.50  1.3405E-002  
  585.00  1.3360E-002  
  585.50  1.3387E-002  
  586.00  1.3412E-002  
  586.50  1.3470E-002  
  587.00  1.3489E-002  
  587.50  1.3522E-002  
  588.00  1.3531E-002  
  588.50  1.3543E-002  
  589.00  1.3494E-002  
  589.50  1.3467E-002  
  590.00  1.3538E-002  
  590.50  1.3613E-002  
  591.00  1.3703E-002  
  591.50  1.3756E-002  
  592.00  1.3757E-002  
  592.50  1.3767E-002  
  593.00  1.3792E-002  
  593.50  1.3891E-002  
  594.00  1.4027E-002  
  594.50  1.4121E-002  
  595.00  1.4231E-002  
  595.50  1.4327E-002  
  596.00  1.4454E-002  
  596.50  1.4545E-002  
  597.00  1.4652E-002  
  597.50  1.4783E-002  
  598.00  1.4915E-002  
  598.50  1.5067E-002  
  599.00  1.5218E-002  
  599.50  1.5441E-002  
  600.00  1.5654E-002  
  600.50  1.5832E-002  
  601.00  1.6043E-002  
  601.50  1.6315E-002  
  602.00  1.6595E-002  
  602.50  1.6887E-002  
  603.00  1.7150E-002  
  603.50  1.7465E-002  
  604.00  1.7811E-002  
  604.50  1.8207E-002  
  605.00  1.8580E-002  
  605.50  1.8969E-002  
  606.00  1.9335E-002  
  606.50  1.9800E-002  
  607.00  2.0304E-002  
  607.50  2.0810E-002  
  608.00  2.1331E-002  
  608.50  2.1844E-002  
  609.00  2.2425E-002  
  609.50  2.3004E-002  
  610.00  2.3630E-002  
  610.50  2.4294E-002  
  611.00  2.5085E-002  
  611.50  2.5882E-002  
  612.00  2.6645E-002  
  612.50  2.7401E-002  
  613.00  2.8218E-002  
  613.50  2.9131E-002  
  614.00  3.0091E-002  
  614.50  3.1138E-002  
  615.00  3.2205E-002  
  615.50  3.3266E-002  
  616.00  3.4320E-002  
  616.50  3.5428E-002  
  617.00  3.6602E-002  
  617.50  3.7890E-002  
  618.00  3.9201E-002  
  618.50  4.0457E-002  
  619.00  4.1562E-002  
  619.50  4.2620E-002  
  620.00  4.3653E-002  
  620.50  4.4631E-002  
  621.00  4.5482E-002  
  621.50  4.6217E-002  
  622.00  4.6710E-002  
  622.50  4.6785E-002  
  623.00  4.6495E-002  
  623.50  4.5936E-002  
  624.00  4.5170E-002  
  624.50  4.4098E-002  
  625.00  4.2618E-002  
  625.50  4.0971E-002  
  626.00  3.9058E-002  
  626.50  3.7091E-002  
  627.00  3.4953E-002  
  627.50  3.2769E-002  
  628.00  3.0468E-002  
  628.50  2.8280E-002  
  629.00  2.6252E-002  
  629.50  2.4405E-002  
  630.00  2.2712E-002  
  630.50  2.1072E-002  
  631.00  1.9598E-002  
  631.50  1.8255E-002  
  632.00  1.7051E-002  
  632.50  1.5984E-002  
  633.00  1.4980E-002  
  633.50  1.4111E-002  
  634.00  1.3377E-002  
  634.50  1.2772E-002  
  635.00  1.2202E-002  
  635.50  1.1564E-002  
  636.00  1.0929E-002  
  636.50  1.0330E-002  
  637.00  9.8555E-003  
  637.50  9.4307E-003  
  638.00  9.0726E-003  
  638.50  8.7835E-003  
  639.00  8.5067E-003  
  639.50  8.1960E-003  
  640.00  7.8853E-003  
  640.50  7.6049E-003  
  641.00  7.3775E-003  
  641.50  7.1755E-003  
  642.00  6.9752E-003  
  642.50  6.7904E-003  
  643.00  6.5859E-003  
  643.50  6.4041E-003  
  644.00  6.2467E-003  
  644.50  6.0640E-003  
  645.00  5.8564E-003  
  645.50  5.6748E-003  
  646.00  5.5512E-003  
  646.50  5.4841E-003  
  647.00  5.4444E-003  
  647.50  5.4094E-003  
  648.00  5.3265E-003  
  648.50  5.1698E-003  
  649.00  5.0103E-003  
  649.50  4.9438E-003  
  650.00  4.9094E-003  
  650.50  4.7953E-003  
  651.00  4.6574E-003  
  651.50  4.5488E-003  
  652.00  4.5114E-003  
  652.50  4.4815E-003  
  653.00  4.4511E-003  
  653.50  4.3812E-003  
  654.00  4.3076E-003  
  654.50  4.2370E-003  
  655.00  4.1937E-003  
  655.50  4.1221E-003  
  656.00  4.0414E-003  
  656.50  3.9951E-003  
  657.00  3.9368E-003  
  657.50  3.8474E-003  
  658.00  3.7620E-003  
  658.50  3.7244E-003  
  659.00  3.7484E-003  
  659.50  3.7640E-003  
  660.00  3.7102E-003  
  660.50  3.6194E-003  
  661.00  3.5386E-003  
  661.50  3.4949E-003  
  662.00  3.4276E-003  
  662.50  3.2795E-003  
  663.00  3.1939E-003  
  663.50  3.1714E-003  
  664.00  3.2317E-003  
  664.50  3.2620E-003  
  665.00  3.2493E-003  
  665.50  3.2252E-003  
  666.00  3.1414E-003  
  666.50  3.0378E-003  
  667.00  2.9521E-003  
  667.50  2.9582E-003  
  668.00  3.0030E-003  
  668.50  3.0007E-003  
  669.00  2.9642E-003  
  669.50  2.8756E-003  
  670.00  2.7212E-003  
  670.50  2.5795E-003  
  671.00  2.4508E-003  
  671.50  2.4506E-003  
  672.00  2.4770E-003  
  672.50  2.5527E-003  
  673.00  2.5687E-003  
  673.50  2.5270E-003  
  674.00  2.4496E-003  
  674.50  2.3938E-003  
  675.00  2.3576E-003  
  675.50  2.3080E-003  
  676.00  2.2419E-003  
  676.50  2.2165E-003  
  677.00  2.2684E-003  
  677.50  2.2770E-003  
  678.00  2.2161E-003  
  678.50  2.1574E-003  
  679.00  2.1617E-003  
  679.50  2.1908E-003  
  680.00  2.0964E-003  
  680.50  2.0626E-003  
  681.00  2.0257E-003  
  681.50  2.0438E-003  
  682.00  1.9090E-003  
  682.50  1.7945E-003  
  683.00  1.7403E-003  
  683.50  1.7702E-003  
  684.00  1.8378E-003  
  684.50  1.8828E-003  
  685.00  1.8544E-003  
  685.50  1.7547E-003  
  686.00  1.6658E-003  
  686.50  1.6486E-003  
  687.00  1.6510E-003  
  687.50  1.6262E-003  
  688.00  1.6421E-003  
  688.50  1.6117E-003  
  689.00  1.6181E-003  
  689.50  1.5354E-003  
  690.00  1.5355E-003  
  690.50  1.5245E-003  
  691.00  1.5980E-003  
  691.50  1.6341E-003  
  692.00  1.5559E-003  
  692.50  1.4015E-003  
  693.00  1.3366E-003  
  693.50  1.4210E-003  
  694.00  1.4566E-003  
  694.50  1.4552E-003  
  695.00  1.3915E-003  
  695.50  1.3904E-003  
  696.00  1.3053E-003  
  696.50  1.2218E-003  
  697.00  1.1380E-003  
  697.50  1.1139E-003  
  698.00  1.1644E-003  
  698.50  1.1807E-003  
  699.00  1.1831E-003  
  699.50  1.1566E-003  
  700.00  1.1735E-003  
  700.50  1.1709E-003  
  701.00  1.1076E-003  
  701.50  1.0857E-003  
  702.00  1.0957E-003  
  702.50  1.1593E-003  
  703.00  1.1343E-003  
  703.50  1.1171E-003  
  704.00  1.0115E-003  
  704.50  9.2797E-004  
  705.00  8.9538E-004  
  705.50  9.4234E-004  
  706.00  9.7273E-004  
  706.50  9.7320E-004  
  707.00  9.8643E-004  
  707.50  9.1648E-004  
  708.00  8.6268E-004  
  708.50  8.5220E-004  
  709.00  8.5853E-004  
  709.50  8.0617E-004  
  710.00  7.9114E-004  
  710.50  8.4789E-004  
  711.00  8.4868E-004  
  711.50  8.0973E-004  
  712.00  7.2293E-004  
  712.50  7.4811E-004  
  713.00  6.9912E-004  
  713.50  7.2808E-004  
  714.00  7.2163E-004  
  714.50  7.0522E-004  
  715.00  6.8162E-004  
  715.50  6.7526E-004  
  716.00  7.5812E-004  
  716.50  7.7701E-004  
  717.00  7.2541E-004  
  717.50  6.7851E-004  
  718.00  7.3060E-004  
  718.50  7.2678E-004  
  719.00  6.8416E-004  
  719.50  6.3274E-004  
  720.00  6.6069E-004  
  720.50  6.6655E-004  
  721.00  5.7505E-004  
  721.50  4.5542E-004  
  722.00  4.2015E-004  
  722.50  4.8273E-004  
  723.00  5.4979E-004  
  723.50  5.2161E-004  
  724.00  5.1422E-004  
  724.50  4.5962E-004  
  725.00  3.6628E-004  
  725.50  3.7870E-004  
  726.00  3.9039E-004  
  726.50  4.5978E-004  
  727.00  4.4765E-004  
  727.50  5.0534E-004  
  728.00  4.5649E-004  
  728.50  4.4679E-004  
  729.00  4.0958E-004  
  729.50  3.5002E-004  
  730.00  2.4682E-004  
  730.50  2.4801E-004  
  731.00  2.7554E-004  
  731.50  2.8139E-004  
  732.00  2.6882E-004  
  732.50  2.8039E-004  
  733.00  2.5325E-004  
  733.50  2.7724E-004  
  734.00  4.0501E-004  
  734.50  5.1982E-004  
  735.00  5.9698E-004  
  735.50  4.9397E-004  
  736.00  3.4362E-004  
  736.50  1.5954E-004  
  737.00  1.1430E-004  
  737.50  1.8225E-004  
  738.00  3.0963E-004  
  738.50  3.1336E-004  
  739.00  2.5853E-004  
  739.50  3.1952E-004  
  740.00  3.1246E-004  
  740.50  3.2086E-004  
  741.00  2.9316E-004  
  741.50  2.7931E-004  
  742.00  1.4769E-004  
  742.50  5.5426E-005  
  743.00  6.5568E-005  
  743.50  1.6543E-004  
  744.00  2.0882E-004  
  744.50  2.1190E-004  
  745.00  1.5718E-004  
  745.50  1.1440E-004  
  746.00  2.1231E-004  
  746.50  3.0045E-004  
  747.00  4.1150E-004  
  747.50  4.2332E-004  
  748.00  2.8940E-004  
  748.50  6.9646E-005  
  749.00  4.5801E-005  
  749.50  1.6494E-004  
  750.00  1.4981E-004  
  750.50  1.3697E-004  
  751.00  1.4790E-004  
  751.50  3.5807E-004  
  752.00  4.1336E-004  
  752.50  3.9543E-004  
  753.00  3.5128E-004  
  753.50  2.4956E-004  
  754.00  1.8276E-004  
  754.50  1.4079E-004  
  755.00  1.6731E-004  
  755.50  1.6628E-004  
  756.00  9.0243E-005  
  756.50  3.7459E-005  
  757.00  8.1267E-005  
  757.50  1.2853E-004  
  758.00  9.3237E-005  
  758.50  7.4454E-005  
  759.00  1.4955E-004  
  759.50  2.0063E-004  
  760.00  9.5595E-005  
  760.50  0.0000E+000  
  761.00  0.0000E+000  
  761.50  0.0000E+000  
  762.00  0.0000E+000  
  762.50  0.0000E+000  
  763.00  0.0000E+000  
  763.50  0.0000E+000  
  764.00  0.0000E+000  
  764.50  0.0000E+000  
  765.00  4.6349E-005  
  765.50  1.3888E-004  
  766.00  2.0314E-004  
  766.50  3.3292E-004  
  767.00  3.0940E-004  
  767.50  2.9274E-004  
  768.00  1.4005E-004  
  768.50  6.0563E-006  
  769.00  0.0000E+000  
  769.50  0.0000E+000  
  770.00  0.0000E+000  
  770.50  1.0688E-005  
  771.00  4.0837E-005  
  771.50  1.5233E-004  
  772.00  2.1312E-004  
  772.50  2.8587E-004  
  773.00  1.5830E-004  
  773.50  1.2827E-004  
  774.00  1.9515E-004  
  774.50  2.1461E-004  
  775.00  8.8347E-005  
  775.50  0.0000E+000  
  776.00  0.0000E+000  
  776.50  0.0000E+000  
  777.00  5.6475E-005  
  777.50  6.9938E-005  
  778.00  4.7361E-006  
  778.50  4.4282E-005  
  779.00  1.7511E-004  
  779.50  2.7888E-004  
  780.00  3.0264E-004  
  780.50  2.6918E-004  
  781.00  2.5105E-004  
  781.50  7.1390E-005  
  782.00  0.0000E+000  
  782.50  1.5511E-006  
  783.00  1.3293E-004  
  783.50  2.3708E-005  
  784.00  0.0000E+000  
  784.50  0.0000E+000  
  785.00  0.0000E+000  
  785.50  0.0000E+000  
  786.00  5.8812E-006  
  786.50  0.0000E+000  
  787.00  0.0000E+000  
  787.50  0.0000E+000  
  788.00  0.0000E+000  
  788.50  0.0000E+000  
  789.00  5.2962E-005  
  789.50  0.0000E+000  
  790.00  0.0000E+000  
  790.50  0.0000E+000  
  791.00  0.0000E+000  
  791.50  0.0000E+000  
  792.00  3.2708E-005  
  792.50  1.2963E-004  
  793.00  2.0414E-004  
  793.50  0.0000E+000  
  794.00  0.0000E+000  
  794.50  0.0000E+000  
  795.00  0.0000E+000  
  795.50  0.0000E+000  
  796.00  0.0000E+000  
  796.50  0.0000E+000  
  797.00  0.0000E+000  
  797.50  0.0000E+000  
  798.00  0.0000E+000  
  798.50  0.0000E+000  
  799.00  0.0000E+000  
  799.50  0.0000E+000  
  800.00  0.0000E+000  
  800.50  0.0000E+000  
  801.00  4.5813E-005  
  801.50  1.7894E-005  
  802.00  0.0000E+000  
  802.50  0.0000E+000  
  803.00  0.0000E+000  
  803.50  0.0000E+000  
  804.00  0.0000E+000  
  804.50  0.0000E+000  
  805.00  0.0000E+000  
  805.50  0.0000E+000  
  806.00  0.0000E+000  
  806.50  0.0000E+000  
  807.00  0.0000E+000  
  807.50  0.0000E+000  
  808.00  0.0000E+000  
  808.50  0.0000E+000  
  809.00  0.0000E+000  
  809.50  0.0000E+000  
  810.00  0.0000E+000  
  810.50  0.0000E+000  
  811.00  0.0000E+000  
  811.50  0.0000E+000  
  812.00  0.0000E+000  
  812.50  0.0000E+000  
  813.00  0.0000E+000  
  813.50  0.0000E+000  
  814.00  0.0000E+000  
  814.50  0.0000E+000  
  815.00  0.0000E+000  
  815.50  1.0682E-004  
  816.00  0.0000E+000  
  816.50  0.0000E+000  
  817.00  0.0000E+000  
  817.50  0.0000E+000  
  818.00  0.0000E+000  
  818.50  0.0000E+000  
  819.00  0.0000E+000  
  819.50  0.0000E+000  
  820.00  0.0000E+000  
  820.50  0.0000E+000  
  821.00  0.0000E+000  
  821.50  0.0000E+000  
  822.00  0.0000E+000  
  822.50  0.0000E+000  
  823.00  0.0000E+000  
  823.50  0.0000E+000  
  824.00  0.0000E+000  
  824.50  0.0000E+000  
  825.00  0.0000E+000  
  825.50  0.0000E+000  
  826.00  0.0000E+000  
  826.50  0.0000E+000  
  827.00  0.0000E+000  
  827.50  0.0000E+000  
  828.00  0.0000E+000  
  828.50  0.0000E+000  
  829.00  0.0000E+000  
  829.50  0.0000E+000  
  830.00  0.0000E+000  
  830.50  0.0000E+000  
  831.00  0.0000E+000  
  831.50  0.0000E+000  
  832.00  0.0000E+000  
  832.50  0.0000E+000  
  833.00  0.0000E+000  
  833.50  0.0000E+000  
  834.00  0.0000E+000  
  834.50  0.0000E+000  
  835.00  0.0000E+000  
  835.50  0.0000E+000  
  836.00  0.0000E+000  
  836.50  0.0000E+000  
  837.00  0.0000E+000  
  837.50  0.0000E+000  
  838.00  0.0000E+000  
  838.50  0.0000E+000  
  839.00  0.0000E+000  
  839.50  2.8090E-005  
  840.00  2.9686E-004  
  840.50  0.0000E+000  
  841.00  0.0000E+000  
  841.50  0.0000E+000  
  842.00  0.0000E+000  
  842.50  0.0000E+000  
  843.00  0.0000E+000  
  843.50  0.0000E+000  
  844.00  0.0000E+000  
  844.50  0.0000E+000  
  845.00  0.0000E+000  
  845.50  0.0000E+000  
  846.00  0.0000E+000  
  846.50  0.0000E+000  
  847.00  0.0000E+000  
  847.50  0.0000E+000  
  848.00  0.0000E+000  
  848.50  0.0000E+000  
  849.00  0.0000E+000  
  849.50  0.0000E+000  
  850.00  0.0000E+000  
  850.50  0.0000E+000  
  851.00  0.0000E+000  
  851.50  1.1604E-004  
  852.00  0.0000E+000  
  852.50  0.0000E+000  
  853.00  0.0000E+000  
  853.50  0.0000E+000  
  854.00  0.0000E+000  
  854.50  0.0000E+000  
  855.00  0.0000E+000  
  855.50  0.0000E+000  
  856.00  0.0000E+000  
  856.50  0.0000E+000  
  857.00  0.0000E+000  
  857.50  0.0000E+000  
  858.00  0.0000E+000  
  858.50  0.0000E+000  
  859.00  0.0000E+000  
  859.50  0.0000E+000  
  860.00  0.0000E+000  
  860.50  0.0000E+000  
  861.00  0.0000E+000  
  861.50  0.0000E+000  
  862.00  0.0000E+000  
  862.50  0.0000E+000  
  863.00  0.0000E+000  
  863.50  0.0000E+000  
  864.00  0.0000E+000  
  864.50  0.0000E+000  
  865.00  0.0000E+000  
  865.50  0.0000E+000  
  866.00  0.0000E+000  
  866.50  0.0000E+000  
  867.00  0.0000E+000  
  867.50  0.0000E+000  
  868.00  0.0000E+000  
  868.50  0.0000E+000  
  869.00  2.3199E-005  
  869.50  0.0000E+000  
  870.00  0.0000E+000  
  870.50  0.0000E+000  
  871.00  0.0000E+000  
  871.50  0.0000E+000  
  872.00  0.0000E+000  
  872.50  0.0000E+000  
  873.00  2.0330E-004  
  873.50  2.2310E-004  
  874.00  0.0000E+000  
  874.50  0.0000E+000  
  875.00  0.0000E+000  
  875.50  0.0000E+000  
  876.00  0.0000E+000  
  876.50  0.0000E+000  
  877.00  0.0000E+000  
  877.50  0.0000E+000  
  878.00  0.0000E+000  
  878.50  0.0000E+000  
  879.00  0.0000E+000  
  879.50  0.0000E+000  
  880.00  0.0000E+000  
  880.50  0.0000E+000  
  881.00  0.0000E+000  
  881.50  0.0000E+000  
  882.00  0.0000E+000  
  882.50  0.0000E+000  
  883.00  0.0000E+000  
  883.50  0.0000E+000  
  884.00  0.0000E+000  
  884.50  0.0000E+000  
  885.00  0.0000E+000  
  885.50  0.0000E+000  
  886.00  0.0000E+000  
  886.50  0.0000E+000  
  887.00  0.0000E+000  
  887.50  0.0000E+000  
  888.00  0.0000E+000  
  888.50  0.0000E+000  
  889.00  0.0000E+000  
  889.50  0.0000E+000  
  890.00  0.0000E+000  
  890.50  0.0000E+000  
  891.00  0.0000E+000  
  891.50  0.0000E+000  
  892.00  0.0000E+000  
  892.50  0.0000E+000  
  893.00  0.0000E+000  
  893.50  0.0000E+000  
  894.00  0.0000E+000  
  894.50  0.0000E+000  
  895.00  1.6648E-004  
  895.50  0.0000E+000  
  896.00  0.0000E+000  
  896.50  0.0000E+000  
  897.00  0.0000E+000  
  897.50  0.0000E+000  
  898.00  0.0000E+000  
  898.50  0.0000E+000  
  899.00  0.0000E+000  
  899.50  0.0000E+000  
