
# From lspdd.org
# 
# Name: LFC Globe A19 Domestique
# Indice spectral Valeur 
# MSI 0.28 
# SLI 0.47 
# IPI 0.56 
# Pourcentage de bleu 15.7 
# Caractéristique Valeur 
# CCT calculée (K) 2825 
# CCT du fabricant (K) 3000 
# Tension (V) 120 
# Puissance (W) 16.0 
# Efficacité lumineuse (Lum/W) 54.0 
#
# Image: '/app/system/img_1s/2626/medium_image1.JPG?1413486759'
# 

  273.00  0.0000E+000  
  273.50  0.0000E+000  
  274.00  0.0000E+000  
  274.50  0.0000E+000  
  275.00  0.0000E+000  
  275.50  0.0000E+000  
  276.00  0.0000E+000  
  276.50  0.0000E+000  
  277.00  0.0000E+000  
  277.50  0.0000E+000  
  278.00  0.0000E+000  
  278.50  0.0000E+000  
  279.00  0.0000E+000  
  279.50  0.0000E+000  
  280.00  0.0000E+000  
  280.50  0.0000E+000  
  281.00  0.0000E+000  
  281.50  0.0000E+000  
  282.00  0.0000E+000  
  282.50  0.0000E+000  
  283.00  0.0000E+000  
  283.50  0.0000E+000  
  284.00  0.0000E+000  
  284.50  0.0000E+000  
  285.00  0.0000E+000  
  285.50  0.0000E+000  
  286.00  0.0000E+000  
  286.50  0.0000E+000  
  287.00  0.0000E+000  
  287.50  0.0000E+000  
  288.00  0.0000E+000  
  288.50  0.0000E+000  
  289.00  0.0000E+000  
  289.50  0.0000E+000  
  290.00  0.0000E+000  
  290.50  0.0000E+000  
  291.00  0.0000E+000  
  291.50  0.0000E+000  
  292.00  0.0000E+000  
  292.50  0.0000E+000  
  293.00  0.0000E+000  
  293.50  0.0000E+000  
  294.00  0.0000E+000  
  294.50  0.0000E+000  
  295.00  0.0000E+000  
  295.50  0.0000E+000  
  296.00  0.0000E+000  
  296.50  0.0000E+000  
  297.00  0.0000E+000  
  297.50  0.0000E+000  
  298.00  0.0000E+000  
  298.50  0.0000E+000  
  299.00  0.0000E+000  
  299.50  0.0000E+000  
  300.00  0.0000E+000  
  300.50  0.0000E+000  
  301.00  0.0000E+000  
  301.50  0.0000E+000  
  302.00  0.0000E+000  
  302.50  0.0000E+000  
  303.00  0.0000E+000  
  303.50  0.0000E+000  
  304.00  0.0000E+000  
  304.50  0.0000E+000  
  305.00  0.0000E+000  
  305.50  0.0000E+000  
  306.00  0.0000E+000  
  306.50  0.0000E+000  
  307.00  0.0000E+000  
  307.50  0.0000E+000  
  308.00  0.0000E+000  
  308.50  0.0000E+000  
  309.00  0.0000E+000  
  309.50  2.9644E-006  
  310.00  2.8263E-005  
  310.50  5.1208E-005  
  311.00  5.6475E-005  
  311.50  3.8833E-005  
  312.00  1.6900E-005  
  312.50  0.0000E+000  
  313.00  0.0000E+000  
  313.50  0.0000E+000  
  314.00  0.0000E+000  
  314.50  0.0000E+000  
  315.00  0.0000E+000  
  315.50  0.0000E+000  
  316.00  0.0000E+000  
  316.50  0.0000E+000  
  317.00  0.0000E+000  
  317.50  0.0000E+000  
  318.00  0.0000E+000  
  318.50  0.0000E+000  
  319.00  1.0183E-006  
  319.50  6.1985E-007  
  320.00  0.0000E+000  
  320.50  0.0000E+000  
  321.00  0.0000E+000  
  321.50  0.0000E+000  
  322.00  0.0000E+000  
  322.50  0.0000E+000  
  323.00  0.0000E+000  
  323.50  1.6671E-005  
  324.00  4.3317E-005  
  324.50  3.5311E-005  
  325.00  5.9327E-006  
  325.50  0.0000E+000  
  326.00  0.0000E+000  
  326.50  0.0000E+000  
  327.00  0.0000E+000  
  327.50  0.0000E+000  
  328.00  0.0000E+000  
  328.50  0.0000E+000  
  329.00  0.0000E+000  
  329.50  0.0000E+000  
  330.00  0.0000E+000  
  330.50  0.0000E+000  
  331.00  0.0000E+000  
  331.50  0.0000E+000  
  332.00  0.0000E+000  
  332.50  0.0000E+000  
  333.00  0.0000E+000  
  333.50  0.0000E+000  
  334.00  0.0000E+000  
  334.50  6.2414E-007  
  335.00  1.0036E-005  
  335.50  1.9988E-006  
  336.00  0.0000E+000  
  336.50  0.0000E+000  
  337.00  0.0000E+000  
  337.50  0.0000E+000  
  338.00  0.0000E+000  
  338.50  0.0000E+000  
  339.00  0.0000E+000  
  339.50  0.0000E+000  
  340.00  0.0000E+000  
  340.50  0.0000E+000  
  341.00  0.0000E+000  
  341.50  0.0000E+000  
  342.00  0.0000E+000  
  342.50  0.0000E+000  
  343.00  0.0000E+000  
  343.50  1.1842E-006  
  344.00  3.0842E-006  
  344.50  0.0000E+000  
  345.00  0.0000E+000  
  345.50  5.2857E-005  
  346.00  6.7160E-005  
  346.50  7.5530E-005  
  347.00  5.3532E-005  
  347.50  3.1177E-005  
  348.00  2.0045E-005  
  348.50  2.3518E-005  
  349.00  1.2022E-005  
  349.50  7.0014E-008  
  350.00  6.9832E-006  
  350.50  2.2593E-006  
  351.00  0.0000E+000  
  351.50  0.0000E+000  
  352.00  0.0000E+000  
  352.50  0.0000E+000  
  353.00  0.0000E+000  
  353.50  0.0000E+000  
  354.00  0.0000E+000  
  354.50  1.7790E-006  
  355.00  1.3834E-005  
  355.50  2.0228E-005  
  356.00  5.4423E-006  
  356.50  0.0000E+000  
  357.00  5.7830E-007  
  357.50  5.8554E-006  
  358.00  1.6908E-005  
  358.50  4.4827E-005  
  359.00  4.9752E-005  
  359.50  3.8593E-005  
  360.00  1.6444E-005  
  360.50  0.0000E+000  
  361.00  2.6704E-007  
  361.50  1.8197E-006  
  362.00  1.0050E-005  
  362.50  2.9014E-005  
  363.00  6.7892E-005  
  363.50  1.9786E-004  
  364.00  4.1596E-004  
  364.50  6.1049E-004  
  365.00  7.2186E-004  
  365.50  6.7803E-004  
  366.00  4.8721E-004  
  366.50  2.9976E-004  
  367.00  1.5561E-004  
  367.50  6.6337E-005  
  368.00  9.0925E-006  
  368.50  0.0000E+000  
  369.00  0.0000E+000  
  369.50  0.0000E+000  
  370.00  0.0000E+000  
  370.50  0.0000E+000  
  371.00  0.0000E+000  
  371.50  0.0000E+000  
  372.00  0.0000E+000  
  372.50  0.0000E+000  
  373.00  0.0000E+000  
  373.50  0.0000E+000  
  374.00  0.0000E+000  
  374.50  0.0000E+000  
  375.00  0.0000E+000  
  375.50  0.0000E+000  
  376.00  0.0000E+000  
  376.50  0.0000E+000  
  377.00  0.0000E+000  
  377.50  0.0000E+000  
  378.00  0.0000E+000  
  378.50  0.0000E+000  
  379.00  0.0000E+000  
  379.50  0.0000E+000  
  380.00  0.0000E+000  
  380.50  0.0000E+000  
  381.00  1.5579E-005  
  381.50  2.1285E-005  
  382.00  4.3586E-006  
  382.50  0.0000E+000  
  383.00  0.0000E+000  
  383.50  0.0000E+000  
  384.00  0.0000E+000  
  384.50  0.0000E+000  
  385.00  0.0000E+000  
  385.50  0.0000E+000  
  386.00  0.0000E+000  
  386.50  1.9011E-006  
  387.00  2.5828E-005  
  387.50  4.8201E-006  
  388.00  0.0000E+000  
  388.50  0.0000E+000  
  389.00  0.0000E+000  
  389.50  0.0000E+000  
  390.00  0.0000E+000  
  390.50  7.1823E-006  
  391.00  7.9436E-006  
  391.50  1.7429E-007  
  392.00  0.0000E+000  
  392.50  0.0000E+000  
  393.00  0.0000E+000  
  393.50  0.0000E+000  
  394.00  3.1317E-006  
  394.50  2.2607E-006  
  395.00  1.5764E-005  
  395.50  2.1069E-005  
  396.00  2.1979E-005  
  396.50  2.6447E-005  
  397.00  2.0743E-005  
  397.50  1.6839E-005  
  398.00  2.3915E-005  
  398.50  2.4943E-005  
  399.00  1.9215E-005  
  399.50  2.6077E-005  
  400.00  4.3839E-005  
  400.50  4.8691E-005  
  401.00  4.1987E-005  
  401.50  1.4289E-005  
  402.00  3.3441E-007  
  402.50  6.2524E-005  
  403.00  3.3810E-004  
  403.50  8.6674E-004  
  404.00  1.4142E-003  
  404.50  1.6736E-003  
  405.00  1.5130E-003  
  405.50  9.9763E-004  
  406.00  5.2233E-004  
  406.50  2.4284E-004  
  407.00  1.5471E-004  
  407.50  1.1959E-004  
  408.00  7.9967E-005  
  408.50  4.8467E-005  
  409.00  4.6579E-005  
  409.50  6.3517E-005  
  410.00  8.8052E-005  
  410.50  7.9139E-005  
  411.00  6.0647E-005  
  411.50  3.6190E-005  
  412.00  1.7582E-005  
  412.50  9.3753E-006  
  413.00  2.0943E-005  
  413.50  2.5940E-005  
  414.00  2.0223E-005  
  414.50  1.7927E-005  
  415.00  1.5211E-005  
  415.50  3.0125E-005  
  416.00  3.7749E-005  
  416.50  2.4603E-005  
  417.00  1.1242E-005  
  417.50  2.7873E-005  
  418.00  5.4795E-005  
  418.50  9.7994E-005  
  419.00  1.2484E-004  
  419.50  1.3261E-004  
  420.00  1.1008E-004  
  420.50  7.9889E-005  
  421.00  5.2240E-005  
  421.50  2.8299E-005  
  422.00  1.5475E-005  
  422.50  2.1343E-005  
  423.00  3.0055E-005  
  423.50  6.7193E-005  
  424.00  7.9543E-005  
  424.50  8.6700E-005  
  425.00  1.0860E-004  
  425.50  1.2959E-004  
  426.00  1.6357E-004  
  426.50  1.6085E-004  
  427.00  1.2120E-004  
  427.50  8.9514E-005  
  428.00  5.1419E-005  
  428.50  5.0490E-005  
  429.00  7.0588E-005  
  429.50  9.7350E-005  
  430.00  1.1659E-004  
  430.50  1.2063E-004  
  431.00  9.4008E-005  
  431.50  9.3037E-005  
  432.00  1.1887E-004  
  432.50  1.3349E-004  
  433.00  1.6725E-004  
  433.50  3.0405E-004  
  434.00  8.5225E-004  
  434.50  2.2858E-003  
  435.00  4.1372E-003  
  435.50  5.4385E-003  
  436.00  5.2416E-003  
  436.50  3.7954E-003  
  437.00  2.0542E-003  
  437.50  8.5935E-004  
  438.00  3.7193E-004  
  438.50  2.4215E-004  
  439.00  2.0912E-004  
  439.50  2.0164E-004  
  440.00  1.6803E-004  
  440.50  1.3733E-004  
  441.00  1.1413E-004  
  441.50  1.0977E-004  
  442.00  1.2592E-004  
  442.50  1.2613E-004  
  443.00  1.2720E-004  
  443.50  1.2251E-004  
  444.00  1.3062E-004  
  444.50  1.4566E-004  
  445.00  1.4909E-004  
  445.50  1.5761E-004  
  446.00  1.6020E-004  
  446.50  1.6323E-004  
  447.00  1.8085E-004  
  447.50  1.9359E-004  
  448.00  1.9696E-004  
  448.50  1.7016E-004  
  449.00  1.5350E-004  
  449.50  1.6989E-004  
  450.00  1.9588E-004  
  450.50  2.1957E-004  
  451.00  2.1219E-004  
  451.50  1.7493E-004  
  452.00  1.7584E-004  
  452.50  1.7717E-004  
  453.00  1.7259E-004  
  453.50  1.7172E-004  
  454.00  1.5064E-004  
  454.50  1.3921E-004  
  455.00  1.3541E-004  
  455.50  1.3363E-004  
  456.00  1.3714E-004  
  456.50  1.6098E-004  
  457.00  1.5837E-004  
  457.50  1.4701E-004  
  458.00  1.3892E-004  
  458.50  1.2073E-004  
  459.00  1.1755E-004  
  459.50  1.1646E-004  
  460.00  1.3689E-004  
  460.50  1.4176E-004  
  461.00  1.4676E-004  
  461.50  1.3781E-004  
  462.00  1.1413E-004  
  462.50  1.0619E-004  
  463.00  8.4867E-005  
  463.50  6.8943E-005  
  464.00  8.3035E-005  
  464.50  9.7874E-005  
  465.00  1.0168E-004  
  465.50  1.0103E-004  
  466.00  1.0198E-004  
  466.50  1.0687E-004  
  467.00  1.0902E-004  
  467.50  9.1086E-005  
  468.00  9.0058E-005  
  468.50  9.5443E-005  
  469.00  1.2605E-004  
  469.50  1.4035E-004  
  470.00  1.5810E-004  
  470.50  1.4946E-004  
  471.00  1.2665E-004  
  471.50  1.0434E-004  
  472.00  9.3988E-005  
  472.50  7.6848E-005  
  473.00  6.3601E-005  
  473.50  6.1679E-005  
  474.00  9.3069E-005  
  474.50  1.2454E-004  
  475.00  1.5558E-004  
  475.50  1.5142E-004  
  476.00  1.4907E-004  
  476.50  1.4364E-004  
  477.00  1.1701E-004  
  477.50  8.5019E-005  
  478.00  7.6878E-005  
  478.50  9.6241E-005  
  479.00  1.3252E-004  
  479.50  1.8566E-004  
  480.00  2.1295E-004  
  480.50  2.2717E-004  
  481.00  2.3814E-004  
  481.50  2.4112E-004  
  482.00  2.7494E-004  
  482.50  3.3395E-004  
  483.00  4.1665E-004  
  483.50  5.0686E-004  
  484.00  6.0220E-004  
  484.50  7.0848E-004  
  485.00  8.2597E-004  
  485.50  9.4287E-004  
  486.00  1.0243E-003  
  486.50  1.0565E-003  
  487.00  1.0585E-003  
  487.50  1.0339E-003  
  488.00  9.8498E-004  
  488.50  9.1916E-004  
  489.00  8.4871E-004  
  489.50  7.9068E-004  
  490.00  7.4374E-004  
  490.50  7.2133E-004  
  491.00  7.1113E-004  
  491.50  7.0737E-004  
  492.00  6.6741E-004  
  492.50  6.2442E-004  
  493.00  5.8678E-004  
  493.50  5.5615E-004  
  494.00  5.3631E-004  
  494.50  5.0647E-004  
  495.00  4.7409E-004  
  495.50  4.4210E-004  
  496.00  4.1604E-004  
  496.50  3.8781E-004  
  497.00  3.6588E-004  
  497.50  3.4493E-004  
  498.00  3.2539E-004  
  498.50  3.0151E-004  
  499.00  2.8396E-004  
  499.50  2.5695E-004  
  500.00  2.2746E-004  
  500.50  1.9979E-004  
  501.00  1.7749E-004  
  501.50  1.6849E-004  
  502.00  1.4681E-004  
  502.50  1.3004E-004  
  503.00  1.1743E-004  
  503.50  1.1790E-004  
  504.00  1.1741E-004  
  504.50  1.0335E-004  
  505.00  1.0141E-004  
  505.50  1.0919E-004  
  506.00  1.1941E-004  
  506.50  1.2741E-004  
  507.00  1.2720E-004  
  507.50  1.2018E-004  
  508.00  1.0574E-004  
  508.50  9.9256E-005  
  509.00  9.0998E-005  
  509.50  1.0059E-004  
  510.00  1.1281E-004  
  510.50  1.1825E-004  
  511.00  1.0485E-004  
  511.50  8.4873E-005  
  512.00  7.0440E-005  
  512.50  7.2558E-005  
  513.00  8.3756E-005  
  513.50  9.0537E-005  
  514.00  9.6666E-005  
  514.50  9.1356E-005  
  515.00  9.3580E-005  
  515.50  9.1726E-005  
  516.00  1.0263E-004  
  516.50  1.0691E-004  
  517.00  1.0650E-004  
  517.50  1.0412E-004  
  518.00  9.6214E-005  
  518.50  8.6249E-005  
  519.00  8.0863E-005  
  519.50  7.1233E-005  
  520.00  7.5265E-005  
  520.50  8.7529E-005  
  521.00  9.6165E-005  
  521.50  9.2555E-005  
  522.00  8.0027E-005  
  522.50  7.6787E-005  
  523.00  8.4468E-005  
  523.50  8.6517E-005  
  524.00  9.3379E-005  
  524.50  1.0278E-004  
  525.00  1.1301E-004  
  525.50  1.1260E-004  
  526.00  1.1570E-004  
  526.50  1.2221E-004  
  527.00  1.2638E-004  
  527.50  1.2587E-004  
  528.00  1.1234E-004  
  528.50  1.0325E-004  
  529.00  9.7226E-005  
  529.50  1.0004E-004  
  530.00  1.1216E-004  
  530.50  1.1359E-004  
  531.00  1.2246E-004  
  531.50  1.4215E-004  
  532.00  1.8184E-004  
  532.50  2.2335E-004  
  533.00  2.5133E-004  
  533.50  2.5332E-004  
  534.00  2.4165E-004  
  534.50  2.2762E-004  
  535.00  2.2978E-004  
  535.50  2.7858E-004  
  536.00  3.4635E-004  
  536.50  4.7750E-004  
  537.00  6.2090E-004  
  537.50  7.7841E-004  
  538.00  9.3108E-004  
  538.50  1.1279E-003  
  539.00  1.4351E-003  
  539.50  1.9474E-003  
  540.00  2.7441E-003  
  540.50  3.8042E-003  
  541.00  4.8636E-003  
  541.50  5.5598E-003  
  542.00  5.6286E-003  
  542.50  5.2635E-003  
  543.00  4.8210E-003  
  543.50  4.5703E-003  
  544.00  4.7206E-003  
  544.50  5.4162E-003  
  545.00  6.7625E-003  
  545.50  8.1144E-003  
  546.00  8.3786E-003  
  546.50  7.4551E-003  
  547.00  5.7781E-003  
  547.50  4.3173E-003  
  548.00  3.4631E-003  
  548.50  2.9408E-003  
  549.00  2.5812E-003  
  549.50  2.2671E-003  
  550.00  1.9734E-003  
  550.50  1.6923E-003  
  551.00  1.4564E-003  
  551.50  1.2621E-003  
  552.00  1.1020E-003  
  552.50  9.5595E-004  
  553.00  8.3453E-004  
  553.50  7.1998E-004  
  554.00  6.2207E-004  
  554.50  5.2744E-004  
  555.00  4.4664E-004  
  555.50  3.8476E-004  
  556.00  3.2319E-004  
  556.50  2.9528E-004  
  557.00  2.9431E-004  
  557.50  2.8301E-004  
  558.00  2.6514E-004  
  558.50  2.2375E-004  
  559.00  2.0364E-004  
  559.50  1.9070E-004  
  560.00  1.8733E-004  
  560.50  1.8020E-004  
  561.00  1.7780E-004  
  561.50  1.7532E-004  
  562.00  1.6895E-004  
  562.50  1.5917E-004  
  563.00  1.5005E-004  
  563.50  1.3282E-004  
  564.00  1.3188E-004  
  564.50  1.4066E-004  
  565.00  1.4271E-004  
  565.50  1.3219E-004  
  566.00  1.1338E-004  
  566.50  1.0402E-004  
  567.00  1.0560E-004  
  567.50  9.2304E-005  
  568.00  7.3923E-005  
  568.50  6.5879E-005  
  569.00  7.8765E-005  
  569.50  9.3447E-005  
  570.00  9.4198E-005  
  570.50  6.3076E-005  
  571.00  3.9553E-005  
  571.50  2.4612E-005  
  572.00  4.4136E-005  
  572.50  6.0981E-005  
  573.00  7.9396E-005  
  573.50  9.2464E-005  
  574.00  1.0119E-004  
  574.50  1.1990E-004  
  575.00  1.8189E-004  
  575.50  3.6966E-004  
  576.00  6.8492E-004  
  576.50  9.8680E-004  
  577.00  1.1248E-003  
  577.50  1.0783E-003  
  578.00  1.0669E-003  
  578.50  1.1869E-003  
  579.00  1.3119E-003  
  579.50  1.2904E-003  
  580.00  1.1546E-003  
  580.50  1.0111E-003  
  581.00  9.6313E-004  
  581.50  9.8492E-004  
  582.00  1.0716E-003  
  582.50  1.1522E-003  
  583.00  1.2199E-003  
  583.50  1.2498E-003  
  584.00  1.2560E-003  
  584.50  1.2082E-003  
  585.00  1.1529E-003  
  585.50  1.1699E-003  
  586.00  1.3445E-003  
  586.50  1.6499E-003  
  587.00  1.8831E-003  
  587.50  1.8466E-003  
  588.00  1.5591E-003  
  588.50  1.1931E-003  
  589.00  9.3480E-004  
  589.50  8.0343E-004  
  590.00  7.8880E-004  
  590.50  8.4399E-004  
  591.00  9.4638E-004  
  591.50  1.1083E-003  
  592.00  1.3264E-003  
  592.50  1.5509E-003  
  593.00  1.6667E-003  
  593.50  1.5640E-003  
  594.00  1.3032E-003  
  594.50  9.8994E-004  
  595.00  7.5844E-004  
  595.50  6.4451E-004  
  596.00  6.1871E-004  
  596.50  6.3422E-004  
  597.00  6.5251E-004  
  597.50  7.1083E-004  
  598.00  8.2981E-004  
  598.50  9.9282E-004  
  599.00  1.1362E-003  
  599.50  1.1697E-003  
  600.00  1.0998E-003  
  600.50  9.4008E-004  
  601.00  7.6137E-004  
  601.50  6.1166E-004  
  602.00  5.1757E-004  
  602.50  4.6393E-004  
  603.00  4.0946E-004  
  603.50  4.0043E-004  
  604.00  4.3221E-004  
  604.50  4.8059E-004  
  605.00  5.2437E-004  
  605.50  5.5132E-004  
  606.00  6.1242E-004  
  606.50  6.9364E-004  
  607.00  8.0665E-004  
  607.50  9.7077E-004  
  608.00  1.2357E-003  
  608.50  1.6960E-003  
  609.00  2.5698E-003  
  609.50  4.5064E-003  
  610.00  7.7955E-003  
  610.50  1.2003E-002  
  611.00  1.5141E-002  
  611.50  1.5640E-002  
  612.00  1.3312E-002  
  612.50  1.0085E-002  
  613.00  7.5186E-003  
  613.50  6.0448E-003  
  614.00  5.2315E-003  
  614.50  4.6195E-003  
  615.00  3.9474E-003  
  615.50  3.2052E-003  
  616.00  2.5089E-003  
  616.50  1.9308E-003  
  617.00  1.5550E-003  
  617.50  1.2965E-003  
  618.00  1.1369E-003  
  618.50  1.0218E-003  
  619.00  9.5473E-004  
  619.50  9.4477E-004  
  620.00  9.5798E-004  
  620.50  9.8841E-004  
  621.00  1.0166E-003  
  621.50  1.0452E-003  
  622.00  1.0750E-003  
  622.50  1.1015E-003  
  623.00  1.1531E-003  
  623.50  1.2123E-003  
  624.00  1.2738E-003  
  624.50  1.3078E-003  
  625.00  1.3061E-003  
  625.50  1.2940E-003  
  626.00  1.2988E-003  
  626.50  1.3131E-003  
  627.00  1.2994E-003  
  627.50  1.2648E-003  
  628.00  1.2308E-003  
  628.50  1.2245E-003  
  629.00  1.2685E-003  
  629.50  1.4256E-003  
  630.00  1.7307E-003  
  630.50  2.0337E-003  
  631.00  2.1011E-003  
  631.50  1.8062E-003  
  632.00  1.3105E-003  
  632.50  8.3653E-004  
  633.00  5.5952E-004  
  633.50  3.9959E-004  
  634.00  3.3147E-004  
  634.50  2.8846E-004  
  635.00  2.8910E-004  
  635.50  3.0916E-004  
  636.00  3.1144E-004  
  636.50  2.7860E-004  
  637.00  2.2768E-004  
  637.50  1.9169E-004  
  638.00  1.8650E-004  
  638.50  1.8249E-004  
  639.00  1.6632E-004  
  639.50  1.5645E-004  
  640.00  1.4012E-004  
  640.50  1.3272E-004  
  641.00  1.1267E-004  
  641.50  1.3992E-004  
  642.00  1.7534E-004  
  642.50  1.9409E-004  
  643.00  1.9728E-004  
  643.50  1.7425E-004  
  644.00  1.7645E-004  
  644.50  1.6423E-004  
  645.00  1.7042E-004  
  645.50  1.7854E-004  
  646.00  1.7742E-004  
  646.50  1.6013E-004  
  647.00  1.3838E-004  
  647.50  1.4625E-004  
  648.00  1.8528E-004  
  648.50  2.1023E-004  
  649.00  2.5882E-004  
  649.50  3.6608E-004  
  650.00  5.2367E-004  
  650.50  6.0301E-004  
  651.00  5.4820E-004  
  651.50  4.5007E-004  
  652.00  3.7805E-004  
  652.50  3.5674E-004  
  653.00  3.1872E-004  
  653.50  2.9526E-004  
  654.00  2.5989E-004  
  654.50  2.3909E-004  
  655.00  2.0530E-004  
  655.50  1.8059E-004  
  656.00  1.7666E-004  
  656.50  1.8503E-004  
  657.00  2.1541E-004  
  657.50  2.2472E-004  
  658.00  2.1385E-004  
  658.50  1.7862E-004  
  659.00  1.3862E-004  
  659.50  1.1743E-004  
  660.00  9.0522E-005  
  660.50  9.6502E-005  
  661.00  1.3392E-004  
  661.50  2.3486E-004  
  662.00  3.2754E-004  
  662.50  3.7615E-004  
  663.00  3.4119E-004  
  663.50  2.6671E-004  
  664.00  2.0560E-004  
  664.50  1.7885E-004  
  665.00  1.4861E-004  
  665.50  1.3053E-004  
  666.00  1.2097E-004  
  666.50  1.5075E-004  
  667.00  1.2024E-004  
  667.50  8.9657E-005  
  668.00  5.2014E-005  
  668.50  6.5121E-005  
  669.00  8.2494E-005  
  669.50  9.2159E-005  
  670.00  8.5083E-005  
  670.50  6.1483E-005  
  671.00  3.1419E-005  
  671.50  2.4431E-005  
  672.00  3.6759E-005  
  672.50  6.0137E-005  
  673.00  8.5839E-005  
  673.50  9.0496E-005  
  674.00  8.2886E-005  
  674.50  4.0486E-005  
  675.00  7.7822E-006  
  675.50  0.0000E+000  
  676.00  0.0000E+000  
  676.50  1.8535E-005  
  677.00  4.6431E-005  
  677.50  3.7245E-005  
  678.00  2.2453E-005  
  678.50  1.8845E-006  
  679.00  1.0938E-005  
  679.50  2.5601E-005  
  680.00  7.9419E-005  
  680.50  1.2730E-004  
  681.00  1.3519E-004  
  681.50  1.0237E-004  
  682.00  9.0515E-005  
  682.50  6.5331E-005  
  683.00  6.2761E-005  
  683.50  7.8692E-005  
  684.00  1.1981E-004  
  684.50  1.2724E-004  
  685.00  1.0742E-004  
  685.50  7.2363E-005  
  686.00  8.4793E-005  
  686.50  1.5602E-004  
  687.00  2.4960E-004  
  687.50  3.1111E-004  
  688.00  3.0919E-004  
  688.50  2.8615E-004  
  689.00  2.3574E-004  
  689.50  1.5019E-004  
  690.00  6.0660E-005  
  690.50  2.3784E-006  
  691.00  0.0000E+000  
  691.50  0.0000E+000  
  692.00  0.0000E+000  
  692.50  4.3056E-005  
  693.00  1.4770E-004  
  693.50  2.2101E-004  
  694.00  2.2368E-004  
  694.50  1.7271E-004  
  695.00  9.1318E-005  
  695.50  0.0000E+000  
  696.00  0.0000E+000  
  696.50  0.0000E+000  
  697.00  0.0000E+000  
  697.50  0.0000E+000  
  698.00  0.0000E+000  
  698.50  1.0767E-005  
  699.00  5.2913E-005  
  699.50  8.8465E-005  
  700.00  7.2350E-005  
  700.50  3.6662E-005  
  701.00  1.0507E-006  
  701.50  5.4539E-006  
  702.00  3.9580E-005  
  702.50  6.8079E-005  
  703.00  6.2752E-005  
  703.50  5.6359E-005  
  704.00  1.1715E-004  
  704.50  1.9903E-004  
  705.00  2.9892E-004  
  705.50  4.2238E-004  
  706.00  5.9276E-004  
  706.50  7.3946E-004  
  707.00  8.3933E-004  
  707.50  8.6721E-004  
  708.00  9.0968E-004  
  708.50  9.7914E-004  
  709.00  1.0158E-003  
  709.50  8.7999E-004  
  710.00  6.4383E-004  
  710.50  4.5959E-004  
  711.00  4.6429E-004  
  711.50  5.7835E-004  
  712.00  7.0306E-004  
  712.50  7.2238E-004  
  713.00  6.2323E-004  
  713.50  4.3614E-004  
  714.00  2.8863E-004  
  714.50  1.8777E-004  
  715.00  9.4022E-005  
  715.50  9.9770E-006  
  716.00  0.0000E+000  
  716.50  0.0000E+000  
  717.00  0.0000E+000  
  717.50  0.0000E+000  
  718.00  0.0000E+000  
  718.50  3.2493E-006  
  719.00  2.1058E-005  
  719.50  0.0000E+000  
  720.00  5.7774E-006  
  720.50  5.8964E-007  
  721.00  0.0000E+000  
  721.50  0.0000E+000  
  722.00  0.0000E+000  
  722.50  0.0000E+000  
  723.00  0.0000E+000  
  723.50  0.0000E+000  
  724.00  0.0000E+000  
  724.50  4.0980E-005  
  725.00  7.0424E-005  
  725.50  1.0092E-004  
  726.00  7.3128E-005  
  726.50  1.3934E-005  
  727.00  0.0000E+000  
  727.50  0.0000E+000  
  728.00  0.0000E+000  
  728.50  0.0000E+000  
  729.00  0.0000E+000  
  729.50  1.3271E-005  
  730.00  6.3032E-005  
  730.50  6.5045E-005  
  731.00  1.9715E-005  
  731.50  0.0000E+000  
  732.00  0.0000E+000  
  732.50  0.0000E+000  
  733.00  0.0000E+000  
  733.50  0.0000E+000  
  734.00  0.0000E+000  
  734.50  0.0000E+000  
  735.00  0.0000E+000  
  735.50  0.0000E+000  
  736.00  0.0000E+000  
  736.50  0.0000E+000  
  737.00  0.0000E+000  
  737.50  0.0000E+000  
  738.00  0.0000E+000  
  738.50  0.0000E+000  
  739.00  0.0000E+000  
  739.50  0.0000E+000  
  740.00  0.0000E+000  
  740.50  0.0000E+000  
  741.00  0.0000E+000  
  741.50  0.0000E+000  
  742.00  0.0000E+000  
  742.50  0.0000E+000  
  743.00  0.0000E+000  
  743.50  3.5246E-005  
  744.00  2.9286E-005  
  744.50  2.1458E-005  
  745.00  0.0000E+000  
  745.50  1.1110E-005  
  746.00  0.0000E+000  
  746.50  0.0000E+000  
  747.00  0.0000E+000  
  747.50  1.0547E-005  
  748.00  2.3607E-005  
  748.50  0.0000E+000  
  749.00  0.0000E+000  
  749.50  0.0000E+000  
  750.00  0.0000E+000  
  750.50  5.1363E-007  
  751.00  2.5567E-005  
  751.50  5.0334E-005  
  752.00  1.2143E-005  
  752.50  0.0000E+000  
  753.00  0.0000E+000  
  753.50  0.0000E+000  
  754.00  0.0000E+000  
  754.50  0.0000E+000  
  755.00  0.0000E+000  
  755.50  0.0000E+000  
  756.00  0.0000E+000  
  756.50  0.0000E+000  
  757.00  0.0000E+000  
  757.50  0.0000E+000  
  758.00  0.0000E+000  
  758.50  0.0000E+000  
  759.00  0.0000E+000  
  759.50  0.0000E+000  
  760.00  0.0000E+000  
  760.50  0.0000E+000  
  761.00  3.3061E-005  
  761.50  5.7826E-005  
  762.00  3.6639E-005  
  762.50  2.0268E-005  
  763.00  8.5241E-005  
  763.50  6.3402E-005  
  764.00  3.3216E-006  
  764.50  0.0000E+000  
  765.00  0.0000E+000  
  765.50  0.0000E+000  
  766.00  0.0000E+000  
  766.50  0.0000E+000  
  767.00  0.0000E+000  
  767.50  3.7773E-005  
  768.00  8.4220E-007  
  768.50  0.0000E+000  
  769.00  0.0000E+000  
  769.50  0.0000E+000  
  770.00  0.0000E+000  
  770.50  0.0000E+000  
  771.00  0.0000E+000  
  771.50  0.0000E+000  
  772.00  0.0000E+000  
  772.50  0.0000E+000  
  773.00  0.0000E+000  
  773.50  0.0000E+000  
  774.00  0.0000E+000  
  774.50  0.0000E+000  
  775.00  0.0000E+000  
  775.50  0.0000E+000  
  776.00  0.0000E+000  
  776.50  0.0000E+000  
  777.00  0.0000E+000  
  777.50  0.0000E+000  
  778.00  0.0000E+000  
  778.50  0.0000E+000  
  779.00  0.0000E+000  
  779.50  0.0000E+000  
  780.00  0.0000E+000  
  780.50  0.0000E+000  
  781.00  6.6495E-006  
  781.50  5.9282E-005  
  782.00  3.9157E-005  
  782.50  4.7983E-005  
  783.00  2.3161E-006  
  783.50  0.0000E+000  
  784.00  0.0000E+000  
  784.50  0.0000E+000  
  785.00  0.0000E+000  
  785.50  0.0000E+000  
  786.00  0.0000E+000  
  786.50  0.0000E+000  
  787.00  0.0000E+000  
  787.50  0.0000E+000  
  788.00  0.0000E+000  
  788.50  0.0000E+000  
  789.00  0.0000E+000  
  789.50  0.0000E+000  
  790.00  0.0000E+000  
  790.50  0.0000E+000  
  791.00  0.0000E+000  
  791.50  0.0000E+000  
  792.00  0.0000E+000  
  792.50  0.0000E+000  
  793.00  0.0000E+000  
  793.50  0.0000E+000  
  794.00  0.0000E+000  
  794.50  0.0000E+000  
  795.00  0.0000E+000  
  795.50  0.0000E+000  
  796.00  0.0000E+000  
  796.50  0.0000E+000  
  797.00  4.3697E-006  
  797.50  4.9470E-005  
  798.00  0.0000E+000  
  798.50  0.0000E+000  
  799.00  0.0000E+000  
  799.50  0.0000E+000  
  800.00  4.3359E-006  
  800.50  0.0000E+000  
  801.00  0.0000E+000  
  801.50  4.9666E-006  
  802.00  3.3018E-005  
  802.50  6.8196E-005  
  803.00  0.0000E+000  
  803.50  0.0000E+000  
  804.00  0.0000E+000  
  804.50  0.0000E+000  
  805.00  0.0000E+000  
  805.50  0.0000E+000  
  806.00  0.0000E+000  
  806.50  0.0000E+000  
  807.00  0.0000E+000  
  807.50  0.0000E+000  
  808.00  0.0000E+000  
  808.50  6.3689E-005  
  809.00  2.1030E-005  
  809.50  0.0000E+000  
  810.00  0.0000E+000  
  810.50  0.0000E+000  
  811.00  0.0000E+000  
  811.50  5.6081E-005  
  812.00  2.7310E-004  
  812.50  1.9237E-004  
  813.00  5.0988E-006  
  813.50  0.0000E+000  
  814.00  0.0000E+000  
  814.50  0.0000E+000  
  815.00  0.0000E+000  
  815.50  0.0000E+000  
  816.00  0.0000E+000  
  816.50  0.0000E+000  
  817.00  0.0000E+000  
  817.50  0.0000E+000  
  818.00  0.0000E+000  
  818.50  0.0000E+000  
  819.00  0.0000E+000  
  819.50  0.0000E+000  
  820.00  0.0000E+000  
  820.50  0.0000E+000  
  821.00  0.0000E+000  
  821.50  0.0000E+000  
  822.00  0.0000E+000  
  822.50  0.0000E+000  
  823.00  0.0000E+000  
  823.50  0.0000E+000  
  824.00  0.0000E+000  
  824.50  0.0000E+000  
  825.00  0.0000E+000  
  825.50  0.0000E+000  
  826.00  0.0000E+000  
  826.50  0.0000E+000  
  827.00  0.0000E+000  
  827.50  0.0000E+000  
  828.00  5.2294E-006  
  828.50  4.8279E-006  
  829.00  0.0000E+000  
  829.50  0.0000E+000  
  830.00  1.0172E-004  
  830.50  1.2074E-004  
  831.00  1.1678E-005  
  831.50  1.3080E-005  
  832.00  9.3536E-005  
  832.50  1.3597E-005  
  833.00  0.0000E+000  
  833.50  0.0000E+000  
  834.00  0.0000E+000  
  834.50  0.0000E+000  
  835.00  0.0000E+000  
  835.50  0.0000E+000  
  836.00  0.0000E+000  
  836.50  0.0000E+000  
  837.00  0.0000E+000  
  837.50  0.0000E+000  
  838.00  0.0000E+000  
  838.50  0.0000E+000  
  839.00  0.0000E+000  
  839.50  0.0000E+000  
  840.00  1.4005E-005  
  840.50  0.0000E+000  
  841.00  0.0000E+000  
  841.50  0.0000E+000  
  842.00  0.0000E+000  
  842.50  0.0000E+000  
  843.00  0.0000E+000  
  843.50  0.0000E+000  
  844.00  0.0000E+000  
  844.50  0.0000E+000  
  845.00  0.0000E+000  
  845.50  0.0000E+000  
  846.00  0.0000E+000  
  846.50  0.0000E+000  
  847.00  0.0000E+000  
  847.50  0.0000E+000  
  848.00  0.0000E+000  
  848.50  0.0000E+000  
  849.00  0.0000E+000  
  849.50  0.0000E+000  
  850.00  0.0000E+000  
  850.50  0.0000E+000  
  851.00  0.0000E+000  
  851.50  0.0000E+000  
  852.00  0.0000E+000  
  852.50  0.0000E+000  
  853.00  0.0000E+000  
  853.50  0.0000E+000  
  854.00  0.0000E+000  
  854.50  0.0000E+000  
  855.00  0.0000E+000  
  855.50  2.2490E-005  
  856.00  4.1090E-006  
  856.50  0.0000E+000  
  857.00  0.0000E+000  
  857.50  0.0000E+000  
  858.00  0.0000E+000  
  858.50  0.0000E+000  
  859.00  0.0000E+000  
  859.50  0.0000E+000  
  860.00  0.0000E+000  
  860.50  4.2895E-005  
  861.00  5.7636E-005  
  861.50  0.0000E+000  
  862.00  2.5044E-005  
  862.50  1.9175E-005  
  863.00  0.0000E+000  
  863.50  0.0000E+000  
  864.00  0.0000E+000  
  864.50  2.9398E-005  
  865.00  5.0008E-005  
  865.50  0.0000E+000  
  866.00  0.0000E+000  
  866.50  0.0000E+000  
  867.00  0.0000E+000  
  867.50  0.0000E+000  
  868.00  0.0000E+000  
  868.50  0.0000E+000  
  869.00  0.0000E+000  
  869.50  0.0000E+000  
  870.00  0.0000E+000  
  870.50  0.0000E+000  
  871.00  0.0000E+000  
  871.50  0.0000E+000  
  872.00  0.0000E+000  
  872.50  0.0000E+000  
  873.00  0.0000E+000  
  873.50  0.0000E+000  
  874.00  0.0000E+000  
  874.50  0.0000E+000  
  875.00  0.0000E+000  
  875.50  0.0000E+000  
  876.00  0.0000E+000  
  876.50  0.0000E+000  
  877.00  0.0000E+000  
  877.50  0.0000E+000  
  878.00  0.0000E+000  
  878.50  0.0000E+000  
  879.00  0.0000E+000  
  879.50  0.0000E+000  
  880.00  0.0000E+000  
  880.50  0.0000E+000  
  881.00  0.0000E+000  
  881.50  0.0000E+000  
  882.00  0.0000E+000  
  882.50  0.0000E+000  
  883.00  0.0000E+000  
  883.50  0.0000E+000  
  884.00  0.0000E+000  
  884.50  0.0000E+000  
  885.00  0.0000E+000  
  885.50  0.0000E+000  
  886.00  0.0000E+000  
  886.50  0.0000E+000  
  887.00  0.0000E+000  
  887.50  0.0000E+000  
  888.00  0.0000E+000  
  888.50  0.0000E+000  
  889.00  0.0000E+000  
  889.50  0.0000E+000  
  890.00  0.0000E+000  
  890.50  0.0000E+000  
  891.00  0.0000E+000  
  891.50  2.0893E-006  
  892.00  0.0000E+000  
  892.50  0.0000E+000  
  893.00  0.0000E+000  
  893.50  0.0000E+000  
  894.00  0.0000E+000  
  894.50  0.0000E+000  
  895.00  0.0000E+000  
  895.50  0.0000E+000  
  896.00  0.0000E+000  
  896.50  0.0000E+000  
  897.00  0.0000E+000  
  897.50  0.0000E+000  
  898.00  0.0000E+000  
  898.50  0.0000E+000  
  899.00  0.0000E+000  
  899.50  5.1755E-007  
