
# From lspdd.org
# 
# Name: LFC ELume PAR30 LN Flood Domestique
# Indice spectral Valeur 
# MSI 0.49 
# SLI 0.63 
# IPI 0.63 
# Pourcentage de bleu 27.8 
# Caractéristique Valeur 
# CCT calculée (K) 3920 
# CCT du fabricant (K) 4100 
# Tension (V) 120 
# Puissance (W) 15.0 
# Efficacité lumineuse (Lum/W) 46.7 
#
# Image: '/app/system/img_2s/2627/medium_image2.JPG?1413486762'
# Image: '/app/system/img_1s/2627/medium_image1.JPG?1413486766'
# 

  273.00  0.0000E+000  
  273.50  0.0000E+000  
  274.00  0.0000E+000  
  274.50  0.0000E+000  
  275.00  0.0000E+000  
  275.50  0.0000E+000  
  276.00  0.0000E+000  
  276.50  0.0000E+000  
  277.00  0.0000E+000  
  277.50  0.0000E+000  
  278.00  0.0000E+000  
  278.50  0.0000E+000  
  279.00  0.0000E+000  
  279.50  0.0000E+000  
  280.00  0.0000E+000  
  280.50  0.0000E+000  
  281.00  0.0000E+000  
  281.50  0.0000E+000  
  282.00  0.0000E+000  
  282.50  0.0000E+000  
  283.00  0.0000E+000  
  283.50  0.0000E+000  
  284.00  0.0000E+000  
  284.50  0.0000E+000  
  285.00  0.0000E+000  
  285.50  0.0000E+000  
  286.00  0.0000E+000  
  286.50  0.0000E+000  
  287.00  0.0000E+000  
  287.50  0.0000E+000  
  288.00  0.0000E+000  
  288.50  0.0000E+000  
  289.00  0.0000E+000  
  289.50  0.0000E+000  
  290.00  0.0000E+000  
  290.50  0.0000E+000  
  291.00  0.0000E+000  
  291.50  0.0000E+000  
  292.00  0.0000E+000  
  292.50  0.0000E+000  
  293.00  0.0000E+000  
  293.50  0.0000E+000  
  294.00  0.0000E+000  
  294.50  0.0000E+000  
  295.00  0.0000E+000  
  295.50  0.0000E+000  
  296.00  0.0000E+000  
  296.50  0.0000E+000  
  297.00  0.0000E+000  
  297.50  0.0000E+000  
  298.00  0.0000E+000  
  298.50  0.0000E+000  
  299.00  0.0000E+000  
  299.50  0.0000E+000  
  300.00  0.0000E+000  
  300.50  0.0000E+000  
  301.00  0.0000E+000  
  301.50  0.0000E+000  
  302.00  0.0000E+000  
  302.50  0.0000E+000  
  303.00  0.0000E+000  
  303.50  0.0000E+000  
  304.00  0.0000E+000  
  304.50  0.0000E+000  
  305.00  0.0000E+000  
  305.50  0.0000E+000  
  306.00  0.0000E+000  
  306.50  0.0000E+000  
  307.00  0.0000E+000  
  307.50  0.0000E+000  
  308.00  0.0000E+000  
  308.50  0.0000E+000  
  309.00  0.0000E+000  
  309.50  0.0000E+000  
  310.00  0.0000E+000  
  310.50  0.0000E+000  
  311.00  0.0000E+000  
  311.50  0.0000E+000  
  312.00  0.0000E+000  
  312.50  0.0000E+000  
  313.00  0.0000E+000  
  313.50  0.0000E+000  
  314.00  0.0000E+000  
  314.50  0.0000E+000  
  315.00  0.0000E+000  
  315.50  0.0000E+000  
  316.00  0.0000E+000  
  316.50  0.0000E+000  
  317.00  0.0000E+000  
  317.50  0.0000E+000  
  318.00  0.0000E+000  
  318.50  0.0000E+000  
  319.00  0.0000E+000  
  319.50  0.0000E+000  
  320.00  0.0000E+000  
  320.50  0.0000E+000  
  321.00  0.0000E+000  
  321.50  0.0000E+000  
  322.00  0.0000E+000  
  322.50  0.0000E+000  
  323.00  0.0000E+000  
  323.50  0.0000E+000  
  324.00  0.0000E+000  
  324.50  0.0000E+000  
  325.00  0.0000E+000  
  325.50  0.0000E+000  
  326.00  0.0000E+000  
  326.50  0.0000E+000  
  327.00  0.0000E+000  
  327.50  0.0000E+000  
  328.00  0.0000E+000  
  328.50  0.0000E+000  
  329.00  0.0000E+000  
  329.50  0.0000E+000  
  330.00  0.0000E+000  
  330.50  0.0000E+000  
  331.00  0.0000E+000  
  331.50  0.0000E+000  
  332.00  0.0000E+000  
  332.50  0.0000E+000  
  333.00  0.0000E+000  
  333.50  0.0000E+000  
  334.00  0.0000E+000  
  334.50  0.0000E+000  
  335.00  0.0000E+000  
  335.50  0.0000E+000  
  336.00  0.0000E+000  
  336.50  0.0000E+000  
  337.00  0.0000E+000  
  337.50  0.0000E+000  
  338.00  0.0000E+000  
  338.50  0.0000E+000  
  339.00  0.0000E+000  
  339.50  0.0000E+000  
  340.00  0.0000E+000  
  340.50  0.0000E+000  
  341.00  0.0000E+000  
  341.50  0.0000E+000  
  342.00  1.4525E-005  
  342.50  1.2823E-005  
  343.00  0.0000E+000  
  343.50  0.0000E+000  
  344.00  0.0000E+000  
  344.50  0.0000E+000  
  345.00  0.0000E+000  
  345.50  0.0000E+000  
  346.00  4.6243E-006  
  346.50  5.1129E-005  
  347.00  2.5626E-005  
  347.50  0.0000E+000  
  348.00  0.0000E+000  
  348.50  0.0000E+000  
  349.00  0.0000E+000  
  349.50  0.0000E+000  
  350.00  0.0000E+000  
  350.50  0.0000E+000  
  351.00  4.8861E-005  
  351.50  8.6727E-005  
  352.00  7.9016E-005  
  352.50  7.3667E-005  
  353.00  6.1167E-005  
  353.50  4.6456E-005  
  354.00  5.2481E-005  
  354.50  1.7123E-005  
  355.00  1.8704E-005  
  355.50  5.7874E-005  
  356.00  7.2717E-005  
  356.50  4.5724E-005  
  357.00  2.3673E-007  
  357.50  1.3416E-006  
  358.00  2.6108E-005  
  358.50  1.1805E-004  
  359.00  1.8844E-004  
  359.50  2.7060E-004  
  360.00  3.3508E-004  
  360.50  3.5741E-004  
  361.00  3.8805E-004  
  361.50  3.8076E-004  
  362.00  4.4051E-004  
  362.50  5.5137E-004  
  363.00  1.1254E-003  
  363.50  2.9096E-003  
  364.00  5.9469E-003  
  364.50  9.1977E-003  
  365.00  1.1083E-002  
  365.50  1.0667E-002  
  366.00  8.0831E-003  
  366.50  5.2107E-003  
  367.00  2.9217E-003  
  367.50  1.5257E-003  
  368.00  7.8706E-004  
  368.50  4.5102E-004  
  369.00  3.2905E-004  
  369.50  2.9128E-004  
  370.00  2.3668E-004  
  370.50  2.4504E-004  
  371.00  2.5224E-004  
  371.50  2.9006E-004  
  372.00  3.1242E-004  
  372.50  2.9161E-004  
  373.00  2.4056E-004  
  373.50  1.6799E-004  
  374.00  1.7633E-004  
  374.50  1.8808E-004  
  375.00  2.0951E-004  
  375.50  2.2986E-004  
  376.00  2.5350E-004  
  376.50  3.0945E-004  
  377.00  3.6818E-004  
  377.50  3.7948E-004  
  378.00  3.7393E-004  
  378.50  3.9551E-004  
  379.00  4.2418E-004  
  379.50  4.8411E-004  
  380.00  4.8276E-004  
  380.50  4.9885E-004  
  381.00  5.3165E-004  
  381.50  5.0027E-004  
  382.00  4.8877E-004  
  382.50  4.6518E-004  
  383.00  3.8999E-004  
  383.50  3.6981E-004  
  384.00  3.2198E-004  
  384.50  3.2108E-004  
  385.00  3.5501E-004  
  385.50  4.1234E-004  
  386.00  4.1083E-004  
  386.50  3.8926E-004  
  387.00  3.3521E-004  
  387.50  2.8086E-004  
  388.00  2.6697E-004  
  388.50  2.9618E-004  
  389.00  2.8788E-004  
  389.50  2.9801E-004  
  390.00  3.3906E-004  
  390.50  3.9287E-004  
  391.00  4.5856E-004  
  391.50  4.8241E-004  
  392.00  4.4123E-004  
  392.50  3.9338E-004  
  393.00  4.0468E-004  
  393.50  4.4649E-004  
  394.00  5.0821E-004  
  394.50  5.7210E-004  
  395.00  5.5809E-004  
  395.50  5.5300E-004  
  396.00  5.8004E-004  
  396.50  6.4017E-004  
  397.00  7.1139E-004  
  397.50  7.5613E-004  
  398.00  7.6323E-004  
  398.50  7.6074E-004  
  399.00  7.9109E-004  
  399.50  8.4920E-004  
  400.00  9.4532E-004  
  400.50  1.0632E-003  
  401.00  1.1999E-003  
  401.50  1.3975E-003  
  402.00  1.7287E-003  
  402.50  3.3083E-003  
  403.00  1.0782E-002  
  403.50  2.5104E-002  
  404.00  4.1107E-002  
  404.50  4.8867E-002  
  405.00  4.4310E-002  
  405.50  2.9611E-002  
  406.00  1.5596E-002  
  406.50  8.1881E-003  
  407.00  6.5651E-003  
  407.50  6.5205E-003  
  408.00  6.1021E-003  
  408.50  4.9230E-003  
  409.00  3.6321E-003  
  409.50  2.8328E-003  
  410.00  2.5458E-003  
  410.50  2.5877E-003  
  411.00  2.7070E-003  
  411.50  2.8314E-003  
  412.00  2.9510E-003  
  412.50  3.0164E-003  
  413.00  3.0867E-003  
  413.50  3.1948E-003  
  414.00  3.3319E-003  
  414.50  3.5080E-003  
  415.00  3.6770E-003  
  415.50  3.8443E-003  
  416.00  4.0342E-003  
  416.50  4.2334E-003  
  417.00  4.3818E-003  
  417.50  4.4750E-003  
  418.00  4.5859E-003  
  418.50  4.6613E-003  
  419.00  4.7963E-003  
  419.50  4.9502E-003  
  420.00  5.1540E-003  
  420.50  5.4394E-003  
  421.00  5.6956E-003  
  421.50  5.8837E-003  
  422.00  6.0773E-003  
  422.50  6.2536E-003  
  423.00  6.4413E-003  
  423.50  6.6164E-003  
  424.00  6.7568E-003  
  424.50  6.9069E-003  
  425.00  7.1118E-003  
  425.50  7.3350E-003  
  426.00  7.6241E-003  
  426.50  7.8591E-003  
  427.00  8.0916E-003  
  427.50  8.3264E-003  
  428.00  8.5877E-003  
  428.50  8.7966E-003  
  429.00  9.0014E-003  
  429.50  9.2289E-003  
  430.00  9.4746E-003  
  430.50  9.8068E-003  
  431.00  1.0122E-002  
  431.50  1.0372E-002  
  432.00  1.0661E-002  
  432.50  1.1085E-002  
  433.00  1.1849E-002  
  433.50  1.4589E-002  
  434.00  2.5589E-002  
  434.50  5.5383E-002  
  435.00  9.6963E-002  
  435.50  1.2821E-001  
  436.00  1.2598E-001  
  436.50  9.5534E-002  
  437.00  5.6047E-002  
  437.50  2.9047E-002  
  438.00  1.8051E-002  
  438.50  1.4905E-002  
  439.00  1.3797E-002  
  439.50  1.3326E-002  
  440.00  1.3037E-002  
  440.50  1.2896E-002  
  441.00  1.2837E-002  
  441.50  1.2780E-002  
  442.00  1.2824E-002  
  442.50  1.2815E-002  
  443.00  1.2796E-002  
  443.50  1.2849E-002  
  444.00  1.2855E-002  
  444.50  1.2924E-002  
  445.00  1.2968E-002  
  445.50  1.2981E-002  
  446.00  1.3050E-002  
  446.50  1.3042E-002  
  447.00  1.2998E-002  
  447.50  1.2894E-002  
  448.00  1.2834E-002  
  448.50  1.2804E-002  
  449.00  1.2799E-002  
  449.50  1.2814E-002  
  450.00  1.2822E-002  
  450.50  1.2799E-002  
  451.00  1.2747E-002  
  451.50  1.2653E-002  
  452.00  1.2619E-002  
  452.50  1.2613E-002  
  453.00  1.2563E-002  
  453.50  1.2459E-002  
  454.00  1.2369E-002  
  454.50  1.2245E-002  
  455.00  1.2247E-002  
  455.50  1.2178E-002  
  456.00  1.2108E-002  
  456.50  1.2086E-002  
  457.00  1.2043E-002  
  457.50  1.2022E-002  
  458.00  1.1917E-002  
  458.50  1.1767E-002  
  459.00  1.1642E-002  
  459.50  1.1542E-002  
  460.00  1.1485E-002  
  460.50  1.1437E-002  
  461.00  1.1382E-002  
  461.50  1.1294E-002  
  462.00  1.1184E-002  
  462.50  1.0984E-002  
  463.00  1.0742E-002  
  463.50  1.0530E-002  
  464.00  1.0358E-002  
  464.50  1.0283E-002  
  465.00  1.0230E-002  
  465.50  1.0070E-002  
  466.00  9.9257E-003  
  466.50  9.7614E-003  
  467.00  9.6277E-003  
  467.50  9.5530E-003  
  468.00  9.5020E-003  
  468.50  9.4422E-003  
  469.00  9.4167E-003  
  469.50  9.2724E-003  
  470.00  9.0837E-003  
  470.50  8.9584E-003  
  471.00  8.9031E-003  
  471.50  8.8145E-003  
  472.00  8.6974E-003  
  472.50  8.5035E-003  
  473.00  8.3944E-003  
  473.50  8.3740E-003  
  474.00  8.3955E-003  
  474.50  8.3560E-003  
  475.00  8.2693E-003  
  475.50  8.1016E-003  
  476.00  7.9056E-003  
  476.50  7.7715E-003  
  477.00  7.7090E-003  
  477.50  7.7394E-003  
  478.00  7.7812E-003  
  478.50  7.8643E-003  
  479.00  7.9831E-003  
  479.50  8.2136E-003  
  480.00  8.5744E-003  
  480.50  9.0438E-003  
  481.00  9.6363E-003  
  481.50  1.0444E-002  
  482.00  1.1629E-002  
  482.50  1.3220E-002  
  483.00  1.5107E-002  
  483.50  1.7253E-002  
  484.00  1.9552E-002  
  484.50  2.2074E-002  
  485.00  2.4681E-002  
  485.50  2.7106E-002  
  486.00  2.8992E-002  
  486.50  3.0025E-002  
  487.00  3.0179E-002  
  487.50  2.9556E-002  
  488.00  2.8474E-002  
  488.50  2.7149E-002  
  489.00  2.5744E-002  
  489.50  2.4383E-002  
  490.00  2.3233E-002  
  490.50  2.2345E-002  
  491.00  2.1727E-002  
  491.50  2.1046E-002  
  492.00  2.0181E-002  
  492.50  1.9187E-002  
  493.00  1.8200E-002  
  493.50  1.7278E-002  
  494.00  1.6378E-002  
  494.50  1.5543E-002  
  495.00  1.4755E-002  
  495.50  1.4116E-002  
  496.00  1.3505E-002  
  496.50  1.2970E-002  
  497.00  1.2427E-002  
  497.50  1.1819E-002  
  498.00  1.1181E-002  
  498.50  1.0430E-002  
  499.00  9.7313E-003  
  499.50  9.1059E-003  
  500.00  8.5640E-003  
  500.50  8.0447E-003  
  501.00  7.5324E-003  
  501.50  7.0786E-003  
  502.00  6.7348E-003  
  502.50  6.4814E-003  
  503.00  6.2572E-003  
  503.50  6.0383E-003  
  504.00  5.8751E-003  
  504.50  5.7628E-003  
  505.00  5.6850E-003  
  505.50  5.6086E-003  
  506.00  5.5397E-003  
  506.50  5.4884E-003  
  507.00  5.4971E-003  
  507.50  5.5197E-003  
  508.00  5.5556E-003  
  508.50  5.6116E-003  
  509.00  5.6865E-003  
  509.50  5.7511E-003  
  510.00  5.7660E-003  
  510.50  5.7749E-003  
  511.00  5.7842E-003  
  511.50  5.8130E-003  
  512.00  5.8423E-003  
  512.50  5.8503E-003  
  513.00  5.8513E-003  
  513.50  5.8265E-003  
  514.00  5.7551E-003  
  514.50  5.6696E-003  
  515.00  5.5899E-003  
  515.50  5.5547E-003  
  516.00  5.5414E-003  
  516.50  5.5459E-003  
  517.00  5.5213E-003  
  517.50  5.4333E-003  
  518.00  5.3385E-003  
  518.50  5.2283E-003  
  519.00  5.1592E-003  
  519.50  5.1159E-003  
  520.00  5.0628E-003  
  520.50  4.9918E-003  
  521.00  4.9203E-003  
  521.50  4.8295E-003  
  522.00  4.7617E-003  
  522.50  4.6940E-003  
  523.00  4.6593E-003  
  523.50  4.6193E-003  
  524.00  4.5893E-003  
  524.50  4.5214E-003  
  525.00  4.4862E-003  
  525.50  4.4686E-003  
  526.00  4.4650E-003  
  526.50  4.4840E-003  
  527.00  4.4886E-003  
  527.50  4.4832E-003  
  528.00  4.4777E-003  
  528.50  4.4681E-003  
  529.00  4.4700E-003  
  529.50  4.4766E-003  
  530.00  4.4933E-003  
  530.50  4.5702E-003  
  531.00  4.7035E-003  
  531.50  4.9796E-003  
  532.00  5.4805E-003  
  532.50  6.2216E-003  
  533.00  6.9464E-003  
  533.50  7.3829E-003  
  534.00  7.4887E-003  
  534.50  7.5723E-003  
  535.00  7.9631E-003  
  535.50  8.9313E-003  
  536.00  1.0596E-002  
  536.50  1.3090E-002  
  537.00  1.6304E-002  
  537.50  1.9967E-002  
  538.00  2.4029E-002  
  538.50  2.9158E-002  
  539.00  3.6895E-002  
  539.50  4.9043E-002  
  540.00  6.7302E-002  
  540.50  8.9724E-002  
  541.00  1.1077E-001  
  541.50  1.2533E-001  
  542.00  1.3046E-001  
  542.50  1.2983E-001  
  543.00  1.2739E-001  
  543.50  1.2575E-001  
  544.00  1.2723E-001  
  544.50  1.3264E-001  
  545.00  1.3905E-001  
  545.50  1.4476E-001  
  546.00  1.4533E-001  
  546.50  1.3784E-001  
  547.00  1.2223E-001  
  547.50  1.0285E-001  
  548.00  8.6030E-002  
  548.50  7.4569E-002  
  549.00  6.6072E-002  
  549.50  5.8591E-002  
  550.00  5.1620E-002  
  550.50  4.5193E-002  
  551.00  3.9537E-002  
  551.50  3.4705E-002  
  552.00  3.0598E-002  
  552.50  2.6889E-002  
  553.00  2.3483E-002  
  553.50  2.0340E-002  
  554.00  1.7413E-002  
  554.50  1.4768E-002  
  555.00  1.2440E-002  
  555.50  1.0686E-002  
  556.00  9.3589E-003  
  556.50  8.4105E-003  
  557.00  7.6192E-003  
  557.50  6.9856E-003  
  558.00  6.4455E-003  
  558.50  5.9637E-003  
  559.00  5.5314E-003  
  559.50  5.1655E-003  
  560.00  4.8807E-003  
  560.50  4.6256E-003  
  561.00  4.4102E-003  
  561.50  4.2180E-003  
  562.00  4.0909E-003  
  562.50  3.9197E-003  
  563.00  3.7345E-003  
  563.50  3.5501E-003  
  564.00  3.4202E-003  
  564.50  3.2796E-003  
  565.00  3.1313E-003  
  565.50  2.9943E-003  
  566.00  2.8922E-003  
  566.50  2.8599E-003  
  567.00  2.8234E-003  
  567.50  2.7877E-003  
  568.00  2.7536E-003  
  568.50  2.6893E-003  
  569.00  2.6247E-003  
  569.50  2.5232E-003  
  570.00  2.3813E-003  
  570.50  2.2720E-003  
  571.00  2.2061E-003  
  571.50  2.2114E-003  
  572.00  2.2470E-003  
  572.50  2.2780E-003  
  573.00  2.3072E-003  
  573.50  2.3724E-003  
  574.00  2.5339E-003  
  574.50  2.8921E-003  
  575.00  4.3083E-003  
  575.50  8.4605E-003  
  576.00  1.5856E-002  
  576.50  2.3290E-002  
  577.00  2.6721E-002  
  577.50  2.5673E-002  
  578.00  2.4950E-002  
  578.50  2.7587E-002  
  579.00  3.0605E-002  
  579.50  3.0361E-002  
  580.00  2.7028E-002  
  580.50  2.3340E-002  
  581.00  2.1527E-002  
  581.50  2.1708E-002  
  582.00  2.3919E-002  
  582.50  2.7037E-002  
  583.00  2.9835E-002  
  583.50  3.1401E-002  
  584.00  3.1489E-002  
  584.50  3.0493E-002  
  585.00  2.9240E-002  
  585.50  2.9096E-002  
  586.00  3.1356E-002  
  586.50  3.6003E-002  
  587.00  3.9937E-002  
  587.50  3.9761E-002  
  588.00  3.4827E-002  
  588.50  2.8001E-002  
  589.00  2.2647E-002  
  589.50  1.9673E-002  
  590.00  1.8770E-002  
  590.50  1.9003E-002  
  591.00  2.0245E-002  
  591.50  2.2781E-002  
  592.00  2.6419E-002  
  592.50  2.9956E-002  
  593.00  3.1422E-002  
  593.50  2.9189E-002  
  594.00  2.4423E-002  
  594.50  1.9143E-002  
  595.00  1.5334E-002  
  595.50  1.3122E-002  
  596.00  1.2295E-002  
  596.50  1.2084E-002  
  597.00  1.2447E-002  
  597.50  1.3507E-002  
  598.00  1.5435E-002  
  598.50  1.7857E-002  
  599.00  1.9901E-002  
  599.50  2.0424E-002  
  600.00  1.9206E-002  
  600.50  1.6661E-002  
  601.00  1.3831E-002  
  601.50  1.1398E-002  
  602.00  9.7512E-003  
  602.50  8.6982E-003  
  603.00  8.2670E-003  
  603.50  8.2902E-003  
  604.00  8.5973E-003  
  604.50  9.0376E-003  
  605.00  9.5473E-003  
  605.50  1.0228E-002  
  606.00  1.1218E-002  
  606.50  1.2699E-002  
  607.00  1.4907E-002  
  607.50  1.8092E-002  
  608.00  2.2967E-002  
  608.50  3.0935E-002  
  609.00  4.5129E-002  
  609.50  7.4299E-002  
  610.00  1.1775E-001  
  610.50  1.6214E-001  
  611.00  1.9218E-001  
  611.50  2.0035E-001  
  612.00  1.8686E-001  
  612.50  1.6181E-001  
  613.00  1.3193E-001  
  613.50  1.0914E-001  
  614.00  9.4747E-002  
  614.50  8.3815E-002  
  615.00  7.2294E-002  
  615.50  5.9577E-002  
  616.00  4.7552E-002  
  616.50  3.7790E-002  
  617.00  3.1077E-002  
  617.50  2.6550E-002  
  618.00  2.3730E-002  
  618.50  2.2157E-002  
  619.00  2.1552E-002  
  619.50  2.1804E-002  
  620.00  2.2590E-002  
  620.50  2.3413E-002  
  621.00  2.3834E-002  
  621.50  2.3798E-002  
  622.00  2.3688E-002  
  622.50  2.3916E-002  
  623.00  2.4374E-002  
  623.50  2.4835E-002  
  624.00  2.5117E-002  
  624.50  2.5264E-002  
  625.00  2.5329E-002  
  625.50  2.5277E-002  
  626.00  2.5034E-002  
  626.50  2.4531E-002  
  627.00  2.3795E-002  
  627.50  2.2926E-002  
  628.00  2.2231E-002  
  628.50  2.2031E-002  
  629.00  2.3061E-002  
  629.50  2.5911E-002  
  630.00  3.0837E-002  
  630.50  3.5418E-002  
  631.00  3.6466E-002  
  631.50  3.1975E-002  
  632.00  2.4118E-002  
  632.50  1.6320E-002  
  633.00  1.0949E-002  
  633.50  7.9344E-003  
  634.00  6.5104E-003  
  634.50  5.7344E-003  
  635.00  5.2778E-003  
  635.50  4.9626E-003  
  636.00  4.7354E-003  
  636.50  4.5021E-003  
  637.00  4.2779E-003  
  637.50  4.0193E-003  
  638.00  3.8071E-003  
  638.50  3.6153E-003  
  639.00  3.4947E-003  
  639.50  3.3913E-003  
  640.00  3.3110E-003  
  640.50  3.2427E-003  
  641.00  3.2468E-003  
  641.50  3.2637E-003  
  642.00  3.3446E-003  
  642.50  3.4175E-003  
  643.00  3.5192E-003  
  643.50  3.5851E-003  
  644.00  3.6134E-003  
  644.50  3.5973E-003  
  645.00  3.5419E-003  
  645.50  3.4733E-003  
  646.00  3.4091E-003  
  646.50  3.3806E-003  
  647.00  3.3982E-003  
  647.50  3.4719E-003  
  648.00  3.6726E-003  
  648.50  4.1340E-003  
  649.00  5.2024E-003  
  649.50  7.0524E-003  
  650.00  9.0627E-003  
  650.50  1.0167E-002  
  651.00  9.6067E-003  
  651.50  8.1088E-003  
  652.00  6.6753E-003  
  652.50  5.9684E-003  
  653.00  5.6815E-003  
  653.50  5.3587E-003  
  654.00  4.8322E-003  
  654.50  4.2173E-003  
  655.00  3.7574E-003  
  655.50  3.5038E-003  
  656.00  3.4323E-003  
  656.50  3.5040E-003  
  657.00  3.7179E-003  
  657.50  3.9030E-003  
  658.00  3.8842E-003  
  658.50  3.5324E-003  
  659.00  3.0299E-003  
  659.50  2.6547E-003  
  660.00  2.4593E-003  
  660.50  2.6017E-003  
  661.00  3.1824E-003  
  661.50  4.3448E-003  
  662.00  5.5787E-003  
  662.50  6.1836E-003  
  663.00  5.8365E-003  
  663.50  4.9125E-003  
  664.00  3.9337E-003  
  664.50  3.2099E-003  
  665.00  2.7623E-003  
  665.50  2.5666E-003  
  666.00  2.5151E-003  
  666.50  2.5470E-003  
  667.00  2.5658E-003  
  667.50  2.5472E-003  
  668.00  2.4917E-003  
  668.50  2.3989E-003  
  669.00  2.3286E-003  
  669.50  2.2275E-003  
  670.00  2.1864E-003  
  670.50  2.1745E-003  
  671.00  2.1779E-003  
  671.50  2.2102E-003  
  672.00  2.1802E-003  
  672.50  2.0869E-003  
  673.00  1.9243E-003  
  673.50  1.8279E-003  
  674.00  1.7652E-003  
  674.50  1.7157E-003  
  675.00  1.6723E-003  
  675.50  1.7005E-003  
  676.00  1.7182E-003  
  676.50  1.6934E-003  
  677.00  1.6848E-003  
  677.50  1.7283E-003  
  678.00  1.7730E-003  
  678.50  1.7781E-003  
  679.00  1.8195E-003  
  679.50  1.9229E-003  
  680.00  2.0495E-003  
  680.50  2.1588E-003  
  681.00  2.2430E-003  
  681.50  2.2405E-003  
  682.00  2.0605E-003  
  682.50  1.8782E-003  
  683.00  1.7760E-003  
  683.50  1.7589E-003  
  684.00  1.7309E-003  
  684.50  1.7377E-003  
  685.00  1.8900E-003  
  685.50  2.2321E-003  
  686.00  2.8309E-003  
  686.50  3.7360E-003  
  687.00  4.7686E-003  
  687.50  5.5407E-003  
  688.00  5.6206E-003  
  688.50  4.9273E-003  
  689.00  3.6960E-003  
  689.50  2.6101E-003  
  690.00  1.9375E-003  
  690.50  1.6281E-003  
  691.00  1.3955E-003  
  691.50  1.2155E-003  
  692.00  1.3404E-003  
  692.50  2.0008E-003  
  693.00  3.0355E-003  
  693.50  3.8662E-003  
  694.00  3.8344E-003  
  694.50  2.9851E-003  
  695.00  2.0202E-003  
  695.50  1.3104E-003  
  696.00  1.0248E-003  
  696.50  8.1488E-004  
  697.00  6.6570E-004  
  697.50  5.2185E-004  
  698.00  4.5307E-004  
  698.50  3.7955E-004  
  699.00  3.9089E-004  
  699.50  4.9067E-004  
  700.00  6.1418E-004  
  700.50  6.5784E-004  
  701.00  6.5907E-004  
  701.50  6.7349E-004  
  702.00  7.3417E-004  
  702.50  8.7580E-004  
  703.00  1.1058E-003  
  703.50  1.5146E-003  
  704.00  2.0586E-003  
  704.50  2.8223E-003  
  705.00  4.0280E-003  
  705.50  6.0678E-003  
  706.00  8.8378E-003  
  706.50  1.1637E-002  
  707.00  1.3315E-002  
  707.50  1.3641E-002  
  708.00  1.3799E-002  
  708.50  1.4562E-002  
  709.00  1.4960E-002  
  709.50  1.3287E-002  
  710.00  1.0022E-002  
  710.50  7.2820E-003  
  711.00  7.0719E-003  
  711.50  9.2066E-003  
  712.00  1.1536E-002  
  712.50  1.2075E-002  
  713.00  1.0012E-002  
  713.50  6.6378E-003  
  714.00  3.6133E-003  
  714.50  1.7728E-003  
  715.00  9.1104E-004  
  715.50  5.2751E-004  
  716.00  3.4002E-004  
  716.50  2.2227E-004  
  717.00  2.0304E-004  
  717.50  2.1059E-004  
  718.00  2.4044E-004  
  718.50  1.9311E-004  
  719.00  1.4599E-004  
  719.50  1.4516E-004  
  720.00  1.9288E-004  
  720.50  2.5099E-004  
  721.00  2.3134E-004  
  721.50  1.3029E-004  
  722.00  1.2086E-005  
  722.50  0.0000E+000  
  723.00  0.0000E+000  
  723.50  0.0000E+000  
  724.00  0.0000E+000  
  724.50  8.0092E-005  
  725.00  2.0008E-004  
  725.50  1.8213E-004  
  726.00  1.0435E-004  
  726.50  0.0000E+000  
  727.00  1.5280E-006  
  727.50  3.5918E-005  
  728.00  5.1233E-005  
  728.50  5.5265E-007  
  729.00  0.0000E+000  
  729.50  8.9437E-005  
  730.00  3.0031E-004  
  730.50  3.1418E-004  
  731.00  2.0159E-004  
  731.50  8.1894E-005  
  732.00  2.5618E-005  
  732.50  0.0000E+000  
  733.00  0.0000E+000  
  733.50  0.0000E+000  
  734.00  0.0000E+000  
  734.50  0.0000E+000  
  735.00  0.0000E+000  
  735.50  0.0000E+000  
  736.00  0.0000E+000  
  736.50  0.0000E+000  
  737.00  0.0000E+000  
  737.50  4.2701E-005  
  738.00  2.0570E-004  
  738.50  2.3625E-004  
  739.00  1.5875E-004  
  739.50  2.8088E-006  
  740.00  0.0000E+000  
  740.50  8.3960E-007  
  741.00  1.9750E-005  
  741.50  6.5021E-005  
  742.00  8.8025E-005  
  742.50  1.7788E-004  
  743.00  1.8631E-004  
  743.50  4.0671E-005  
  744.00  0.0000E+000  
  744.50  0.0000E+000  
  745.00  0.0000E+000  
  745.50  0.0000E+000  
  746.00  0.0000E+000  
  746.50  0.0000E+000  
  747.00  0.0000E+000  
  747.50  0.0000E+000  
  748.00  0.0000E+000  
  748.50  0.0000E+000  
  749.00  0.0000E+000  
  749.50  3.7218E-005  
  750.00  3.6162E-004  
  750.50  6.9048E-004  
  751.00  8.7855E-004  
  751.50  7.3322E-004  
  752.00  3.7165E-004  
  752.50  4.1042E-005  
  753.00  0.0000E+000  
  753.50  0.0000E+000  
  754.00  0.0000E+000  
  754.50  0.0000E+000  
  755.00  0.0000E+000  
  755.50  0.0000E+000  
  756.00  0.0000E+000  
  756.50  0.0000E+000  
  757.00  0.0000E+000  
  757.50  0.0000E+000  
  758.00  0.0000E+000  
  758.50  0.0000E+000  
  759.00  0.0000E+000  
  759.50  0.0000E+000  
  760.00  0.0000E+000  
  760.50  0.0000E+000  
  761.00  0.0000E+000  
  761.50  0.0000E+000  
  762.00  0.0000E+000  
  762.50  1.2967E-005  
  763.00  4.5632E-004  
  763.50  1.1064E-003  
  764.00  1.0803E-003  
  764.50  4.1938E-004  
  765.00  0.0000E+000  
  765.50  0.0000E+000  
  766.00  0.0000E+000  
  766.50  0.0000E+000  
  767.00  0.0000E+000  
  767.50  0.0000E+000  
  768.00  0.0000E+000  
  768.50  0.0000E+000  
  769.00  0.0000E+000  
  769.50  0.0000E+000  
  770.00  0.0000E+000  
  770.50  0.0000E+000  
  771.00  0.0000E+000  
  771.50  0.0000E+000  
  772.00  0.0000E+000  
  772.50  7.6553E-005  
  773.00  6.4901E-005  
  773.50  0.0000E+000  
  774.00  0.0000E+000  
  774.50  0.0000E+000  
  775.00  0.0000E+000  
  775.50  0.0000E+000  
  776.00  0.0000E+000  
  776.50  0.0000E+000  
  777.00  0.0000E+000  
  777.50  0.0000E+000  
  778.00  0.0000E+000  
  778.50  0.0000E+000  
  779.00  0.0000E+000  
  779.50  0.0000E+000  
  780.00  0.0000E+000  
  780.50  0.0000E+000  
  781.00  0.0000E+000  
  781.50  0.0000E+000  
  782.00  0.0000E+000  
  782.50  0.0000E+000  
  783.00  0.0000E+000  
  783.50  0.0000E+000  
  784.00  0.0000E+000  
  784.50  0.0000E+000  
  785.00  0.0000E+000  
  785.50  0.0000E+000  
  786.00  0.0000E+000  
  786.50  0.0000E+000  
  787.00  0.0000E+000  
  787.50  0.0000E+000  
  788.00  0.0000E+000  
  788.50  0.0000E+000  
  789.00  0.0000E+000  
  789.50  0.0000E+000  
  790.00  0.0000E+000  
  790.50  0.0000E+000  
  791.00  0.0000E+000  
  791.50  0.0000E+000  
  792.00  0.0000E+000  
  792.50  0.0000E+000  
  793.00  0.0000E+000  
  793.50  0.0000E+000  
  794.00  0.0000E+000  
  794.50  0.0000E+000  
  795.00  0.0000E+000  
  795.50  0.0000E+000  
  796.00  0.0000E+000  
  796.50  0.0000E+000  
  797.00  0.0000E+000  
  797.50  0.0000E+000  
  798.00  0.0000E+000  
  798.50  0.0000E+000  
  799.00  0.0000E+000  
  799.50  0.0000E+000  
  800.00  0.0000E+000  
  800.50  1.3375E-004  
  801.00  3.1188E-004  
  801.50  1.2415E-004  
  802.00  0.0000E+000  
  802.50  0.0000E+000  
  803.00  0.0000E+000  
  803.50  0.0000E+000  
  804.00  0.0000E+000  
  804.50  0.0000E+000  
  805.00  0.0000E+000  
  805.50  0.0000E+000  
  806.00  0.0000E+000  
  806.50  0.0000E+000  
  807.00  0.0000E+000  
  807.50  0.0000E+000  
  808.00  0.0000E+000  
  808.50  0.0000E+000  
  809.00  6.0744E-004  
  809.50  9.4463E-004  
  810.00  9.1535E-004  
  810.50  1.0174E-003  
  811.00  1.3058E-003  
  811.50  1.4127E-003  
  812.00  1.0106E-003  
  812.50  2.4145E-004  
  813.00  0.0000E+000  
  813.50  0.0000E+000  
  814.00  0.0000E+000  
  814.50  0.0000E+000  
  815.00  0.0000E+000  
  815.50  0.0000E+000  
  816.00  0.0000E+000  
  816.50  0.0000E+000  
  817.00  0.0000E+000  
  817.50  0.0000E+000  
  818.00  0.0000E+000  
  818.50  0.0000E+000  
  819.00  0.0000E+000  
  819.50  0.0000E+000  
  820.00  0.0000E+000  
  820.50  0.0000E+000  
  821.00  0.0000E+000  
  821.50  0.0000E+000  
  822.00  0.0000E+000  
  822.50  0.0000E+000  
  823.00  0.0000E+000  
  823.50  0.0000E+000  
  824.00  0.0000E+000  
  824.50  0.0000E+000  
  825.00  0.0000E+000  
  825.50  0.0000E+000  
  826.00  0.0000E+000  
  826.50  0.0000E+000  
  827.00  0.0000E+000  
  827.50  0.0000E+000  
  828.00  0.0000E+000  
  828.50  0.0000E+000  
  829.00  0.0000E+000  
  829.50  0.0000E+000  
  830.00  0.0000E+000  
  830.50  0.0000E+000  
  831.00  0.0000E+000  
  831.50  0.0000E+000  
  832.00  0.0000E+000  
  832.50  0.0000E+000  
  833.00  0.0000E+000  
  833.50  0.0000E+000  
  834.00  0.0000E+000  
  834.50  0.0000E+000  
  835.00  0.0000E+000  
  835.50  0.0000E+000  
  836.00  0.0000E+000  
  836.50  0.0000E+000  
  837.00  0.0000E+000  
  837.50  0.0000E+000  
  838.00  0.0000E+000  
  838.50  0.0000E+000  
  839.00  0.0000E+000  
  839.50  0.0000E+000  
  840.00  0.0000E+000  
  840.50  0.0000E+000  
  841.00  0.0000E+000  
  841.50  0.0000E+000  
  842.00  0.0000E+000  
  842.50  0.0000E+000  
  843.00  0.0000E+000  
  843.50  0.0000E+000  
  844.00  0.0000E+000  
  844.50  0.0000E+000  
  845.00  0.0000E+000  
  845.50  0.0000E+000  
  846.00  0.0000E+000  
  846.50  0.0000E+000  
  847.00  0.0000E+000  
  847.50  0.0000E+000  
  848.00  0.0000E+000  
  848.50  0.0000E+000  
  849.00  0.0000E+000  
  849.50  0.0000E+000  
  850.00  0.0000E+000  
  850.50  0.0000E+000  
  851.00  0.0000E+000  
  851.50  0.0000E+000  
  852.00  0.0000E+000  
  852.50  0.0000E+000  
  853.00  0.0000E+000  
  853.50  0.0000E+000  
  854.00  0.0000E+000  
  854.50  0.0000E+000  
  855.00  0.0000E+000  
  855.50  0.0000E+000  
  856.00  0.0000E+000  
  856.50  0.0000E+000  
  857.00  0.0000E+000  
  857.50  0.0000E+000  
  858.00  0.0000E+000  
  858.50  0.0000E+000  
  859.00  0.0000E+000  
  859.50  0.0000E+000  
  860.00  0.0000E+000  
  860.50  0.0000E+000  
  861.00  0.0000E+000  
  861.50  0.0000E+000  
  862.00  0.0000E+000  
  862.50  0.0000E+000  
  863.00  0.0000E+000  
  863.50  0.0000E+000  
  864.00  0.0000E+000  
  864.50  0.0000E+000  
  865.00  0.0000E+000  
  865.50  0.0000E+000  
  866.00  0.0000E+000  
  866.50  0.0000E+000  
  867.00  0.0000E+000  
  867.50  0.0000E+000  
  868.00  0.0000E+000  
  868.50  0.0000E+000  
  869.00  0.0000E+000  
  869.50  0.0000E+000  
  870.00  1.2082E-004  
  870.50  1.6807E-003  
  871.00  2.1654E-003  
  871.50  1.3286E-003  
  872.00  6.9470E-005  
  872.50  0.0000E+000  
  873.00  0.0000E+000  
  873.50  0.0000E+000  
  874.00  0.0000E+000  
  874.50  0.0000E+000  
  875.00  0.0000E+000  
  875.50  0.0000E+000  
  876.00  0.0000E+000  
  876.50  0.0000E+000  
  877.00  0.0000E+000  
  877.50  0.0000E+000  
  878.00  0.0000E+000  
  878.50  0.0000E+000  
  879.00  0.0000E+000  
  879.50  0.0000E+000  
  880.00  0.0000E+000  
  880.50  0.0000E+000  
  881.00  0.0000E+000  
  881.50  0.0000E+000  
  882.00  0.0000E+000  
  882.50  0.0000E+000  
  883.00  0.0000E+000  
  883.50  0.0000E+000  
  884.00  0.0000E+000  
  884.50  0.0000E+000  
  885.00  0.0000E+000  
  885.50  0.0000E+000  
  886.00  0.0000E+000  
  886.50  0.0000E+000  
  887.00  0.0000E+000  
  887.50  0.0000E+000  
  888.00  0.0000E+000  
  888.50  0.0000E+000  
  889.00  0.0000E+000  
  889.50  0.0000E+000  
  890.00  0.0000E+000  
  890.50  0.0000E+000  
  891.00  0.0000E+000  
  891.50  0.0000E+000  
  892.00  0.0000E+000  
  892.50  0.0000E+000  
  893.00  0.0000E+000  
  893.50  0.0000E+000  
  894.00  0.0000E+000  
  894.50  0.0000E+000  
  895.00  0.0000E+000  
  895.50  0.0000E+000  
  896.00  0.0000E+000  
  896.50  0.0000E+000  
  897.00  0.0000E+000  
  897.50  0.0000E+000  
  898.00  0.0000E+000  
  898.50  0.0000E+000  
  899.00  0.0000E+000  
  899.50  0.0000E+000  
