
# From lspdd.org
# 
# Name: Halo Globe BR38 Domestique
# Indice spectral Valeur 
# MSI 0.35 
# SLI 0.56 
# IPI 0.90 
# Pourcentage de bleu 15.9 
# Caractéristique Valeur 
# CCT calculée (K) 2920 
# CCT du fabricant (K) 2870 
# Tension (V) 120 
# Puissance (W) 65.0 
# Efficacité lumineuse (Lum/W) 15.4 
#
# Image: '/app/system/img_2s/2628/medium_image2.JPG?1413486770'
# Image: '/app/system/img_1s/2628/medium_image1.JPG?1413486774'
# 

  273.00  0.0000E+000  
  273.50  0.0000E+000  
  274.00  0.0000E+000  
  274.50  0.0000E+000  
  275.00  0.0000E+000  
  275.50  0.0000E+000  
  276.00  0.0000E+000  
  276.50  0.0000E+000  
  277.00  0.0000E+000  
  277.50  0.0000E+000  
  278.00  0.0000E+000  
  278.50  0.0000E+000  
  279.00  0.0000E+000  
  279.50  0.0000E+000  
  280.00  0.0000E+000  
  280.50  0.0000E+000  
  281.00  0.0000E+000  
  281.50  0.0000E+000  
  282.00  0.0000E+000  
  282.50  0.0000E+000  
  283.00  0.0000E+000  
  283.50  0.0000E+000  
  284.00  0.0000E+000  
  284.50  0.0000E+000  
  285.00  0.0000E+000  
  285.50  0.0000E+000  
  286.00  0.0000E+000  
  286.50  0.0000E+000  
  287.00  0.0000E+000  
  287.50  0.0000E+000  
  288.00  0.0000E+000  
  288.50  0.0000E+000  
  289.00  0.0000E+000  
  289.50  0.0000E+000  
  290.00  0.0000E+000  
  290.50  0.0000E+000  
  291.00  0.0000E+000  
  291.50  0.0000E+000  
  292.00  0.0000E+000  
  292.50  0.0000E+000  
  293.00  0.0000E+000  
  293.50  0.0000E+000  
  294.00  0.0000E+000  
  294.50  0.0000E+000  
  295.00  0.0000E+000  
  295.50  0.0000E+000  
  296.00  0.0000E+000  
  296.50  0.0000E+000  
  297.00  0.0000E+000  
  297.50  0.0000E+000  
  298.00  0.0000E+000  
  298.50  0.0000E+000  
  299.00  0.0000E+000  
  299.50  0.0000E+000  
  300.00  0.0000E+000  
  300.50  0.0000E+000  
  301.00  0.0000E+000  
  301.50  0.0000E+000  
  302.00  0.0000E+000  
  302.50  4.8941E-005  
  303.00  8.5128E-005  
  303.50  1.3157E-004  
  304.00  1.7924E-004  
  304.50  1.6835E-004  
  305.00  1.4444E-004  
  305.50  1.0242E-004  
  306.00  1.0774E-004  
  306.50  7.7847E-005  
  307.00  7.0787E-005  
  307.50  3.8869E-005  
  308.00  0.0000E+000  
  308.50  0.0000E+000  
  309.00  0.0000E+000  
  309.50  0.0000E+000  
  310.00  0.0000E+000  
  310.50  0.0000E+000  
  311.00  5.4359E-007  
  311.50  1.4575E-005  
  312.00  3.9653E-005  
  312.50  4.7923E-005  
  313.00  5.6254E-005  
  313.50  1.8929E-005  
  314.00  2.5282E-007  
  314.50  0.0000E+000  
  315.00  0.0000E+000  
  315.50  0.0000E+000  
  316.00  0.0000E+000  
  316.50  1.4507E-005  
  317.00  2.9101E-005  
  317.50  2.1366E-005  
  318.00  1.4609E-005  
  318.50  3.4737E-005  
  319.00  5.4835E-005  
  319.50  8.8972E-005  
  320.00  1.0280E-004  
  320.50  4.3207E-005  
  321.00  6.3740E-005  
  321.50  1.0037E-004  
  322.00  1.1630E-004  
  322.50  1.4212E-004  
  323.00  1.1284E-004  
  323.50  8.8782E-005  
  324.00  1.1652E-004  
  324.50  1.4401E-004  
  325.00  1.7432E-004  
  325.50  1.5779E-004  
  326.00  1.1578E-004  
  326.50  1.3041E-004  
  327.00  1.2740E-004  
  327.50  1.6157E-004  
  328.00  2.0498E-004  
  328.50  1.8982E-004  
  329.00  1.9975E-004  
  329.50  1.8950E-004  
  330.00  1.6127E-004  
  330.50  1.7405E-004  
  331.00  2.0500E-004  
  331.50  2.3120E-004  
  332.00  2.3805E-004  
  332.50  2.1468E-004  
  333.00  2.2542E-004  
  333.50  3.1843E-004  
  334.00  3.5783E-004  
  334.50  3.5793E-004  
  335.00  3.3353E-004  
  335.50  2.9234E-004  
  336.00  3.1445E-004  
  336.50  3.3958E-004  
  337.00  3.6340E-004  
  337.50  4.1534E-004  
  338.00  4.5584E-004  
  338.50  4.8449E-004  
  339.00  4.7731E-004  
  339.50  4.3430E-004  
  340.00  4.0923E-004  
  340.50  4.0450E-004  
  341.00  3.9502E-004  
  341.50  3.9101E-004  
  342.00  4.0901E-004  
  342.50  4.0145E-004  
  343.00  4.1970E-004  
  343.50  4.2037E-004  
  344.00  3.9910E-004  
  344.50  4.0643E-004  
  345.00  4.1001E-004  
  345.50  4.9802E-004  
  346.00  5.3131E-004  
  346.50  5.7197E-004  
  347.00  6.2064E-004  
  347.50  6.3863E-004  
  348.00  6.7125E-004  
  348.50  6.7593E-004  
  349.00  6.7656E-004  
  349.50  6.6045E-004  
  350.00  6.4745E-004  
  350.50  6.3601E-004  
  351.00  6.3937E-004  
  351.50  6.6823E-004  
  352.00  7.2332E-004  
  352.50  7.4101E-004  
  353.00  7.6309E-004  
  353.50  8.2225E-004  
  354.00  8.3623E-004  
  354.50  8.5125E-004  
  355.00  8.5751E-004  
  355.50  8.2491E-004  
  356.00  8.1835E-004  
  356.50  8.7318E-004  
  357.00  9.2070E-004  
  357.50  9.8087E-004  
  358.00  9.8066E-004  
  358.50  9.4194E-004  
  359.00  9.2185E-004  
  359.50  9.0723E-004  
  360.00  9.2851E-004  
  360.50  9.4851E-004  
  361.00  9.3978E-004  
  361.50  9.9697E-004  
  362.00  1.0340E-003  
  362.50  1.0983E-003  
  363.00  1.1149E-003  
  363.50  1.0873E-003  
  364.00  1.0716E-003  
  364.50  9.9862E-004  
  365.00  9.9770E-004  
  365.50  1.0180E-003  
  366.00  1.0557E-003  
  366.50  1.1331E-003  
  367.00  1.1413E-003  
  367.50  1.1710E-003  
  368.00  1.2218E-003  
  368.50  1.2643E-003  
  369.00  1.2879E-003  
  369.50  1.2910E-003  
  370.00  1.2852E-003  
  370.50  1.2856E-003  
  371.00  1.3044E-003  
  371.50  1.3158E-003  
  372.00  1.3319E-003  
  372.50  1.3351E-003  
  373.00  1.3361E-003  
  373.50  1.3202E-003  
  374.00  1.2977E-003  
  374.50  1.3257E-003  
  375.00  1.3230E-003  
  375.50  1.2863E-003  
  376.00  1.3274E-003  
  376.50  1.3404E-003  
  377.00  1.3960E-003  
  377.50  1.4388E-003  
  378.00  1.4527E-003  
  378.50  1.4884E-003  
  379.00  1.4772E-003  
  379.50  1.5228E-003  
  380.00  1.5242E-003  
  380.50  1.5364E-003  
  381.00  1.5371E-003  
  381.50  1.5232E-003  
  382.00  1.5638E-003  
  382.50  1.6008E-003  
  383.00  1.6405E-003  
  383.50  1.6819E-003  
  384.00  1.6783E-003  
  384.50  1.7495E-003  
  385.00  1.8212E-003  
  385.50  1.8354E-003  
  386.00  1.8597E-003  
  386.50  1.8392E-003  
  387.00  1.8720E-003  
  387.50  1.9800E-003  
  388.00  2.0387E-003  
  388.50  2.0457E-003  
  389.00  2.0153E-003  
  389.50  1.9649E-003  
  390.00  1.9615E-003  
  390.50  1.9669E-003  
  391.00  1.9594E-003  
  391.50  1.9337E-003  
  392.00  1.8965E-003  
  392.50  1.9403E-003  
  393.00  2.0154E-003  
  393.50  2.1240E-003  
  394.00  2.2194E-003  
  394.50  2.2294E-003  
  395.00  2.2045E-003  
  395.50  2.1636E-003  
  396.00  2.1565E-003  
  396.50  2.1667E-003  
  397.00  2.1892E-003  
  397.50  2.2123E-003  
  398.00  2.2189E-003  
  398.50  2.2370E-003  
  399.00  2.2393E-003  
  399.50  2.2551E-003  
  400.00  2.2644E-003  
  400.50  2.2878E-003  
  401.00  2.3288E-003  
  401.50  2.3648E-003  
  402.00  2.3983E-003  
  402.50  2.4022E-003  
  403.00  2.4356E-003  
  403.50  2.4993E-003  
  404.00  2.5320E-003  
  404.50  2.5833E-003  
  405.00  2.5664E-003  
  405.50  2.5523E-003  
  406.00  2.5420E-003  
  406.50  2.5538E-003  
  407.00  2.6578E-003  
  407.50  2.7037E-003  
  408.00  2.7225E-003  
  408.50  2.7221E-003  
  409.00  2.7584E-003  
  409.50  2.8689E-003  
  410.00  2.9354E-003  
  410.50  2.9148E-003  
  411.00  2.8486E-003  
  411.50  2.8301E-003  
  412.00  2.8915E-003  
  412.50  2.9772E-003  
  413.00  3.0663E-003  
  413.50  3.1077E-003  
  414.00  3.1312E-003  
  414.50  3.1518E-003  
  415.00  3.1693E-003  
  415.50  3.2180E-003  
  416.00  3.2427E-003  
  416.50  3.2220E-003  
  417.00  3.1801E-003  
  417.50  3.1545E-003  
  418.00  3.1769E-003  
  418.50  3.2188E-003  
  419.00  3.2418E-003  
  419.50  3.2778E-003  
  420.00  3.2468E-003  
  420.50  3.2543E-003  
  421.00  3.2503E-003  
  421.50  3.2888E-003  
  422.00  3.4189E-003  
  422.50  3.4832E-003  
  423.00  3.5477E-003  
  423.50  3.5452E-003  
  424.00  3.5682E-003  
  424.50  3.6304E-003  
  425.00  3.7190E-003  
  425.50  3.7968E-003  
  426.00  3.8230E-003  
  426.50  3.7932E-003  
  427.00  3.7707E-003  
  427.50  3.7287E-003  
  428.00  3.7497E-003  
  428.50  3.7543E-003  
  429.00  3.7958E-003  
  429.50  3.8813E-003  
  430.00  3.9465E-003  
  430.50  3.9559E-003  
  431.00  3.9196E-003  
  431.50  3.8858E-003  
  432.00  3.9426E-003  
  432.50  4.0752E-003  
  433.00  4.1479E-003  
  433.50  4.2104E-003  
  434.00  4.1760E-003  
  434.50  4.1206E-003  
  435.00  4.1050E-003  
  435.50  4.1659E-003  
  436.00  4.2490E-003  
  436.50  4.3474E-003  
  437.00  4.3859E-003  
  437.50  4.3880E-003  
  438.00  4.4320E-003  
  438.50  4.4781E-003  
  439.00  4.5380E-003  
  439.50  4.5573E-003  
  440.00  4.5095E-003  
  440.50  4.5056E-003  
  441.00  4.4967E-003  
  441.50  4.5339E-003  
  442.00  4.6330E-003  
  442.50  4.6968E-003  
  443.00  4.7540E-003  
  443.50  4.7281E-003  
  444.00  4.6966E-003  
  444.50  4.7551E-003  
  445.00  4.8543E-003  
  445.50  4.9370E-003  
  446.00  4.9331E-003  
  446.50  4.9336E-003  
  447.00  4.9117E-003  
  447.50  4.9442E-003  
  448.00  4.9965E-003  
  448.50  5.0539E-003  
  449.00  5.1374E-003  
  449.50  5.1848E-003  
  450.00  5.2024E-003  
  450.50  5.2245E-003  
  451.00  5.2461E-003  
  451.50  5.2676E-003  
  452.00  5.2674E-003  
  452.50  5.2761E-003  
  453.00  5.2964E-003  
  453.50  5.3343E-003  
  454.00  5.3697E-003  
  454.50  5.4207E-003  
  455.00  5.4508E-003  
  455.50  5.4964E-003  
  456.00  5.5259E-003  
  456.50  5.5536E-003  
  457.00  5.6337E-003  
  457.50  5.7052E-003  
  458.00  5.7886E-003  
  458.50  5.7862E-003  
  459.00  5.8222E-003  
  459.50  5.8712E-003  
  460.00  5.9087E-003  
  460.50  5.9468E-003  
  461.00  5.9515E-003  
  461.50  5.9718E-003  
  462.00  5.9745E-003  
  462.50  5.9982E-003  
  463.00  6.0138E-003  
  463.50  6.0665E-003  
  464.00  6.1208E-003  
  464.50  6.1590E-003  
  465.00  6.2303E-003  
  465.50  6.2718E-003  
  466.00  6.2828E-003  
  466.50  6.2777E-003  
  467.00  6.2726E-003  
  467.50  6.3051E-003  
  468.00  6.3801E-003  
  468.50  6.4330E-003  
  469.00  6.4711E-003  
  469.50  6.5171E-003  
  470.00  6.5892E-003  
  470.50  6.6420E-003  
  471.00  6.6716E-003  
  471.50  6.6803E-003  
  472.00  6.7196E-003  
  472.50  6.7770E-003  
  473.00  6.8457E-003  
  473.50  6.9081E-003  
  474.00  6.9426E-003  
  474.50  6.9382E-003  
  475.00  6.9165E-003  
  475.50  6.9198E-003  
  476.00  6.9968E-003  
  476.50  7.1030E-003  
  477.00  7.1776E-003  
  477.50  7.1840E-003  
  478.00  7.1734E-003  
  478.50  7.2024E-003  
  479.00  7.2832E-003  
  479.50  7.4007E-003  
  480.00  7.4709E-003  
  480.50  7.4821E-003  
  481.00  7.4857E-003  
  481.50  7.4884E-003  
  482.00  7.5164E-003  
  482.50  7.5444E-003  
  483.00  7.5713E-003  
  483.50  7.6316E-003  
  484.00  7.6964E-003  
  484.50  7.7289E-003  
  485.00  7.7815E-003  
  485.50  7.8407E-003  
  486.00  7.8796E-003  
  486.50  7.9051E-003  
  487.00  7.8746E-003  
  487.50  7.8561E-003  
  488.00  7.8675E-003  
  488.50  7.9252E-003  
  489.00  8.0044E-003  
  489.50  8.0809E-003  
  490.00  8.0962E-003  
  490.50  8.0835E-003  
  491.00  8.0959E-003  
  491.50  8.1227E-003  
  492.00  8.2040E-003  
  492.50  8.2779E-003  
  493.00  8.3781E-003  
  493.50  8.4397E-003  
  494.00  8.5005E-003  
  494.50  8.5733E-003  
  495.00  8.6148E-003  
  495.50  8.6686E-003  
  496.00  8.6806E-003  
  496.50  8.7435E-003  
  497.00  8.8186E-003  
  497.50  8.8868E-003  
  498.00  8.9696E-003  
  498.50  8.9934E-003  
  499.00  9.0714E-003  
  499.50  9.0900E-003  
  500.00  9.1013E-003  
  500.50  9.0988E-003  
  501.00  9.1607E-003  
  501.50  9.2707E-003  
  502.00  9.3738E-003  
  502.50  9.4456E-003  
  503.00  9.4662E-003  
  503.50  9.5278E-003  
  504.00  9.5723E-003  
  504.50  9.6469E-003  
  505.00  9.7224E-003  
  505.50  9.7837E-003  
  506.00  9.8616E-003  
  506.50  9.9030E-003  
  507.00  9.9561E-003  
  507.50  1.0012E-002  
  508.00  1.0087E-002  
  508.50  1.0131E-002  
  509.00  1.0197E-002  
  509.50  1.0285E-002  
  510.00  1.0389E-002  
  510.50  1.0481E-002  
  511.00  1.0555E-002  
  511.50  1.0620E-002  
  512.00  1.0668E-002  
  512.50  1.0699E-002  
  513.00  1.0708E-002  
  513.50  1.0792E-002  
  514.00  1.0884E-002  
  514.50  1.1010E-002  
  515.00  1.1095E-002  
  515.50  1.1163E-002  
  516.00  1.1243E-002  
  516.50  1.1332E-002  
  517.00  1.1409E-002  
  517.50  1.1461E-002  
  518.00  1.1504E-002  
  518.50  1.1553E-002  
  519.00  1.1672E-002  
  519.50  1.1738E-002  
  520.00  1.1814E-002  
  520.50  1.1863E-002  
  521.00  1.1915E-002  
  521.50  1.1977E-002  
  522.00  1.2027E-002  
  522.50  1.2118E-002  
  523.00  1.2196E-002  
  523.50  1.2309E-002  
  524.00  1.2398E-002  
  524.50  1.2456E-002  
  525.00  1.2496E-002  
  525.50  1.2531E-002  
  526.00  1.2606E-002  
  526.50  1.2673E-002  
  527.00  1.2740E-002  
  527.50  1.2793E-002  
  528.00  1.2909E-002  
  528.50  1.3040E-002  
  529.00  1.3160E-002  
  529.50  1.3230E-002  
  530.00  1.3275E-002  
  530.50  1.3278E-002  
  531.00  1.3306E-002  
  531.50  1.3335E-002  
  532.00  1.3406E-002  
  532.50  1.3523E-002  
  533.00  1.3605E-002  
  533.50  1.3702E-002  
  534.00  1.3799E-002  
  534.50  1.3916E-002  
  535.00  1.4036E-002  
  535.50  1.4097E-002  
  536.00  1.4161E-002  
  536.50  1.4235E-002  
  537.00  1.4338E-002  
  537.50  1.4408E-002  
  538.00  1.4440E-002  
  538.50  1.4453E-002  
  539.00  1.4479E-002  
  539.50  1.4548E-002  
  540.00  1.4627E-002  
  540.50  1.4772E-002  
  541.00  1.4885E-002  
  541.50  1.4985E-002  
  542.00  1.5078E-002  
  542.50  1.5168E-002  
  543.00  1.5289E-002  
  543.50  1.5361E-002  
  544.00  1.5377E-002  
  544.50  1.5396E-002  
  545.00  1.5429E-002  
  545.50  1.5490E-002  
  546.00  1.5566E-002  
  546.50  1.5637E-002  
  547.00  1.5741E-002  
  547.50  1.5801E-002  
  548.00  1.5865E-002  
  548.50  1.5955E-002  
  549.00  1.6066E-002  
  549.50  1.6122E-002  
  550.00  1.6112E-002  
  550.50  1.6137E-002  
  551.00  1.6200E-002  
  551.50  1.6285E-002  
  552.00  1.6314E-002  
  552.50  1.6360E-002  
  553.00  1.6483E-002  
  553.50  1.6622E-002  
  554.00  1.6746E-002  
  554.50  1.6833E-002  
  555.00  1.6884E-002  
  555.50  1.6972E-002  
  556.00  1.7061E-002  
  556.50  1.7136E-002  
  557.00  1.7205E-002  
  557.50  1.7274E-002  
  558.00  1.7338E-002  
  558.50  1.7398E-002  
  559.00  1.7436E-002  
  559.50  1.7473E-002  
  560.00  1.7565E-002  
  560.50  1.7663E-002  
  561.00  1.7746E-002  
  561.50  1.7830E-002  
  562.00  1.7899E-002  
  562.50  1.7997E-002  
  563.00  1.8062E-002  
  563.50  1.8097E-002  
  564.00  1.8125E-002  
  564.50  1.8122E-002  
  565.00  1.8172E-002  
  565.50  1.8238E-002  
  566.00  1.8333E-002  
  566.50  1.8442E-002  
  567.00  1.8514E-002  
  567.50  1.8559E-002  
  568.00  1.8613E-002  
  568.50  1.8572E-002  
  569.00  1.8556E-002  
  569.50  1.8545E-002  
  570.00  1.8596E-002  
  570.50  1.8754E-002  
  571.00  1.8886E-002  
  571.50  1.8994E-002  
  572.00  1.9034E-002  
  572.50  1.9040E-002  
  573.00  1.9103E-002  
  573.50  1.9168E-002  
  574.00  1.9228E-002  
  574.50  1.9220E-002  
  575.00  1.9241E-002  
  575.50  1.9292E-002  
  576.00  1.9393E-002  
  576.50  1.9468E-002  
  577.00  1.9526E-002  
  577.50  1.9603E-002  
  578.00  1.9678E-002  
  578.50  1.9771E-002  
  579.00  1.9884E-002  
  579.50  1.9912E-002  
  580.00  1.9930E-002  
  580.50  1.9965E-002  
  581.00  1.9991E-002  
  581.50  2.0089E-002  
  582.00  2.0096E-002  
  582.50  2.0128E-002  
  583.00  2.0177E-002  
  583.50  2.0274E-002  
  584.00  2.0364E-002  
  584.50  2.0450E-002  
  585.00  2.0434E-002  
  585.50  2.0420E-002  
  586.00  2.0445E-002  
  586.50  2.0516E-002  
  587.00  2.0573E-002  
  587.50  2.0589E-002  
  588.00  2.0660E-002  
  588.50  2.0751E-002  
  589.00  2.0906E-002  
  589.50  2.0962E-002  
  590.00  2.0930E-002  
  590.50  2.0910E-002  
  591.00  2.0878E-002  
  591.50  2.0973E-002  
  592.00  2.1046E-002  
  592.50  2.1103E-002  
  593.00  2.1121E-002  
  593.50  2.1156E-002  
  594.00  2.1231E-002  
  594.50  2.1304E-002  
  595.00  2.1329E-002  
  595.50  2.1407E-002  
  596.00  2.1493E-002  
  596.50  2.1557E-002  
  597.00  2.1519E-002  
  597.50  2.1499E-002  
  598.00  2.1514E-002  
  598.50  2.1593E-002  
  599.00  2.1700E-002  
  599.50  2.1756E-002  
  600.00  2.1779E-002  
  600.50  2.1736E-002  
  601.00  2.1702E-002  
  601.50  2.1741E-002  
  602.00  2.1791E-002  
  602.50  2.1876E-002  
  603.00  2.1938E-002  
  603.50  2.2007E-002  
  604.00  2.2130E-002  
  604.50  2.2188E-002  
  605.00  2.2222E-002  
  605.50  2.2096E-002  
  606.00  2.2032E-002  
  606.50  2.2053E-002  
  607.00  2.2162E-002  
  607.50  2.2248E-002  
  608.00  2.2314E-002  
  608.50  2.2312E-002  
  609.00  2.2307E-002  
  609.50  2.2283E-002  
  610.00  2.2237E-002  
  610.50  2.2296E-002  
  611.00  2.2355E-002  
  611.50  2.2468E-002  
  612.00  2.2563E-002  
  612.50  2.2575E-002  
  613.00  2.2588E-002  
  613.50  2.2572E-002  
  614.00  2.2618E-002  
  614.50  2.2740E-002  
  615.00  2.2816E-002  
  615.50  2.2847E-002  
  616.00  2.2840E-002  
  616.50  2.2887E-002  
  617.00  2.2951E-002  
  617.50  2.2980E-002  
  618.00  2.3042E-002  
  618.50  2.3106E-002  
  619.00  2.3092E-002  
  619.50  2.3008E-002  
  620.00  2.2940E-002  
  620.50  2.2898E-002  
  621.00  2.2886E-002  
  621.50  2.2945E-002  
  622.00  2.3084E-002  
  622.50  2.3200E-002  
  623.00  2.3159E-002  
  623.50  2.3131E-002  
  624.00  2.3154E-002  
  624.50  2.3158E-002  
  625.00  2.3174E-002  
  625.50  2.3198E-002  
  626.00  2.3356E-002  
  626.50  2.3470E-002  
  627.00  2.3523E-002  
  627.50  2.3452E-002  
  628.00  2.3388E-002  
  628.50  2.3361E-002  
  629.00  2.3405E-002  
  629.50  2.3435E-002  
  630.00  2.3487E-002  
  630.50  2.3577E-002  
  631.00  2.3706E-002  
  631.50  2.3702E-002  
  632.00  2.3625E-002  
  632.50  2.3594E-002  
  633.00  2.3630E-002  
  633.50  2.3742E-002  
  634.00  2.3848E-002  
  634.50  2.3932E-002  
  635.00  2.3961E-002  
  635.50  2.3936E-002  
  636.00  2.3924E-002  
  636.50  2.3918E-002  
  637.00  2.3852E-002  
  637.50  2.3811E-002  
  638.00  2.3851E-002  
  638.50  2.3901E-002  
  639.00  2.4003E-002  
  639.50  2.4019E-002  
  640.00  2.4075E-002  
  640.50  2.4115E-002  
  641.00  2.4068E-002  
  641.50  2.4094E-002  
  642.00  2.4134E-002  
  642.50  2.4248E-002  
  643.00  2.4282E-002  
  643.50  2.4256E-002  
  644.00  2.4238E-002  
  644.50  2.4252E-002  
  645.00  2.4268E-002  
  645.50  2.4275E-002  
  646.00  2.4282E-002  
  646.50  2.4300E-002  
  647.00  2.4364E-002  
  647.50  2.4400E-002  
  648.00  2.4430E-002  
  648.50  2.4478E-002  
  649.00  2.4536E-002  
  649.50  2.4517E-002  
  650.00  2.4455E-002  
  650.50  2.4409E-002  
  651.00  2.4476E-002  
  651.50  2.4530E-002  
  652.00  2.4542E-002  
  652.50  2.4600E-002  
  653.00  2.4668E-002  
  653.50  2.4750E-002  
  654.00  2.4672E-002  
  654.50  2.4590E-002  
  655.00  2.4608E-002  
  655.50  2.4659E-002  
  656.00  2.4701E-002  
  656.50  2.4707E-002  
  657.00  2.4752E-002  
  657.50  2.4777E-002  
  658.00  2.4789E-002  
  658.50  2.4798E-002  
  659.00  2.4856E-002  
  659.50  2.4854E-002  
  660.00  2.4872E-002  
  660.50  2.4849E-002  
  661.00  2.4867E-002  
  661.50  2.4898E-002  
  662.00  2.4928E-002  
  662.50  2.4976E-002  
  663.00  2.4994E-002  
  663.50  2.4949E-002  
  664.00  2.4874E-002  
  664.50  2.4851E-002  
  665.00  2.4935E-002  
  665.50  2.5012E-002  
  666.00  2.5023E-002  
  666.50  2.4994E-002  
  667.00  2.4964E-002  
  667.50  2.4978E-002  
  668.00  2.5005E-002  
  668.50  2.4999E-002  
  669.00  2.4963E-002  
  669.50  2.4979E-002  
  670.00  2.5001E-002  
  670.50  2.5025E-002  
  671.00  2.5012E-002  
  671.50  2.4983E-002  
  672.00  2.5005E-002  
  672.50  2.4992E-002  
  673.00  2.5054E-002  
  673.50  2.5106E-002  
  674.00  2.5152E-002  
  674.50  2.5194E-002  
  675.00  2.5162E-002  
  675.50  2.5204E-002  
  676.00  2.5213E-002  
  676.50  2.5234E-002  
  677.00  2.5225E-002  
  677.50  2.5176E-002  
  678.00  2.5159E-002  
  678.50  2.5174E-002  
  679.00  2.5259E-002  
  679.50  2.5403E-002  
  680.00  2.5476E-002  
  680.50  2.5542E-002  
  681.00  2.5503E-002  
  681.50  2.5443E-002  
  682.00  2.5419E-002  
  682.50  2.5435E-002  
  683.00  2.5471E-002  
  683.50  2.5442E-002  
  684.00  2.5575E-002  
  684.50  2.5625E-002  
  685.00  2.5650E-002  
  685.50  2.5540E-002  
  686.00  2.5537E-002  
  686.50  2.5540E-002  
  687.00  2.5610E-002  
  687.50  2.5673E-002  
  688.00  2.5635E-002  
  688.50  2.5434E-002  
  689.00  2.5370E-002  
  689.50  2.5424E-002  
  690.00  2.5614E-002  
  690.50  2.5736E-002  
  691.00  2.5908E-002  
  691.50  2.5978E-002  
  692.00  2.5999E-002  
  692.50  2.5949E-002  
  693.00  2.5957E-002  
  693.50  2.5948E-002  
  694.00  2.5929E-002  
  694.50  2.5878E-002  
  695.00  2.5874E-002  
  695.50  2.5973E-002  
  696.00  2.6059E-002  
  696.50  2.6062E-002  
  697.00  2.6040E-002  
  697.50  2.6038E-002  
  698.00  2.5934E-002  
  698.50  2.5848E-002  
  699.00  2.5841E-002  
  699.50  2.5969E-002  
  700.00  2.6047E-002  
  700.50  2.6101E-002  
  701.00  2.6191E-002  
  701.50  2.6286E-002  
  702.00  2.6320E-002  
  702.50  2.6314E-002  
  703.00  2.6302E-002  
  703.50  2.6268E-002  
  704.00  2.6328E-002  
  704.50  2.6401E-002  
  705.00  2.6553E-002  
  705.50  2.6559E-002  
  706.00  2.6528E-002  
  706.50  2.6479E-002  
  707.00  2.6364E-002  
  707.50  2.6314E-002  
  708.00  2.6261E-002  
  708.50  2.6415E-002  
  709.00  2.6493E-002  
  709.50  2.6679E-002  
  710.00  2.6783E-002  
  710.50  2.6826E-002  
  711.00  2.6696E-002  
  711.50  2.6558E-002  
  712.00  2.6570E-002  
  712.50  2.6580E-002  
  713.00  2.6587E-002  
  713.50  2.6709E-002  
  714.00  2.6907E-002  
  714.50  2.7075E-002  
  715.00  2.6968E-002  
  715.50  2.6905E-002  
  716.00  2.6929E-002  
  716.50  2.6999E-002  
  717.00  2.7011E-002  
  717.50  2.7116E-002  
  718.00  2.7166E-002  
  718.50  2.7107E-002  
  719.00  2.6830E-002  
  719.50  2.6828E-002  
  720.00  2.6956E-002  
  720.50  2.7059E-002  
  721.00  2.7062E-002  
  721.50  2.7182E-002  
  722.00  2.7374E-002  
  722.50  2.7452E-002  
  723.00  2.7449E-002  
  723.50  2.7421E-002  
  724.00  2.7229E-002  
  724.50  2.7092E-002  
  725.00  2.7113E-002  
  725.50  2.7473E-002  
  726.00  2.7664E-002  
  726.50  2.7643E-002  
  727.00  2.7445E-002  
  727.50  2.7382E-002  
  728.00  2.7358E-002  
  728.50  2.7381E-002  
  729.00  2.7416E-002  
  729.50  2.7449E-002  
  730.00  2.7577E-002  
  730.50  2.7713E-002  
  731.00  2.7823E-002  
  731.50  2.7840E-002  
  732.00  2.7839E-002  
  732.50  2.7767E-002  
  733.00  2.7737E-002  
  733.50  2.7816E-002  
  734.00  2.7914E-002  
  734.50  2.7945E-002  
  735.00  2.7886E-002  
  735.50  2.7891E-002  
  736.00  2.7835E-002  
  736.50  2.7861E-002  
  737.00  2.7765E-002  
  737.50  2.7793E-002  
  738.00  2.7780E-002  
  738.50  2.7714E-002  
  739.00  2.7689E-002  
  739.50  2.7713E-002  
  740.00  2.7969E-002  
  740.50  2.7994E-002  
  741.00  2.8097E-002  
  741.50  2.8111E-002  
  742.00  2.8224E-002  
  742.50  2.8230E-002  
  743.00  2.8157E-002  
  743.50  2.8073E-002  
  744.00  2.8000E-002  
  744.50  2.8005E-002  
  745.00  2.8061E-002  
  745.50  2.8122E-002  
  746.00  2.8037E-002  
  746.50  2.8015E-002  
  747.00  2.8023E-002  
  747.50  2.8275E-002  
  748.00  2.8340E-002  
  748.50  2.8490E-002  
  749.00  2.8433E-002  
  749.50  2.8391E-002  
  750.00  2.8342E-002  
  750.50  2.8386E-002  
  751.00  2.8227E-002  
  751.50  2.8096E-002  
  752.00  2.8088E-002  
  752.50  2.8194E-002  
  753.00  2.8272E-002  
  753.50  2.8440E-002  
  754.00  2.8519E-002  
  754.50  2.8467E-002  
  755.00  2.8317E-002  
  755.50  2.8336E-002  
  756.00  2.8418E-002  
  756.50  2.8433E-002  
  757.00  2.8422E-002  
  757.50  2.8493E-002  
  758.00  2.8552E-002  
  758.50  2.8499E-002  
  759.00  2.8707E-002  
  759.50  2.8923E-002  
  760.00  2.8923E-002  
  760.50  2.8691E-002  
  761.00  2.8627E-002  
  761.50  2.8752E-002  
  762.00  2.8783E-002  
  762.50  2.8779E-002  
  763.00  2.8766E-002  
  763.50  2.8970E-002  
  764.00  2.9099E-002  
  764.50  2.9087E-002  
  765.00  2.9007E-002  
  765.50  2.8922E-002  
  766.00  2.8886E-002  
  766.50  2.8736E-002  
  767.00  2.8555E-002  
  767.50  2.8485E-002  
  768.00  2.8766E-002  
  768.50  2.8999E-002  
  769.00  2.9151E-002  
  769.50  2.9268E-002  
  770.00  2.9241E-002  
  770.50  2.9130E-002  
  771.00  2.9101E-002  
  771.50  2.9084E-002  
  772.00  2.8971E-002  
  772.50  2.9028E-002  
  773.00  2.8992E-002  
  773.50  2.8942E-002  
  774.00  2.8854E-002  
  774.50  2.8962E-002  
  775.00  2.9084E-002  
  775.50  2.9093E-002  
  776.00  2.9004E-002  
  776.50  2.8815E-002  
  777.00  2.8764E-002  
  777.50  2.8853E-002  
  778.00  2.9074E-002  
  778.50  2.9180E-002  
  779.00  2.9256E-002  
  779.50  2.9059E-002  
  780.00  2.8840E-002  
  780.50  2.8680E-002  
  781.00  2.8830E-002  
  781.50  2.8899E-002  
  782.00  2.8980E-002  
  782.50  2.8880E-002  
  783.00  2.9061E-002  
  783.50  2.9248E-002  
  784.00  2.9113E-002  
  784.50  2.9010E-002  
  785.00  2.8989E-002  
  785.50  2.9122E-002  
  786.00  2.9045E-002  
  786.50  2.9168E-002  
  787.00  2.9211E-002  
  787.50  2.9154E-002  
  788.00  2.8822E-002  
  788.50  2.8908E-002  
  789.00  2.9158E-002  
  789.50  2.9293E-002  
  790.00  2.9314E-002  
  790.50  2.9149E-002  
  791.00  2.9034E-002  
  791.50  2.8910E-002  
  792.00  2.9004E-002  
  792.50  2.8998E-002  
  793.00  2.9272E-002  
  793.50  2.9559E-002  
  794.00  2.9709E-002  
  794.50  2.9632E-002  
  795.00  2.9364E-002  
  795.50  2.9307E-002  
  796.00  2.9542E-002  
  796.50  2.9740E-002  
  797.00  2.9421E-002  
  797.50  2.9141E-002  
  798.00  2.8973E-002  
  798.50  2.9376E-002  
  799.00  2.9462E-002  
  799.50  2.9386E-002  
  800.00  2.9069E-002  
  800.50  2.9308E-002  
  801.00  2.9499E-002  
  801.50  2.9657E-002  
  802.00  2.9848E-002  
  802.50  3.0006E-002  
  803.00  3.0010E-002  
  803.50  2.9893E-002  
  804.00  2.9819E-002  
  804.50  2.9707E-002  
  805.00  2.9539E-002  
  805.50  2.9459E-002  
  806.00  2.9447E-002  
  806.50  2.9156E-002  
  807.00  2.9284E-002  
  807.50  2.9294E-002  
  808.00  2.9496E-002  
  808.50  2.9496E-002  
  809.00  2.9626E-002  
  809.50  2.9524E-002  
  810.00  2.9715E-002  
  810.50  2.9744E-002  
  811.00  2.9483E-002  
  811.50  2.9325E-002  
  812.00  2.9422E-002  
  812.50  2.9209E-002  
  813.00  2.9246E-002  
  813.50  2.9481E-002  
  814.00  2.9472E-002  
  814.50  2.9215E-002  
  815.00  2.9119E-002  
  815.50  2.9408E-002  
  816.00  2.9634E-002  
  816.50  2.9960E-002  
  817.00  3.0086E-002  
  817.50  2.9685E-002  
  818.00  2.9338E-002  
  818.50  2.9126E-002  
  819.00  2.9269E-002  
  819.50  2.9581E-002  
  820.00  2.9716E-002  
  820.50  3.0003E-002  
  821.00  2.9969E-002  
  821.50  2.9561E-002  
  822.00  2.9628E-002  
  822.50  2.9753E-002  
  823.00  2.9986E-002  
  823.50  2.9952E-002  
  824.00  3.0017E-002  
  824.50  2.9832E-002  
  825.00  2.9905E-002  
  825.50  3.0057E-002  
  826.00  3.0386E-002  
  826.50  3.0410E-002  
  827.00  3.0249E-002  
  827.50  2.9798E-002  
  828.00  2.9698E-002  
  828.50  2.9737E-002  
  829.00  2.9819E-002  
  829.50  2.9778E-002  
  830.00  2.9547E-002  
  830.50  2.9288E-002  
  831.00  2.9296E-002  
  831.50  2.9746E-002  
  832.00  3.0062E-002  
  832.50  3.0327E-002  
  833.00  3.0655E-002  
  833.50  3.0458E-002  
  834.00  2.9644E-002  
  834.50  2.9446E-002  
  835.00  2.9560E-002  
  835.50  3.0005E-002  
  836.00  3.0182E-002  
  836.50  3.0124E-002  
  837.00  2.9934E-002  
  837.50  3.0217E-002  
  838.00  3.0369E-002  
  838.50  3.0059E-002  
  839.00  2.9838E-002  
  839.50  2.9753E-002  
  840.00  2.9624E-002  
  840.50  2.9414E-002  
  841.00  2.9623E-002  
  841.50  3.0174E-002  
  842.00  3.0541E-002  
  842.50  3.0744E-002  
  843.00  3.0554E-002  
  843.50  3.0755E-002  
  844.00  3.0482E-002  
  844.50  2.9983E-002  
  845.00  2.9861E-002  
  845.50  2.9866E-002  
  846.00  2.9796E-002  
  846.50  3.0209E-002  
  847.00  3.0418E-002  
  847.50  3.0171E-002  
  848.00  2.9988E-002  
  848.50  3.0352E-002  
  849.00  3.0671E-002  
  849.50  3.0746E-002  
  850.00  3.0394E-002  
  850.50  3.0727E-002  
  851.00  3.0596E-002  
  851.50  2.9808E-002  
  852.00  2.9376E-002  
  852.50  2.9677E-002  
  853.00  3.0101E-002  
  853.50  3.0102E-002  
  854.00  3.0098E-002  
  854.50  3.0240E-002  
  855.00  3.0441E-002  
  855.50  3.0573E-002  
  856.00  3.0776E-002  
  856.50  3.0645E-002  
  857.00  3.0282E-002  
  857.50  3.0312E-002  
  858.00  3.0646E-002  
  858.50  3.1244E-002  
  859.00  3.1585E-002  
  859.50  3.1737E-002  
  860.00  3.1612E-002  
  860.50  3.1531E-002  
  861.00  3.1559E-002  
  861.50  3.1408E-002  
  862.00  3.1253E-002  
  862.50  3.1047E-002  
  863.00  3.1206E-002  
  863.50  3.1487E-002  
  864.00  3.1108E-002  
  864.50  3.1144E-002  
  865.00  3.1661E-002  
  865.50  3.1448E-002  
  866.00  3.1496E-002  
  866.50  3.1527E-002  
  867.00  3.1407E-002  
  867.50  3.1118E-002  
  868.00  3.1729E-002  
  868.50  3.1825E-002  
  869.00  3.1450E-002  
  869.50  3.0902E-002  
  870.00  3.1053E-002  
  870.50  3.1169E-002  
  871.00  3.0561E-002  
  871.50  2.9887E-002  
  872.00  3.0014E-002  
  872.50  3.0807E-002  
  873.00  3.1590E-002  
  873.50  3.1739E-002  
  874.00  3.1606E-002  
  874.50  3.1712E-002  
  875.00  3.1609E-002  
  875.50  3.1918E-002  
  876.00  3.2251E-002  
  876.50  3.1710E-002  
  877.00  3.1447E-002  
  877.50  3.1470E-002  
  878.00  3.2138E-002  
  878.50  3.3225E-002  
  879.00  3.3304E-002  
  879.50  3.2315E-002  
  880.00  3.1341E-002  
  880.50  3.0764E-002  
  881.00  3.0491E-002  
  881.50  3.1279E-002  
  882.00  3.2124E-002  
  882.50  3.2856E-002  
  883.00  3.3004E-002  
  883.50  3.3781E-002  
  884.00  3.4051E-002  
  884.50  3.2695E-002  
  885.00  3.1273E-002  
  885.50  3.1906E-002  
  886.00  3.2508E-002  
  886.50  3.1821E-002  
  887.00  3.0747E-002  
  887.50  3.1648E-002  
  888.00  3.2199E-002  
  888.50  3.2294E-002  
  889.00  3.1795E-002  
  889.50  3.1808E-002  
  890.00  3.2532E-002  
  890.50  3.2278E-002  
  891.00  3.1995E-002  
  891.50  3.2704E-002  
  892.00  3.3648E-002  
  892.50  3.4131E-002  
  893.00  3.4046E-002  
  893.50  3.2901E-002  
  894.00  3.2316E-002  
  894.50  3.2183E-002  
  895.00  3.2543E-002  
  895.50  3.3615E-002  
  896.00  3.3671E-002  
  896.50  3.2587E-002  
  897.00  3.1727E-002  
  897.50  3.0469E-002  
  898.00  3.0475E-002  
  898.50  3.1881E-002  
  899.00  3.2786E-002  
  899.50  6.5704E-004  
