
# From lspdd.org
# 
# Name: DEL TCP MR16 Domestique
# Indice spectral Valeur 
# MSI 0.26 
# SLI 0.46 
# IPI 0.72 
# Pourcentage de bleu 15.4 
# Caractéristique Valeur 
# CCT calculée (K) 2557 
# CCT du fabricant (K) 2400 
# Tension (V) 120 
# Puissance (W) 7.0 
# Efficacité lumineuse (Lum/W) 71.0 
#
# Image: '/app/system/img_2s/2630/medium_image2.JPG?1423776200'
# Image: '/app/system/img_1s/2630/medium_image1.JPG?1423776196'
# 

  273.00  0.0000E+000  
  273.50  0.0000E+000  
  274.00  0.0000E+000  
  274.50  0.0000E+000  
  275.00  0.0000E+000  
  275.50  0.0000E+000  
  276.00  0.0000E+000  
  276.50  0.0000E+000  
  277.00  0.0000E+000  
  277.50  0.0000E+000  
  278.00  0.0000E+000  
  278.50  0.0000E+000  
  279.00  0.0000E+000  
  279.50  0.0000E+000  
  280.00  0.0000E+000  
  280.50  0.0000E+000  
  281.00  0.0000E+000  
  281.50  0.0000E+000  
  282.00  0.0000E+000  
  282.50  0.0000E+000  
  283.00  0.0000E+000  
  283.50  0.0000E+000  
  284.00  0.0000E+000  
  284.50  0.0000E+000  
  285.00  0.0000E+000  
  285.50  0.0000E+000  
  286.00  0.0000E+000  
  286.50  0.0000E+000  
  287.00  0.0000E+000  
  287.50  0.0000E+000  
  288.00  0.0000E+000  
  288.50  0.0000E+000  
  289.00  0.0000E+000  
  289.50  0.0000E+000  
  290.00  0.0000E+000  
  290.50  0.0000E+000  
  291.00  0.0000E+000  
  291.50  0.0000E+000  
  292.00  0.0000E+000  
  292.50  0.0000E+000  
  293.00  0.0000E+000  
  293.50  0.0000E+000  
  294.00  0.0000E+000  
  294.50  0.0000E+000  
  295.00  0.0000E+000  
  295.50  0.0000E+000  
  296.00  0.0000E+000  
  296.50  0.0000E+000  
  297.00  0.0000E+000  
  297.50  0.0000E+000  
  298.00  0.0000E+000  
  298.50  0.0000E+000  
  299.00  0.0000E+000  
  299.50  0.0000E+000  
  300.00  0.0000E+000  
  300.50  0.0000E+000  
  301.00  0.0000E+000  
  301.50  6.2926E-006  
  302.00  5.4138E-005  
  302.50  6.7855E-005  
  303.00  2.6683E-005  
  303.50  3.6480E-005  
  304.00  4.2648E-005  
  304.50  7.9483E-005  
  305.00  9.1846E-005  
  305.50  7.7415E-005  
  306.00  9.4490E-005  
  306.50  1.2702E-004  
  307.00  1.7235E-004  
  307.50  1.4979E-004  
  308.00  2.8744E-005  
  308.50  0.0000E+000  
  309.00  0.0000E+000  
  309.50  0.0000E+000  
  310.00  0.0000E+000  
  310.50  0.0000E+000  
  311.00  0.0000E+000  
  311.50  1.1364E-005  
  312.00  6.5995E-005  
  312.50  6.7841E-005  
  313.00  9.4472E-005  
  313.50  9.9657E-005  
  314.00  5.6015E-005  
  314.50  4.5319E-005  
  315.00  3.3767E-005  
  315.50  6.9783E-005  
  316.00  8.4768E-005  
  316.50  8.5087E-005  
  317.00  9.4268E-005  
  317.50  4.9437E-005  
  318.00  1.9093E-005  
  318.50  1.3789E-005  
  319.00  7.2202E-006  
  319.50  2.1866E-005  
  320.00  8.6619E-005  
  320.50  7.0270E-005  
  321.00  3.0842E-007  
  321.50  0.0000E+000  
  322.00  0.0000E+000  
  322.50  0.0000E+000  
  323.00  0.0000E+000  
  323.50  0.0000E+000  
  324.00  0.0000E+000  
  324.50  0.0000E+000  
  325.00  9.8406E-006  
  325.50  1.0269E-004  
  326.00  1.6199E-004  
  326.50  1.6182E-004  
  327.00  1.6707E-004  
  327.50  1.6534E-004  
  328.00  1.8821E-004  
  328.50  1.7931E-004  
  329.00  1.7055E-004  
  329.50  1.5578E-004  
  330.00  1.6991E-004  
  330.50  2.2559E-004  
  331.00  2.1753E-004  
  331.50  1.8047E-004  
  332.00  1.1180E-004  
  332.50  5.0383E-005  
  333.00  1.2754E-005  
  333.50  6.5280E-005  
  334.00  1.1734E-004  
  334.50  1.7148E-004  
  335.00  1.9171E-004  
  335.50  1.4271E-004  
  336.00  9.3781E-005  
  336.50  3.8239E-005  
  337.00  4.3367E-005  
  337.50  6.3151E-005  
  338.00  7.4649E-005  
  338.50  9.9653E-005  
  339.00  8.5260E-005  
  339.50  7.7223E-005  
  340.00  8.3757E-005  
  340.50  9.8949E-005  
  341.00  7.4196E-005  
  341.50  9.6473E-005  
  342.00  8.2562E-005  
  342.50  4.1946E-005  
  343.00  6.6727E-006  
  343.50  4.5530E-006  
  344.00  1.5681E-005  
  344.50  7.9853E-005  
  345.00  1.4193E-004  
  345.50  9.5339E-005  
  346.00  1.0347E-004  
  346.50  1.2403E-004  
  347.00  1.6582E-004  
  347.50  2.2621E-004  
  348.00  2.3206E-004  
  348.50  2.4399E-004  
  349.00  2.3744E-004  
  349.50  2.1894E-004  
  350.00  1.6281E-004  
  350.50  9.8967E-005  
  351.00  7.1372E-005  
  351.50  4.1609E-005  
  352.00  2.4978E-006  
  352.50  0.0000E+000  
  353.00  0.0000E+000  
  353.50  0.0000E+000  
  354.00  5.2991E-005  
  354.50  3.5214E-005  
  355.00  4.4978E-005  
  355.50  3.2719E-005  
  356.00  3.1119E-005  
  356.50  5.0596E-005  
  357.00  2.9181E-005  
  357.50  9.6703E-006  
  358.00  9.0488E-008  
  358.50  2.0750E-005  
  359.00  5.2157E-005  
  359.50  1.1117E-004  
  360.00  1.7248E-004  
  360.50  1.5620E-004  
  361.00  1.6439E-004  
  361.50  1.7850E-004  
  362.00  1.3294E-004  
  362.50  1.0252E-004  
  363.00  4.1170E-005  
  363.50  2.3989E-005  
  364.00  8.6284E-005  
  364.50  1.0526E-004  
  365.00  1.5068E-004  
  365.50  1.2683E-004  
  366.00  1.0531E-004  
  366.50  9.9196E-005  
  367.00  1.4419E-004  
  367.50  1.6283E-004  
  368.00  1.5443E-004  
  368.50  1.2146E-004  
  369.00  1.0273E-004  
  369.50  1.2969E-004  
  370.00  1.7039E-004  
  370.50  1.5844E-004  
  371.00  1.0148E-004  
  371.50  3.5130E-005  
  372.00  2.6465E-006  
  372.50  2.5142E-005  
  373.00  7.4433E-005  
  373.50  1.3202E-004  
  374.00  1.7343E-004  
  374.50  1.5180E-004  
  375.00  1.0721E-004  
  375.50  1.1075E-004  
  376.00  6.1847E-005  
  376.50  6.2256E-005  
  377.00  4.3465E-005  
  377.50  3.7725E-006  
  378.00  1.8770E-007  
  378.50  0.0000E+000  
  379.00  0.0000E+000  
  379.50  0.0000E+000  
  380.00  5.4501E-006  
  380.50  1.8718E-005  
  381.00  3.4104E-005  
  381.50  7.1157E-005  
  382.00  1.0512E-004  
  382.50  1.0494E-004  
  383.00  1.5164E-004  
  383.50  2.0400E-004  
  384.00  2.3426E-004  
  384.50  2.8552E-004  
  385.00  2.7981E-004  
  385.50  2.2105E-004  
  386.00  1.8720E-004  
  386.50  1.3031E-004  
  387.00  1.6638E-004  
  387.50  2.1183E-004  
  388.00  2.4014E-004  
  388.50  2.2195E-004  
  389.00  1.5272E-004  
  389.50  1.0615E-004  
  390.00  3.4330E-005  
  390.50  1.1953E-007  
  391.00  1.6097E-005  
  391.50  6.5330E-005  
  392.00  1.4211E-004  
  392.50  1.5376E-004  
  393.00  1.3090E-004  
  393.50  1.4600E-004  
  394.00  1.4585E-004  
  394.50  1.8743E-004  
  395.00  2.1958E-004  
  395.50  2.1430E-004  
  396.00  2.1456E-004  
  396.50  2.1071E-004  
  397.00  1.9586E-004  
  397.50  2.7203E-004  
  398.00  3.0276E-004  
  398.50  2.7722E-004  
  399.00  2.8472E-004  
  399.50  2.7125E-004  
  400.00  2.8439E-004  
  400.50  2.5218E-004  
  401.00  1.7238E-004  
  401.50  6.3666E-005  
  402.00  2.9722E-005  
  402.50  5.0177E-005  
  403.00  1.0489E-004  
  403.50  1.9142E-004  
  404.00  1.7805E-004  
  404.50  1.8492E-004  
  405.00  2.4855E-004  
  405.50  3.2510E-004  
  406.00  3.8520E-004  
  406.50  4.0463E-004  
  407.00  3.6311E-004  
  407.50  4.0043E-004  
  408.00  4.8178E-004  
  408.50  5.3492E-004  
  409.00  5.6451E-004  
  409.50  5.3734E-004  
  410.00  5.0034E-004  
  410.50  5.0546E-004  
  411.00  5.6129E-004  
  411.50  6.3634E-004  
  412.00  7.1878E-004  
  412.50  7.9074E-004  
  413.00  8.5812E-004  
  413.50  9.3685E-004  
  414.00  9.9284E-004  
  414.50  1.0655E-003  
  415.00  1.0799E-003  
  415.50  1.1002E-003  
  416.00  1.0819E-003  
  416.50  1.1116E-003  
  417.00  1.1828E-003  
  417.50  1.2743E-003  
  418.00  1.4401E-003  
  418.50  1.5860E-003  
  419.00  1.7321E-003  
  419.50  1.8465E-003  
  420.00  1.9477E-003  
  420.50  2.0684E-003  
  421.00  2.1605E-003  
  421.50  2.2759E-003  
  422.00  2.3644E-003  
  422.50  2.4880E-003  
  423.00  2.6199E-003  
  423.50  2.7649E-003  
  424.00  2.8982E-003  
  424.50  3.0567E-003  
  425.00  3.2450E-003  
  425.50  3.4250E-003  
  426.00  3.6472E-003  
  426.50  3.8895E-003  
  427.00  4.1582E-003  
  427.50  4.4117E-003  
  428.00  4.6477E-003  
  428.50  4.8730E-003  
  429.00  5.1027E-003  
  429.50  5.3663E-003  
  430.00  5.6055E-003  
  430.50  5.8319E-003  
  431.00  6.0635E-003  
  431.50  6.3063E-003  
  432.00  6.5352E-003  
  432.50  6.7921E-003  
  433.00  7.1017E-003  
  433.50  7.4902E-003  
  434.00  7.9336E-003  
  434.50  8.2552E-003  
  435.00  8.5521E-003  
  435.50  8.8210E-003  
  436.00  9.1551E-003  
  436.50  9.5866E-003  
  437.00  9.9901E-003  
  437.50  1.0407E-002  
  438.00  1.0847E-002  
  438.50  1.1331E-002  
  439.00  1.1778E-002  
  439.50  1.2270E-002  
  440.00  1.2769E-002  
  440.50  1.3341E-002  
  441.00  1.3832E-002  
  441.50  1.4292E-002  
  442.00  1.4726E-002  
  442.50  1.5200E-002  
  443.00  1.5803E-002  
  443.50  1.6467E-002  
  444.00  1.7121E-002  
  444.50  1.7805E-002  
  445.00  1.8343E-002  
  445.50  1.8877E-002  
  446.00  1.9334E-002  
  446.50  1.9787E-002  
  447.00  2.0239E-002  
  447.50  2.0644E-002  
  448.00  2.1066E-002  
  448.50  2.1353E-002  
  449.00  2.1621E-002  
  449.50  2.1835E-002  
  450.00  2.2014E-002  
  450.50  2.2157E-002  
  451.00  2.2230E-002  
  451.50  2.2028E-002  
  452.00  2.1811E-002  
  452.50  2.1418E-002  
  453.00  2.1041E-002  
  453.50  2.0581E-002  
  454.00  2.0080E-002  
  454.50  1.9590E-002  
  455.00  1.9076E-002  
  455.50  1.8532E-002  
  456.00  1.7894E-002  
  456.50  1.7234E-002  
  457.00  1.6671E-002  
  457.50  1.6143E-002  
  458.00  1.5623E-002  
  458.50  1.5215E-002  
  459.00  1.4759E-002  
  459.50  1.4317E-002  
  460.00  1.3885E-002  
  460.50  1.3455E-002  
  461.00  1.3210E-002  
  461.50  1.2984E-002  
  462.00  1.2762E-002  
  462.50  1.2554E-002  
  463.00  1.2399E-002  
  463.50  1.2230E-002  
  464.00  1.2060E-002  
  464.50  1.1806E-002  
  465.00  1.1586E-002  
  465.50  1.1384E-002  
  466.00  1.1167E-002  
  466.50  1.0946E-002  
  467.00  1.0800E-002  
  467.50  1.0657E-002  
  468.00  1.0516E-002  
  468.50  1.0283E-002  
  469.00  1.0007E-002  
  469.50  9.7539E-003  
  470.00  9.5216E-003  
  470.50  9.4220E-003  
  471.00  9.2590E-003  
  471.50  9.0834E-003  
  472.00  8.8392E-003  
  472.50  8.5803E-003  
  473.00  8.4422E-003  
  473.50  8.3503E-003  
  474.00  8.2779E-003  
  474.50  8.1267E-003  
  475.00  8.0021E-003  
  475.50  7.9173E-003  
  476.00  7.8865E-003  
  476.50  7.8508E-003  
  477.00  7.8511E-003  
  477.50  7.8627E-003  
  478.00  7.8270E-003  
  478.50  7.8075E-003  
  479.00  7.6770E-003  
  479.50  7.6093E-003  
  480.00  7.6217E-003  
  480.50  7.6761E-003  
  481.00  7.7676E-003  
  481.50  7.8313E-003  
  482.00  7.8253E-003  
  482.50  7.8569E-003  
  483.00  7.8932E-003  
  483.50  7.9892E-003  
  484.00  8.1269E-003  
  484.50  8.2007E-003  
  485.00  8.2323E-003  
  485.50  8.3046E-003  
  486.00  8.4041E-003  
  486.50  8.5508E-003  
  487.00  8.7160E-003  
  487.50  8.8337E-003  
  488.00  8.9294E-003  
  488.50  9.0368E-003  
  489.00  9.1735E-003  
  489.50  9.3665E-003  
  490.00  9.5424E-003  
  490.50  9.6885E-003  
  491.00  9.8168E-003  
  491.50  9.9731E-003  
  492.00  1.0237E-002  
  492.50  1.0499E-002  
  493.00  1.0726E-002  
  493.50  1.0898E-002  
  494.00  1.1077E-002  
  494.50  1.1285E-002  
  495.00  1.1551E-002  
  495.50  1.1820E-002  
  496.00  1.2093E-002  
  496.50  1.2373E-002  
  497.00  1.2652E-002  
  497.50  1.2933E-002  
  498.00  1.3183E-002  
  498.50  1.3437E-002  
  499.00  1.3656E-002  
  499.50  1.3918E-002  
  500.00  1.4191E-002  
  500.50  1.4446E-002  
  501.00  1.4657E-002  
  501.50  1.4899E-002  
  502.00  1.5211E-002  
  502.50  1.5556E-002  
  503.00  1.5860E-002  
  503.50  1.6132E-002  
  504.00  1.6406E-002  
  504.50  1.6707E-002  
  505.00  1.6995E-002  
  505.50  1.7257E-002  
  506.00  1.7519E-002  
  506.50  1.7788E-002  
  507.00  1.8044E-002  
  507.50  1.8302E-002  
  508.00  1.8535E-002  
  508.50  1.8809E-002  
  509.00  1.9066E-002  
  509.50  1.9351E-002  
  510.00  1.9623E-002  
  510.50  1.9887E-002  
  511.00  2.0174E-002  
  511.50  2.0426E-002  
  512.00  2.0656E-002  
  512.50  2.0895E-002  
  513.00  2.1144E-002  
  513.50  2.1402E-002  
  514.00  2.1605E-002  
  514.50  2.1836E-002  
  515.00  2.2040E-002  
  515.50  2.2228E-002  
  516.00  2.2405E-002  
  516.50  2.2616E-002  
  517.00  2.2839E-002  
  517.50  2.3097E-002  
  518.00  2.3297E-002  
  518.50  2.3552E-002  
  519.00  2.3761E-002  
  519.50  2.3970E-002  
  520.00  2.4155E-002  
  520.50  2.4314E-002  
  521.00  2.4547E-002  
  521.50  2.4734E-002  
  522.00  2.4951E-002  
  522.50  2.5170E-002  
  523.00  2.5366E-002  
  523.50  2.5562E-002  
  524.00  2.5752E-002  
  524.50  2.5979E-002  
  525.00  2.6165E-002  
  525.50  2.6333E-002  
  526.00  2.6479E-002  
  526.50  2.6701E-002  
  527.00  2.6991E-002  
  527.50  2.7245E-002  
  528.00  2.7501E-002  
  528.50  2.7731E-002  
  529.00  2.7967E-002  
  529.50  2.8106E-002  
  530.00  2.8213E-002  
  530.50  2.8340E-002  
  531.00  2.8520E-002  
  531.50  2.8678E-002  
  532.00  2.8887E-002  
  532.50  2.9100E-002  
  533.00  2.9316E-002  
  533.50  2.9507E-002  
  534.00  2.9649E-002  
  534.50  2.9883E-002  
  535.00  3.0108E-002  
  535.50  3.0302E-002  
  536.00  3.0517E-002  
  536.50  3.0731E-002  
  537.00  3.1016E-002  
  537.50  3.1214E-002  
  538.00  3.1409E-002  
  538.50  3.1575E-002  
  539.00  3.1794E-002  
  539.50  3.2026E-002  
  540.00  3.2215E-002  
  540.50  3.2412E-002  
  541.00  3.2558E-002  
  541.50  3.2742E-002  
  542.00  3.2974E-002  
  542.50  3.3220E-002  
  543.00  3.3532E-002  
  543.50  3.3743E-002  
  544.00  3.3962E-002  
  544.50  3.4146E-002  
  545.00  3.4357E-002  
  545.50  3.4622E-002  
  546.00  3.4892E-002  
  546.50  3.5195E-002  
  547.00  3.5439E-002  
  547.50  3.5716E-002  
  548.00  3.5914E-002  
  548.50  3.6166E-002  
  549.00  3.6402E-002  
  549.50  3.6607E-002  
  550.00  3.6906E-002  
  550.50  3.7191E-002  
  551.00  3.7505E-002  
  551.50  3.7809E-002  
  552.00  3.8049E-002  
  552.50  3.8301E-002  
  553.00  3.8550E-002  
  553.50  3.8739E-002  
  554.00  3.9052E-002  
  554.50  3.9341E-002  
  555.00  3.9705E-002  
  555.50  4.0010E-002  
  556.00  4.0274E-002  
  556.50  4.0519E-002  
  557.00  4.0780E-002  
  557.50  4.1115E-002  
  558.00  4.1537E-002  
  558.50  4.1887E-002  
  559.00  4.2220E-002  
  559.50  4.2438E-002  
  560.00  4.2696E-002  
  560.50  4.2996E-002  
  561.00  4.3352E-002  
  561.50  4.3661E-002  
  562.00  4.4020E-002  
  562.50  4.4382E-002  
  563.00  4.4728E-002  
  563.50  4.5044E-002  
  564.00  4.5211E-002  
  564.50  4.5442E-002  
  565.00  4.5656E-002  
  565.50  4.5898E-002  
  566.00  4.6214E-002  
  566.50  4.6524E-002  
  567.00  4.6858E-002  
  567.50  4.7164E-002  
  568.00  4.7481E-002  
  568.50  4.7817E-002  
  569.00  4.8187E-002  
  569.50  4.8542E-002  
  570.00  4.8814E-002  
  570.50  4.9097E-002  
  571.00  4.9335E-002  
  571.50  4.9682E-002  
  572.00  4.9948E-002  
  572.50  5.0269E-002  
  573.00  5.0567E-002  
  573.50  5.0936E-002  
  574.00  5.1241E-002  
  574.50  5.1462E-002  
  575.00  5.1741E-002  
  575.50  5.2077E-002  
  576.00  5.2416E-002  
  576.50  5.2684E-002  
  577.00  5.2961E-002  
  577.50  5.3223E-002  
  578.00  5.3524E-002  
  578.50  5.3783E-002  
  579.00  5.4111E-002  
  579.50  5.4433E-002  
  580.00  5.4746E-002  
  580.50  5.4938E-002  
  581.00  5.5206E-002  
  581.50  5.5504E-002  
  582.00  5.5827E-002  
  582.50  5.6126E-002  
  583.00  5.6323E-002  
  583.50  5.6604E-002  
  584.00  5.6901E-002  
  584.50  5.7225E-002  
  585.00  5.7556E-002  
  585.50  5.7824E-002  
  586.00  5.8121E-002  
  586.50  5.8405E-002  
  587.00  5.8671E-002  
  587.50  5.8914E-002  
  588.00  5.9138E-002  
  588.50  5.9355E-002  
  589.00  5.9630E-002  
  589.50  5.9878E-002  
  590.00  6.0123E-002  
  590.50  6.0400E-002  
  591.00  6.0627E-002  
  591.50  6.0842E-002  
  592.00  6.1018E-002  
  592.50  6.1279E-002  
  593.00  6.1635E-002  
  593.50  6.1932E-002  
  594.00  6.2181E-002  
  594.50  6.2397E-002  
  595.00  6.2463E-002  
  595.50  6.2527E-002  
  596.00  6.2633E-002  
  596.50  6.2790E-002  
  597.00  6.2849E-002  
  597.50  6.2894E-002  
  598.00  6.3047E-002  
  598.50  6.3368E-002  
  599.00  6.3701E-002  
  599.50  6.3927E-002  
  600.00  6.4089E-002  
  600.50  6.4110E-002  
  601.00  6.4175E-002  
  601.50  6.4176E-002  
  602.00  6.4315E-002  
  602.50  6.4514E-002  
  603.00  6.4750E-002  
  603.50  6.4939E-002  
  604.00  6.5066E-002  
  604.50  6.5107E-002  
  605.00  6.5219E-002  
  605.50  6.5311E-002  
  606.00  6.5498E-002  
  606.50  6.5623E-002  
  607.00  6.5647E-002  
  607.50  6.5651E-002  
  608.00  6.5756E-002  
  608.50  6.5837E-002  
  609.00  6.5998E-002  
  609.50  6.6060E-002  
  610.00  6.6190E-002  
  610.50  6.6246E-002  
  611.00  6.6293E-002  
  611.50  6.6269E-002  
  612.00  6.6258E-002  
  612.50  6.6207E-002  
  613.00  6.6288E-002  
  613.50  6.6391E-002  
  614.00  6.6508E-002  
  614.50  6.6505E-002  
  615.00  6.6475E-002  
  615.50  6.6443E-002  
  616.00  6.6393E-002  
  616.50  6.6274E-002  
  617.00  6.6082E-002  
  617.50  6.5954E-002  
  618.00  6.5842E-002  
  618.50  6.5850E-002  
  619.00  6.5796E-002  
  619.50  6.5859E-002  
  620.00  6.5716E-002  
  620.50  6.5483E-002  
  621.00  6.5170E-002  
  621.50  6.5011E-002  
  622.00  6.5049E-002  
  622.50  6.5104E-002  
  623.00  6.5238E-002  
  623.50  6.5281E-002  
  624.00  6.5303E-002  
  624.50  6.5090E-002  
  625.00  6.4802E-002  
  625.50  6.4560E-002  
  626.00  6.4293E-002  
  626.50  6.4127E-002  
  627.00  6.3941E-002  
  627.50  6.3822E-002  
  628.00  6.3767E-002  
  628.50  6.3624E-002  
  629.00  6.3474E-002  
  629.50  6.3165E-002  
  630.00  6.3014E-002  
  630.50  6.2773E-002  
  631.00  6.2580E-002  
  631.50  6.2479E-002  
  632.00  6.2418E-002  
  632.50  6.2420E-002  
  633.00  6.2251E-002  
  633.50  6.2104E-002  
  634.00  6.1874E-002  
  634.50  6.1651E-002  
  635.00  6.1431E-002  
  635.50  6.1178E-002  
  636.00  6.0877E-002  
  636.50  6.0502E-002  
  637.00  6.0281E-002  
  637.50  6.0120E-002  
  638.00  5.9897E-002  
  638.50  5.9634E-002  
  639.00  5.9322E-002  
  639.50  5.9213E-002  
  640.00  5.8989E-002  
  640.50  5.8755E-002  
  641.00  5.8319E-002  
  641.50  5.7930E-002  
  642.00  5.7524E-002  
  642.50  5.7217E-002  
  643.00  5.6877E-002  
  643.50  5.6568E-002  
  644.00  5.6352E-002  
  644.50  5.6166E-002  
  645.00  5.6014E-002  
  645.50  5.5733E-002  
  646.00  5.5342E-002  
  646.50  5.4920E-002  
  647.00  5.4586E-002  
  647.50  5.4347E-002  
  648.00  5.3987E-002  
  648.50  5.3607E-002  
  649.00  5.3328E-002  
  649.50  5.3165E-002  
  650.00  5.2911E-002  
  650.50  5.2417E-002  
  651.00  5.1938E-002  
  651.50  5.1555E-002  
  652.00  5.1308E-002  
  652.50  5.1050E-002  
  653.00  5.0607E-002  
  653.50  5.0203E-002  
  654.00  4.9811E-002  
  654.50  4.9532E-002  
  655.00  4.9195E-002  
  655.50  4.8844E-002  
  656.00  4.8381E-002  
  656.50  4.7993E-002  
  657.00  4.7650E-002  
  657.50  4.7414E-002  
  658.00  4.7012E-002  
  658.50  4.6596E-002  
  659.00  4.6158E-002  
  659.50  4.5839E-002  
  660.00  4.5460E-002  
  660.50  4.5126E-002  
  661.00  4.4704E-002  
  661.50  4.4305E-002  
  662.00  4.3957E-002  
  662.50  4.3633E-002  
  663.00  4.3294E-002  
  663.50  4.2855E-002  
  664.00  4.2436E-002  
  664.50  4.2091E-002  
  665.00  4.1806E-002  
  665.50  4.1494E-002  
  666.00  4.1129E-002  
  666.50  4.0773E-002  
  667.00  4.0448E-002  
  667.50  3.9984E-002  
  668.00  3.9506E-002  
  668.50  3.9057E-002  
  669.00  3.8723E-002  
  669.50  3.8310E-002  
  670.00  3.7920E-002  
  670.50  3.7606E-002  
  671.00  3.7397E-002  
  671.50  3.7157E-002  
  672.00  3.6858E-002  
  672.50  3.6500E-002  
  673.00  3.6133E-002  
  673.50  3.5738E-002  
  674.00  3.5252E-002  
  674.50  3.4797E-002  
  675.00  3.4371E-002  
  675.50  3.4097E-002  
  676.00  3.3761E-002  
  676.50  3.3460E-002  
  677.00  3.3125E-002  
  677.50  3.2761E-002  
  678.00  3.2456E-002  
  678.50  3.2097E-002  
  679.00  3.1744E-002  
  679.50  3.1330E-002  
  680.00  3.0890E-002  
  680.50  3.0539E-002  
  681.00  3.0229E-002  
  681.50  3.0011E-002  
  682.00  2.9686E-002  
  682.50  2.9317E-002  
  683.00  2.8983E-002  
  683.50  2.8657E-002  
  684.00  2.8260E-002  
  684.50  2.7906E-002  
  685.00  2.7623E-002  
  685.50  2.7457E-002  
  686.00  2.7190E-002  
  686.50  2.6851E-002  
  687.00  2.6528E-002  
  687.50  2.6285E-002  
  688.00  2.6074E-002  
  688.50  2.5798E-002  
  689.00  2.5506E-002  
  689.50  2.5144E-002  
  690.00  2.4821E-002  
  690.50  2.4531E-002  
  691.00  2.4289E-002  
  691.50  2.3961E-002  
  692.00  2.3523E-002  
  692.50  2.3225E-002  
  693.00  2.3037E-002  
  693.50  2.3024E-002  
  694.00  2.2749E-002  
  694.50  2.2359E-002  
  695.00  2.1966E-002  
  695.50  2.1753E-002  
  696.00  2.1564E-002  
  696.50  2.1383E-002  
  697.00  2.1204E-002  
  697.50  2.0965E-002  
  698.00  2.0688E-002  
  698.50  2.0403E-002  
  699.00  2.0133E-002  
  699.50  1.9793E-002  
  700.00  1.9502E-002  
  700.50  1.9241E-002  
  701.00  1.9069E-002  
  701.50  1.8783E-002  
  702.00  1.8448E-002  
  702.50  1.8173E-002  
  703.00  1.7966E-002  
  703.50  1.7871E-002  
  704.00  1.7730E-002  
  704.50  1.7580E-002  
  705.00  1.7449E-002  
  705.50  1.7121E-002  
  706.00  1.6905E-002  
  706.50  1.6695E-002  
  707.00  1.6608E-002  
  707.50  1.6279E-002  
  708.00  1.6050E-002  
  708.50  1.5704E-002  
  709.00  1.5516E-002  
  709.50  1.5314E-002  
  710.00  1.5171E-002  
  710.50  1.5019E-002  
  711.00  1.4829E-002  
  711.50  1.4667E-002  
  712.00  1.4502E-002  
  712.50  1.4230E-002  
  713.00  1.3956E-002  
  713.50  1.3748E-002  
  714.00  1.3657E-002  
  714.50  1.3567E-002  
  715.00  1.3432E-002  
  715.50  1.3325E-002  
  716.00  1.3137E-002  
  716.50  1.2937E-002  
  717.00  1.2633E-002  
  717.50  1.2398E-002  
  718.00  1.2250E-002  
  718.50  1.2160E-002  
  719.00  1.2008E-002  
  719.50  1.1852E-002  
  720.00  1.1683E-002  
  720.50  1.1536E-002  
  721.00  1.1290E-002  
  721.50  1.1078E-002  
  722.00  1.0975E-002  
  722.50  1.0917E-002  
  723.00  1.0791E-002  
  723.50  1.0574E-002  
  724.00  1.0406E-002  
  724.50  1.0324E-002  
  725.00  1.0187E-002  
  725.50  1.0003E-002  
  726.00  9.8633E-003  
  726.50  9.6645E-003  
  727.00  9.4322E-003  
  727.50  9.2637E-003  
  728.00  9.2931E-003  
  728.50  9.3413E-003  
  729.00  9.2383E-003  
  729.50  9.0515E-003  
  730.00  8.7935E-003  
  730.50  8.5559E-003  
  731.00  8.4096E-003  
  731.50  8.3233E-003  
  732.00  8.2487E-003  
  732.50  8.1488E-003  
  733.00  8.0011E-003  
  733.50  7.8472E-003  
  734.00  7.7439E-003  
  734.50  7.7148E-003  
  735.00  7.6396E-003  
  735.50  7.6556E-003  
  736.00  7.6367E-003  
  736.50  7.4391E-003  
  737.00  7.2027E-003  
  737.50  7.0507E-003  
  738.00  7.0281E-003  
  738.50  7.0338E-003  
  739.00  6.9231E-003  
  739.50  6.7406E-003  
  740.00  6.6184E-003  
  740.50  6.5169E-003  
  741.00  6.5037E-003  
  741.50  6.3884E-003  
  742.00  6.2989E-003  
  742.50  6.1540E-003  
  743.00  6.0875E-003  
  743.50  6.0094E-003  
  744.00  5.9114E-003  
  744.50  5.8482E-003  
  745.00  5.7983E-003  
  745.50  5.7214E-003  
  746.00  5.6889E-003  
  746.50  5.5122E-003  
  747.00  5.2428E-003  
  747.50  5.0367E-003  
  748.00  5.1265E-003  
  748.50  5.2668E-003  
  749.00  5.2709E-003  
  749.50  5.1642E-003  
  750.00  5.0539E-003  
  750.50  5.1940E-003  
  751.00  5.4315E-003  
  751.50  5.4530E-003  
  752.00  5.0619E-003  
  752.50  4.7170E-003  
  753.00  4.4673E-003  
  753.50  4.2983E-003  
  754.00  4.1792E-003  
  754.50  4.1912E-003  
  755.00  4.2715E-003  
  755.50  4.3466E-003  
  756.00  4.4186E-003  
  756.50  4.5102E-003  
  757.00  4.3998E-003  
  757.50  4.1952E-003  
  758.00  3.8907E-003  
  758.50  3.8852E-003  
  759.00  3.8933E-003  
  759.50  3.8734E-003  
  760.00  3.7069E-003  
  760.50  3.5756E-003  
  761.00  3.5349E-003  
  761.50  3.4379E-003  
  762.00  3.4980E-003  
  762.50  3.4690E-003  
  763.00  3.5034E-003  
  763.50  3.4185E-003  
  764.00  3.2455E-003  
  764.50  3.0690E-003  
  765.00  3.0976E-003  
  765.50  3.2865E-003  
  766.00  3.2350E-003  
  766.50  3.1517E-003  
  767.00  3.1063E-003  
  767.50  3.0220E-003  
  768.00  2.7307E-003  
  768.50  2.5761E-003  
  769.00  2.5051E-003  
  769.50  2.5377E-003  
  770.00  2.5629E-003  
  770.50  2.7670E-003  
  771.00  2.9289E-003  
  771.50  2.8461E-003  
  772.00  2.6318E-003  
  772.50  2.4597E-003  
  773.00  2.5332E-003  
  773.50  2.4999E-003  
  774.00  2.3578E-003  
  774.50  2.3336E-003  
  775.00  2.3260E-003  
  775.50  2.1850E-003  
  776.00  2.0628E-003  
  776.50  1.9490E-003  
  777.00  2.0632E-003  
  777.50  2.1166E-003  
  778.00  2.3309E-003  
  778.50  2.2923E-003  
  779.00  2.3472E-003  
  779.50  2.2019E-003  
  780.00  2.0050E-003  
  780.50  1.8481E-003  
  781.00  1.8928E-003  
  781.50  2.1345E-003  
  782.00  2.2061E-003  
  782.50  2.1553E-003  
  783.00  1.8123E-003  
  783.50  1.6695E-003  
  784.00  1.5781E-003  
  784.50  1.6884E-003  
  785.00  1.7596E-003  
  785.50  1.8255E-003  
  786.00  1.7462E-003  
  786.50  1.5415E-003  
  787.00  1.3673E-003  
  787.50  1.3401E-003  
  788.00  1.5136E-003  
  788.50  1.7084E-003  
  789.00  1.6522E-003  
  789.50  1.5437E-003  
  790.00  1.5832E-003  
  790.50  1.7305E-003  
  791.00  1.8608E-003  
  791.50  1.8369E-003  
  792.00  1.7044E-003  
  792.50  1.6102E-003  
  793.00  1.5504E-003  
  793.50  1.4753E-003  
  794.00  1.3434E-003  
  794.50  1.2592E-003  
  795.00  1.2224E-003  
  795.50  1.1506E-003  
  796.00  8.2462E-004  
  796.50  7.2724E-004  
  797.00  7.5306E-004  
  797.50  9.9611E-004  
  798.00  1.1455E-003  
  798.50  1.4659E-003  
  799.00  1.5375E-003  
  799.50  1.4032E-003  
  800.00  1.3332E-003  
  800.50  1.3598E-003  
  801.00  1.2465E-003  
  801.50  9.9525E-004  
  802.00  1.0358E-003  
  802.50  1.2665E-003  
  803.00  1.2945E-003  
  803.50  1.1509E-003  
  804.00  1.0927E-003  
  804.50  8.2767E-004  
  805.00  7.9338E-004  
  805.50  8.3644E-004  
  806.00  9.9024E-004  
  806.50  1.1482E-003  
  807.00  1.2559E-003  
  807.50  1.1689E-003  
  808.00  9.7885E-004  
  808.50  8.4559E-004  
  809.00  7.4995E-004  
  809.50  6.5274E-004  
  810.00  6.2443E-004  
  810.50  5.7825E-004  
  811.00  6.5447E-004  
  811.50  5.8541E-004  
  812.00  5.7853E-004  
  812.50  5.0736E-004  
  813.00  7.1835E-004  
  813.50  9.0083E-004  
  814.00  9.6219E-004  
  814.50  1.0493E-003  
  815.00  1.0607E-003  
  815.50  8.4623E-004  
  816.00  4.7540E-004  
  816.50  5.8758E-004  
  817.00  4.9626E-004  
  817.50  8.1309E-004  
  818.00  8.8932E-004  
  818.50  1.1746E-003  
  819.00  1.0800E-003  
  819.50  9.8842E-004  
  820.00  1.1210E-003  
  820.50  8.9866E-004  
  821.00  7.1709E-004  
  821.50  5.9347E-004  
  822.00  5.3577E-004  
  822.50  5.9844E-004  
  823.00  3.8602E-004  
  823.50  2.6924E-004  
  824.00  2.7379E-004  
  824.50  6.6279E-004  
  825.00  6.9948E-004  
  825.50  5.7448E-004  
  826.00  4.5563E-004  
  826.50  3.4771E-004  
  827.00  1.9455E-005  
  827.50  2.1733E-005  
  828.00  1.9143E-004  
  828.50  1.2233E-004  
  829.00  1.4077E-004  
  829.50  8.7968E-005  
  830.00  1.7428E-006  
  830.50  0.0000E+000  
  831.00  2.2902E-005  
  831.50  2.7792E-004  
  832.00  3.3101E-004  
  832.50  2.1831E-004  
  833.00  2.2534E-005  
  833.50  0.0000E+000  
  834.00  0.0000E+000  
  834.50  1.8795E-004  
  835.00  1.0273E-004  
  835.50  3.5537E-005  
  836.00  8.9284E-005  
  836.50  7.3577E-006  
  837.00  0.0000E+000  
  837.50  0.0000E+000  
  838.00  2.3007E-004  
  838.50  2.6591E-004  
  839.00  7.1609E-004  
  839.50  1.1497E-003  
  840.00  9.7864E-004  
  840.50  4.3638E-004  
  841.00  2.6904E-004  
  841.50  4.8423E-004  
  842.00  1.4213E-004  
  842.50  7.6617E-006  
  843.00  7.0030E-005  
  843.50  2.4784E-004  
  844.00  4.3667E-004  
  844.50  5.4094E-004  
  845.00  5.9795E-004  
  845.50  1.6627E-004  
  846.00  0.0000E+000  
  846.50  0.0000E+000  
  847.00  9.1481E-005  
  847.50  7.7385E-004  
  848.00  8.4820E-004  
  848.50  3.7609E-004  
  849.00  1.9254E-004  
  849.50  2.9350E-005  
  850.00  6.5891E-005  
  850.50  8.1104E-005  
  851.00  1.6273E-006  
  851.50  0.0000E+000  
  852.00  2.9942E-004  
  852.50  2.1476E-004  
  853.00  1.3076E-004  
  853.50  0.0000E+000  
  854.00  0.0000E+000  
  854.50  0.0000E+000  
  855.00  0.0000E+000  
  855.50  0.0000E+000  
  856.00  1.7628E-004  
  856.50  6.2453E-004  
  857.00  8.6255E-004  
  857.50  8.2132E-004  
  858.00  6.3113E-004  
  858.50  3.2080E-004  
  859.00  2.5943E-004  
  859.50  0.0000E+000  
  860.00  0.0000E+000  
  860.50  2.6116E-004  
  861.00  5.4308E-004  
  861.50  7.2340E-004  
  862.00  7.0089E-004  
  862.50  3.3208E-004  
  863.00  1.7917E-004  
  863.50  5.7998E-004  
  864.00  1.1004E-003  
  864.50  1.4789E-003  
  865.00  1.2902E-003  
  865.50  1.2667E-003  
  866.00  1.3200E-003  
  866.50  1.4518E-003  
  867.00  1.1175E-003  
  867.50  3.0006E-004  
  868.00  0.0000E+000  
  868.50  2.1354E-004  
  869.00  2.1037E-004  
  869.50  0.0000E+000  
  870.00  0.0000E+000  
  870.50  8.2378E-005  
  871.00  6.8127E-004  
  871.50  5.9113E-004  
  872.00  4.0405E-004  
  872.50  3.4234E-004  
  873.00  1.0257E-003  
  873.50  1.2732E-003  
  874.00  9.2903E-004  
  874.50  6.7371E-005  
  875.00  0.0000E+000  
  875.50  0.0000E+000  
  876.00  0.0000E+000  
  876.50  0.0000E+000  
  877.00  0.0000E+000  
  877.50  0.0000E+000  
  878.00  0.0000E+000  
  878.50  0.0000E+000  
  879.00  1.8942E-004  
  879.50  6.0667E-004  
  880.00  4.5008E-004  
  880.50  1.4665E-004  
  881.00  7.0519E-005  
  881.50  1.8998E-004  
  882.00  0.0000E+000  
  882.50  0.0000E+000  
  883.00  0.0000E+000  
  883.50  0.0000E+000  
  884.00  0.0000E+000  
  884.50  4.9800E-006  
  885.00  0.0000E+000  
  885.50  0.0000E+000  
  886.00  0.0000E+000  
  886.50  0.0000E+000  
  887.00  0.0000E+000  
  887.50  0.0000E+000  
  888.00  6.2968E-005  
  888.50  2.6113E-004  
  889.00  2.3776E-004  
  889.50  0.0000E+000  
  890.00  0.0000E+000  
  890.50  0.0000E+000  
  891.00  0.0000E+000  
  891.50  0.0000E+000  
  892.00  0.0000E+000  
  892.50  1.8265E-005  
  893.00  6.5977E-004  
  893.50  2.0663E-004  
  894.00  0.0000E+000  
  894.50  0.0000E+000  
  895.00  2.7593E-004  
  895.50  6.2377E-004  
  896.00  9.6155E-004  
  896.50  1.3329E-003  
  897.00  1.6382E-003  
  897.50  1.7116E-003  
  898.00  6.4697E-004  
  898.50  2.2039E-004  
  899.00  5.0927E-004  
  899.50  1.9657E-005  
