
# From lspdd.org
# 
# Name: DEL DALS Cylinder-1014 Domestique
# Indice spectral Valeur 
# MSI 0.47 
# SLI 0.67 
# IPI 0.69 
# Pourcentage de bleu 29.8 
# Caractéristique Valeur 
# CCT calculée (K) 3921 
# CCT du fabricant (K) 4000 
# Tension (V) 120 
# Puissance (W) 20.0 
# Efficacité lumineuse (Lum/W) 90.0 
#
# Image: '/app/system/img_2s/2642/medium_image2.jpg?1432222902'
# Image: '/app/system/img_1s/2642/medium_image1.jpg?1432222891'
# 

  273.00  0.0000E+000  
  273.50  0.0000E+000  
  274.00  0.0000E+000  
  274.50  0.0000E+000  
  275.00  0.0000E+000  
  275.50  0.0000E+000  
  276.00  0.0000E+000  
  276.50  0.0000E+000  
  277.00  0.0000E+000  
  277.50  0.0000E+000  
  278.00  0.0000E+000  
  278.50  0.0000E+000  
  279.00  0.0000E+000  
  279.50  0.0000E+000  
  280.00  0.0000E+000  
  280.50  0.0000E+000  
  281.00  0.0000E+000  
  281.50  0.0000E+000  
  282.00  0.0000E+000  
  282.50  0.0000E+000  
  283.00  0.0000E+000  
  283.50  0.0000E+000  
  284.00  0.0000E+000  
  284.50  0.0000E+000  
  285.00  0.0000E+000  
  285.50  0.0000E+000  
  286.00  0.0000E+000  
  286.50  0.0000E+000  
  287.00  0.0000E+000  
  287.50  0.0000E+000  
  288.00  0.0000E+000  
  288.50  0.0000E+000  
  289.00  0.0000E+000  
  289.50  0.0000E+000  
  290.00  0.0000E+000  
  290.50  0.0000E+000  
  291.00  0.0000E+000  
  291.50  0.0000E+000  
  292.00  0.0000E+000  
  292.50  0.0000E+000  
  293.00  0.0000E+000  
  293.50  0.0000E+000  
  294.00  0.0000E+000  
  294.50  0.0000E+000  
  295.00  0.0000E+000  
  295.50  0.0000E+000  
  296.00  0.0000E+000  
  296.50  0.0000E+000  
  297.00  0.0000E+000  
  297.50  0.0000E+000  
  298.00  0.0000E+000  
  298.50  0.0000E+000  
  299.00  0.0000E+000  
  299.50  0.0000E+000  
  300.00  1.2296E-004  
  300.50  3.1208E-004  
  301.00  1.4172E-004  
  301.50  4.9986E-005  
  302.00  3.6282E-005  
  302.50  3.4049E-006  
  303.00  3.9656E-004  
  303.50  5.8361E-004  
  304.00  7.9648E-004  
  304.50  9.8695E-004  
  305.00  8.0900E-004  
  305.50  9.1665E-004  
  306.00  9.9066E-004  
  306.50  1.2259E-003  
  307.00  1.7146E-003  
  307.50  1.7616E-003  
  308.00  2.0058E-003  
  308.50  2.2431E-003  
  309.00  2.3211E-003  
  309.50  2.4217E-003  
  310.00  2.3999E-003  
  310.50  2.1557E-003  
  311.00  1.7320E-003  
  311.50  1.9768E-003  
  312.00  1.8355E-003  
  312.50  1.7986E-003  
  313.00  1.7877E-003  
  313.50  1.2831E-003  
  314.00  1.0054E-003  
  314.50  7.3987E-004  
  315.00  8.9029E-004  
  315.50  1.2811E-003  
  316.00  1.7527E-003  
  316.50  2.0021E-003  
  317.00  1.5544E-003  
  317.50  1.2009E-003  
  318.00  1.1251E-003  
  318.50  1.2011E-003  
  319.00  1.6220E-003  
  319.50  1.4851E-003  
  320.00  1.4529E-003  
  320.50  1.4344E-003  
  321.00  1.4972E-003  
  321.50  1.5164E-003  
  322.00  1.3446E-003  
  322.50  1.2519E-003  
  323.00  1.2567E-003  
  323.50  1.6576E-003  
  324.00  2.0218E-003  
  324.50  2.1902E-003  
  325.00  2.1706E-003  
  325.50  1.6578E-003  
  326.00  1.1591E-003  
  326.50  9.0970E-004  
  327.00  9.7628E-004  
  327.50  1.5332E-003  
  328.00  1.8239E-003  
  328.50  1.8136E-003  
  329.00  1.9480E-003  
  329.50  2.1084E-003  
  330.00  2.3636E-003  
  330.50  2.3495E-003  
  331.00  2.0309E-003  
  331.50  1.4349E-003  
  332.00  1.1628E-003  
  332.50  1.0080E-003  
  333.00  7.9583E-004  
  333.50  7.6999E-004  
  334.00  6.4087E-004  
  334.50  7.6379E-004  
  335.00  9.3971E-004  
  335.50  9.8958E-004  
  336.00  9.4671E-004  
  336.50  5.9350E-004  
  337.00  4.0227E-004  
  337.50  2.5188E-004  
  338.00  3.5510E-004  
  338.50  4.4800E-004  
  339.00  6.9879E-004  
  339.50  1.1547E-003  
  340.00  1.5895E-003  
  340.50  1.6769E-003  
  341.00  1.3197E-003  
  341.50  7.8567E-004  
  342.00  2.4404E-004  
  342.50  1.6915E-004  
  343.00  9.7346E-005  
  343.50  1.7778E-004  
  344.00  3.4980E-004  
  344.50  6.7637E-004  
  345.00  9.5079E-004  
  345.50  1.1408E-003  
  346.00  1.0642E-003  
  346.50  1.1321E-003  
  347.00  1.4304E-003  
  347.50  1.5033E-003  
  348.00  1.5302E-003  
  348.50  1.4599E-003  
  349.00  1.5491E-003  
  349.50  1.5086E-003  
  350.00  1.5154E-003  
  350.50  1.4586E-003  
  351.00  1.4039E-003  
  351.50  1.5989E-003  
  352.00  1.6421E-003  
  352.50  1.2975E-003  
  353.00  1.3621E-003  
  353.50  1.2503E-003  
  354.00  1.2606E-003  
  354.50  1.3651E-003  
  355.00  1.2173E-003  
  355.50  1.3904E-003  
  356.00  1.6043E-003  
  356.50  1.9728E-003  
  357.00  2.1872E-003  
  357.50  1.7707E-003  
  358.00  1.4238E-003  
  358.50  1.0901E-003  
  359.00  1.1860E-003  
  359.50  1.2770E-003  
  360.00  1.4603E-003  
  360.50  1.4329E-003  
  361.00  1.5609E-003  
  361.50  1.7939E-003  
  362.00  1.5462E-003  
  362.50  1.0736E-003  
  363.00  3.9752E-004  
  363.50  4.9833E-005  
  364.00  3.7026E-004  
  364.50  7.6152E-004  
  365.00  9.1299E-004  
  365.50  9.8964E-004  
  366.00  8.3154E-004  
  366.50  9.7906E-004  
  367.00  1.3464E-003  
  367.50  1.4710E-003  
  368.00  1.5631E-003  
  368.50  1.7343E-003  
  369.00  1.7015E-003  
  369.50  1.7863E-003  
  370.00  1.6490E-003  
  370.50  1.3885E-003  
  371.00  1.3157E-003  
  371.50  1.1140E-003  
  372.00  1.0557E-003  
  372.50  1.0105E-003  
  373.00  6.5713E-004  
  373.50  1.2899E-004  
  374.00  0.0000E+000  
  374.50  1.1200E-004  
  375.00  8.4930E-004  
  375.50  1.7442E-003  
  376.00  2.0955E-003  
  376.50  2.0970E-003  
  377.00  1.9177E-003  
  377.50  1.7960E-003  
  378.00  1.9450E-003  
  378.50  2.2098E-003  
  379.00  2.2778E-003  
  379.50  2.0134E-003  
  380.00  1.5667E-003  
  380.50  1.0764E-003  
  381.00  9.7405E-004  
  381.50  9.9736E-004  
  382.00  1.3218E-003  
  382.50  1.6047E-003  
  383.00  1.7530E-003  
  383.50  1.7858E-003  
  384.00  1.5753E-003  
  384.50  1.4529E-003  
  385.00  1.4732E-003  
  385.50  1.6880E-003  
  386.00  1.9065E-003  
  386.50  1.8414E-003  
  387.00  1.6160E-003  
  387.50  1.4835E-003  
  388.00  1.5001E-003  
  388.50  1.6505E-003  
  389.00  1.8078E-003  
  389.50  1.9067E-003  
  390.00  2.1078E-003  
  390.50  2.4389E-003  
  391.00  2.3606E-003  
  391.50  1.9558E-003  
  392.00  1.6015E-003  
  392.50  1.4971E-003  
  393.00  1.6932E-003  
  393.50  1.8149E-003  
  394.00  1.6976E-003  
  394.50  1.2881E-003  
  395.00  9.6027E-004  
  395.50  9.5220E-004  
  396.00  9.8891E-004  
  396.50  1.2643E-003  
  397.00  1.6281E-003  
  397.50  1.6535E-003  
  398.00  1.6688E-003  
  398.50  1.6894E-003  
  399.00  1.6428E-003  
  399.50  1.8258E-003  
  400.00  2.1747E-003  
  400.50  2.2314E-003  
  401.00  2.3733E-003  
  401.50  2.3045E-003  
  402.00  2.1245E-003  
  402.50  2.2107E-003  
  403.00  2.0796E-003  
  403.50  2.3034E-003  
  404.00  2.6100E-003  
  404.50  2.7179E-003  
  405.00  3.1755E-003  
  405.50  3.3353E-003  
  406.00  3.2212E-003  
  406.50  3.1735E-003  
  407.00  2.5618E-003  
  407.50  2.4229E-003  
  408.00  2.4304E-003  
  408.50  2.6061E-003  
  409.00  2.7852E-003  
  409.50  2.9627E-003  
  410.00  3.1586E-003  
  410.50  3.5164E-003  
  411.00  4.0781E-003  
  411.50  4.2005E-003  
  412.00  4.0272E-003  
  412.50  3.6859E-003  
  413.00  3.4164E-003  
  413.50  3.8090E-003  
  414.00  4.4140E-003  
  414.50  4.9588E-003  
  415.00  5.3868E-003  
  415.50  5.6204E-003  
  416.00  5.8657E-003  
  416.50  6.0178E-003  
  417.00  6.1395E-003  
  417.50  6.3446E-003  
  418.00  6.8560E-003  
  418.50  7.2846E-003  
  419.00  7.7214E-003  
  419.50  8.2255E-003  
  420.00  9.0707E-003  
  420.50  1.0139E-002  
  421.00  1.0992E-002  
  421.50  1.1480E-002  
  422.00  1.1970E-002  
  422.50  1.2678E-002  
  423.00  1.3486E-002  
  423.50  1.4576E-002  
  424.00  1.5348E-002  
  424.50  1.6274E-002  
  425.00  1.7241E-002  
  425.50  1.8247E-002  
  426.00  1.9387E-002  
  426.50  2.0206E-002  
  427.00  2.1443E-002  
  427.50  2.2661E-002  
  428.00  2.4354E-002  
  428.50  2.6081E-002  
  429.00  2.7609E-002  
  429.50  2.9187E-002  
  430.00  3.1199E-002  
  430.50  3.3666E-002  
  431.00  3.5950E-002  
  431.50  3.8322E-002  
  432.00  4.0553E-002  
  432.50  4.3118E-002  
  433.00  4.5729E-002  
  433.50  4.8376E-002  
  434.00  5.1362E-002  
  434.50  5.4419E-002  
  435.00  5.7985E-002  
  435.50  6.1511E-002  
  436.00  6.5146E-002  
  436.50  6.8870E-002  
  437.00  7.2860E-002  
  437.50  7.7165E-002  
  438.00  8.1532E-002  
  438.50  8.6528E-002  
  439.00  9.2063E-002  
  439.50  9.8139E-002  
  440.00  1.0512E-001  
  440.50  1.1189E-001  
  441.00  1.1895E-001  
  441.50  1.2646E-001  
  442.00  1.3474E-001  
  442.50  1.4398E-001  
  443.00  1.5325E-001  
  443.50  1.6338E-001  
  444.00  1.7416E-001  
  444.50  1.8610E-001  
  445.00  1.9832E-001  
  445.50  2.1144E-001  
  446.00  2.2466E-001  
  446.50  2.3831E-001  
  447.00  2.5186E-001  
  447.50  2.6467E-001  
  448.00  2.7890E-001  
  448.50  2.9174E-001  
  449.00  3.0399E-001  
  449.50  3.1403E-001  
  450.00  3.2354E-001  
  450.50  3.3389E-001  
  451.00  3.4365E-001  
  451.50  3.5117E-001  
  452.00  3.5734E-001  
  452.50  3.6163E-001  
  453.00  3.6478E-001  
  453.50  3.6630E-001  
  454.00  3.6440E-001  
  454.50  3.6184E-001  
  455.00  3.5796E-001  
  455.50  3.5234E-001  
  456.00  3.4426E-001  
  456.50  3.3471E-001  
  457.00  3.2524E-001  
  457.50  3.1679E-001  
  458.00  3.0807E-001  
  458.50  2.9909E-001  
  459.00  2.8959E-001  
  459.50  2.7895E-001  
  460.00  2.6811E-001  
  460.50  2.5719E-001  
  461.00  2.4839E-001  
  461.50  2.4020E-001  
  462.00  2.3268E-001  
  462.50  2.2520E-001  
  463.00  2.1830E-001  
  463.50  2.1227E-001  
  464.00  2.0719E-001  
  464.50  2.0198E-001  
  465.00  1.9714E-001  
  465.50  1.9229E-001  
  466.00  1.8750E-001  
  466.50  1.8306E-001  
  467.00  1.7878E-001  
  467.50  1.7540E-001  
  468.00  1.7192E-001  
  468.50  1.6841E-001  
  469.00  1.6460E-001  
  469.50  1.6086E-001  
  470.00  1.5709E-001  
  470.50  1.5391E-001  
  471.00  1.4972E-001  
  471.50  1.4517E-001  
  472.00  1.4058E-001  
  472.50  1.3671E-001  
  473.00  1.3371E-001  
  473.50  1.3128E-001  
  474.00  1.2845E-001  
  474.50  1.2517E-001  
  475.00  1.2178E-001  
  475.50  1.1893E-001  
  476.00  1.1598E-001  
  476.50  1.1343E-001  
  477.00  1.1120E-001  
  477.50  1.0875E-001  
  478.00  1.0695E-001  
  478.50  1.0521E-001  
  479.00  1.0389E-001  
  479.50  1.0254E-001  
  480.00  1.0084E-001  
  480.50  9.9117E-002  
  481.00  9.7911E-002  
  481.50  9.7430E-002  
  482.00  9.7458E-002  
  482.50  9.7276E-002  
  483.00  9.6796E-002  
  483.50  9.6021E-002  
  484.00  9.5532E-002  
  484.50  9.5270E-002  
  485.00  9.5407E-002  
  485.50  9.5699E-002  
  486.00  9.5919E-002  
  486.50  9.5971E-002  
  487.00  9.6003E-002  
  487.50  9.6182E-002  
  488.00  9.6817E-002  
  488.50  9.7395E-002  
  489.00  9.7787E-002  
  489.50  9.7816E-002  
  490.00  9.8241E-002  
  490.50  9.9149E-002  
  491.00  1.0020E-001  
  491.50  1.0108E-001  
  492.00  1.0174E-001  
  492.50  1.0236E-001  
  493.00  1.0363E-001  
  493.50  1.0492E-001  
  494.00  1.0635E-001  
  494.50  1.0786E-001  
  495.00  1.0927E-001  
  495.50  1.1083E-001  
  496.00  1.1248E-001  
  496.50  1.1426E-001  
  497.00  1.1588E-001  
  497.50  1.1765E-001  
  498.00  1.1898E-001  
  498.50  1.2050E-001  
  499.00  1.2219E-001  
  499.50  1.2397E-001  
  500.00  1.2589E-001  
  500.50  1.2787E-001  
  501.00  1.2996E-001  
  501.50  1.3189E-001  
  502.00  1.3404E-001  
  502.50  1.3608E-001  
  503.00  1.3820E-001  
  503.50  1.4003E-001  
  504.00  1.4131E-001  
  504.50  1.4285E-001  
  505.00  1.4454E-001  
  505.50  1.4660E-001  
  506.00  1.4862E-001  
  506.50  1.5056E-001  
  507.00  1.5238E-001  
  507.50  1.5409E-001  
  508.00  1.5558E-001  
  508.50  1.5703E-001  
  509.00  1.5827E-001  
  509.50  1.5982E-001  
  510.00  1.6124E-001  
  510.50  1.6296E-001  
  511.00  1.6477E-001  
  511.50  1.6659E-001  
  512.00  1.6829E-001  
  512.50  1.6985E-001  
  513.00  1.7133E-001  
  513.50  1.7296E-001  
  514.00  1.7438E-001  
  514.50  1.7604E-001  
  515.00  1.7766E-001  
  515.50  1.7917E-001  
  516.00  1.8079E-001  
  516.50  1.8236E-001  
  517.00  1.8426E-001  
  517.50  1.8613E-001  
  518.00  1.8794E-001  
  518.50  1.8949E-001  
  519.00  1.9076E-001  
  519.50  1.9214E-001  
  520.00  1.9360E-001  
  520.50  1.9525E-001  
  521.00  1.9732E-001  
  521.50  1.9920E-001  
  522.00  2.0068E-001  
  522.50  2.0194E-001  
  523.00  2.0310E-001  
  523.50  2.0490E-001  
  524.00  2.0702E-001  
  524.50  2.0903E-001  
  525.00  2.1061E-001  
  525.50  2.1215E-001  
  526.00  2.1318E-001  
  526.50  2.1489E-001  
  527.00  2.1641E-001  
  527.50  2.1853E-001  
  528.00  2.2070E-001  
  528.50  2.2266E-001  
  529.00  2.2415E-001  
  529.50  2.2459E-001  
  530.00  2.2546E-001  
  530.50  2.2699E-001  
  531.00  2.2899E-001  
  531.50  2.3103E-001  
  532.00  2.3261E-001  
  532.50  2.3412E-001  
  533.00  2.3535E-001  
  533.50  2.3609E-001  
  534.00  2.3682E-001  
  534.50  2.3808E-001  
  535.00  2.3975E-001  
  535.50  2.4130E-001  
  536.00  2.4275E-001  
  536.50  2.4421E-001  
  537.00  2.4599E-001  
  537.50  2.4734E-001  
  538.00  2.4833E-001  
  538.50  2.4928E-001  
  539.00  2.5064E-001  
  539.50  2.5239E-001  
  540.00  2.5369E-001  
  540.50  2.5474E-001  
  541.00  2.5523E-001  
  541.50  2.5602E-001  
  542.00  2.5728E-001  
  542.50  2.5879E-001  
  543.00  2.6047E-001  
  543.50  2.6186E-001  
  544.00  2.6290E-001  
  544.50  2.6321E-001  
  545.00  2.6415E-001  
  545.50  2.6499E-001  
  546.00  2.6653E-001  
  546.50  2.6762E-001  
  547.00  2.6861E-001  
  547.50  2.6942E-001  
  548.00  2.7004E-001  
  548.50  2.7034E-001  
  549.00  2.7152E-001  
  549.50  2.7262E-001  
  550.00  2.7379E-001  
  550.50  2.7456E-001  
  551.00  2.7549E-001  
  551.50  2.7683E-001  
  552.00  2.7779E-001  
  552.50  2.7846E-001  
  553.00  2.7895E-001  
  553.50  2.7939E-001  
  554.00  2.8003E-001  
  554.50  2.8075E-001  
  555.00  2.8155E-001  
  555.50  2.8256E-001  
  556.00  2.8386E-001  
  556.50  2.8484E-001  
  557.00  2.8566E-001  
  557.50  2.8568E-001  
  558.00  2.8605E-001  
  558.50  2.8667E-001  
  559.00  2.8775E-001  
  559.50  2.8830E-001  
  560.00  2.8849E-001  
  560.50  2.8893E-001  
  561.00  2.8945E-001  
  561.50  2.9036E-001  
  562.00  2.9025E-001  
  562.50  2.9050E-001  
  563.00  2.9081E-001  
  563.50  2.9139E-001  
  564.00  2.9169E-001  
  564.50  2.9165E-001  
  565.00  2.9192E-001  
  565.50  2.9240E-001  
  566.00  2.9270E-001  
  566.50  2.9288E-001  
  567.00  2.9287E-001  
  567.50  2.9292E-001  
  568.00  2.9339E-001  
  568.50  2.9313E-001  
  569.00  2.9281E-001  
  569.50  2.9243E-001  
  570.00  2.9253E-001  
  570.50  2.9335E-001  
  571.00  2.9414E-001  
  571.50  2.9443E-001  
  572.00  2.9447E-001  
  572.50  2.9460E-001  
  573.00  2.9513E-001  
  573.50  2.9571E-001  
  574.00  2.9584E-001  
  574.50  2.9593E-001  
  575.00  2.9666E-001  
  575.50  2.9755E-001  
  576.00  2.9835E-001  
  576.50  2.9852E-001  
  577.00  2.9845E-001  
  577.50  2.9853E-001  
  578.00  2.9896E-001  
  578.50  2.9986E-001  
  579.00  3.0098E-001  
  579.50  3.0189E-001  
  580.00  3.0211E-001  
  580.50  3.0206E-001  
  581.00  3.0215E-001  
  581.50  3.0284E-001  
  582.00  3.0386E-001  
  582.50  3.0499E-001  
  583.00  3.0529E-001  
  583.50  3.0573E-001  
  584.00  3.0586E-001  
  584.50  3.0651E-001  
  585.00  3.0688E-001  
  585.50  3.0726E-001  
  586.00  3.0716E-001  
  586.50  3.0756E-001  
  587.00  3.0756E-001  
  587.50  3.0850E-001  
  588.00  3.0923E-001  
  588.50  3.1031E-001  
  589.00  3.1053E-001  
  589.50  3.1064E-001  
  590.00  3.1034E-001  
  590.50  3.1011E-001  
  591.00  3.1052E-001  
  591.50  3.1117E-001  
  592.00  3.1134E-001  
  592.50  3.1102E-001  
  593.00  3.1022E-001  
  593.50  3.0970E-001  
  594.00  3.0944E-001  
  594.50  3.0932E-001  
  595.00  3.0957E-001  
  595.50  3.0954E-001  
  596.00  3.0957E-001  
  596.50  3.0963E-001  
  597.00  3.0972E-001  
  597.50  3.0988E-001  
  598.00  3.0956E-001  
  598.50  3.0932E-001  
  599.00  3.0905E-001  
  599.50  3.0883E-001  
  600.00  3.0869E-001  
  600.50  3.0830E-001  
  601.00  3.0801E-001  
  601.50  3.0757E-001  
  602.00  3.0712E-001  
  602.50  3.0666E-001  
  603.00  3.0611E-001  
  603.50  3.0545E-001  
  604.00  3.0464E-001  
  604.50  3.0432E-001  
  605.00  3.0380E-001  
  605.50  3.0366E-001  
  606.00  3.0343E-001  
  606.50  3.0294E-001  
  607.00  3.0229E-001  
  607.50  3.0106E-001  
  608.00  2.9991E-001  
  608.50  2.9881E-001  
  609.00  2.9852E-001  
  609.50  2.9876E-001  
  610.00  2.9888E-001  
  610.50  2.9842E-001  
  611.00  2.9802E-001  
  611.50  2.9758E-001  
  612.00  2.9712E-001  
  612.50  2.9622E-001  
  613.00  2.9558E-001  
  613.50  2.9475E-001  
  614.00  2.9434E-001  
  614.50  2.9340E-001  
  615.00  2.9225E-001  
  615.50  2.9082E-001  
  616.00  2.9019E-001  
  616.50  2.8959E-001  
  617.00  2.8878E-001  
  617.50  2.8738E-001  
  618.00  2.8619E-001  
  618.50  2.8524E-001  
  619.00  2.8449E-001  
  619.50  2.8338E-001  
  620.00  2.8197E-001  
  620.50  2.8035E-001  
  621.00  2.7873E-001  
  621.50  2.7781E-001  
  622.00  2.7739E-001  
  622.50  2.7717E-001  
  623.00  2.7644E-001  
  623.50  2.7497E-001  
  624.00  2.7323E-001  
  624.50  2.7124E-001  
  625.00  2.6929E-001  
  625.50  2.6723E-001  
  626.00  2.6588E-001  
  626.50  2.6520E-001  
  627.00  2.6407E-001  
  627.50  2.6309E-001  
  628.00  2.6178E-001  
  628.50  2.6030E-001  
  629.00  2.5839E-001  
  629.50  2.5623E-001  
  630.00  2.5511E-001  
  630.50  2.5351E-001  
  631.00  2.5215E-001  
  631.50  2.5077E-001  
  632.00  2.5000E-001  
  632.50  2.4864E-001  
  633.00  2.4660E-001  
  633.50  2.4428E-001  
  634.00  2.4244E-001  
  634.50  2.4099E-001  
  635.00  2.3994E-001  
  635.50  2.3774E-001  
  636.00  2.3503E-001  
  636.50  2.3307E-001  
  637.00  2.3158E-001  
  637.50  2.3064E-001  
  638.00  2.2883E-001  
  638.50  2.2712E-001  
  639.00  2.2525E-001  
  639.50  2.2314E-001  
  640.00  2.2102E-001  
  640.50  2.1888E-001  
  641.00  2.1699E-001  
  641.50  2.1547E-001  
  642.00  2.1411E-001  
  642.50  2.1244E-001  
  643.00  2.1017E-001  
  643.50  2.0779E-001  
  644.00  2.0565E-001  
  644.50  2.0412E-001  
  645.00  2.0313E-001  
  645.50  2.0184E-001  
  646.00  2.0016E-001  
  646.50  1.9769E-001  
  647.00  1.9591E-001  
  647.50  1.9444E-001  
  648.00  1.9320E-001  
  648.50  1.9169E-001  
  649.00  1.8987E-001  
  649.50  1.8812E-001  
  650.00  1.8658E-001  
  650.50  1.8493E-001  
  651.00  1.8329E-001  
  651.50  1.8137E-001  
  652.00  1.7972E-001  
  652.50  1.7794E-001  
  653.00  1.7632E-001  
  653.50  1.7456E-001  
  654.00  1.7338E-001  
  654.50  1.7214E-001  
  655.00  1.7072E-001  
  655.50  1.6912E-001  
  656.00  1.6748E-001  
  656.50  1.6623E-001  
  657.00  1.6471E-001  
  657.50  1.6331E-001  
  658.00  1.6144E-001  
  658.50  1.5989E-001  
  659.00  1.5819E-001  
  659.50  1.5691E-001  
  660.00  1.5595E-001  
  660.50  1.5481E-001  
  661.00  1.5294E-001  
  661.50  1.5050E-001  
  662.00  1.4829E-001  
  662.50  1.4730E-001  
  663.00  1.4633E-001  
  663.50  1.4516E-001  
  664.00  1.4348E-001  
  664.50  1.4184E-001  
  665.00  1.4029E-001  
  665.50  1.3891E-001  
  666.00  1.3752E-001  
  666.50  1.3596E-001  
  667.00  1.3425E-001  
  667.50  1.3278E-001  
  668.00  1.3121E-001  
  668.50  1.2970E-001  
  669.00  1.2840E-001  
  669.50  1.2744E-001  
  670.00  1.2639E-001  
  670.50  1.2491E-001  
  671.00  1.2338E-001  
  671.50  1.2188E-001  
  672.00  1.2054E-001  
  672.50  1.1914E-001  
  673.00  1.1776E-001  
  673.50  1.1624E-001  
  674.00  1.1482E-001  
  674.50  1.1353E-001  
  675.00  1.1255E-001  
  675.50  1.1094E-001  
  676.00  1.0909E-001  
  676.50  1.0742E-001  
  677.00  1.0602E-001  
  677.50  1.0485E-001  
  678.00  1.0325E-001  
  678.50  1.0211E-001  
  679.00  1.0082E-001  
  679.50  9.9787E-002  
  680.00  9.9116E-002  
  680.50  9.8188E-002  
  681.00  9.6957E-002  
  681.50  9.5118E-002  
  682.00  9.3750E-002  
  682.50  9.2254E-002  
  683.00  9.1132E-002  
  683.50  9.0093E-002  
  684.00  8.9021E-002  
  684.50  8.7703E-002  
  685.00  8.6248E-002  
  685.50  8.5208E-002  
  686.00  8.4236E-002  
  686.50  8.3253E-002  
  687.00  8.2353E-002  
  687.50  8.1185E-002  
  688.00  7.9783E-002  
  688.50  7.8533E-002  
  689.00  7.7599E-002  
  689.50  7.6791E-002  
  690.00  7.6023E-002  
  690.50  7.5155E-002  
  691.00  7.4311E-002  
  691.50  7.3256E-002  
  692.00  7.1977E-002  
  692.50  7.1112E-002  
  693.00  6.9943E-002  
  693.50  6.9566E-002  
  694.00  6.8604E-002  
  694.50  6.7918E-002  
  695.00  6.6937E-002  
  695.50  6.6155E-002  
  696.00  6.5266E-002  
  696.50  6.4198E-002  
  697.00  6.3430E-002  
  697.50  6.2627E-002  
  698.00  6.1526E-002  
  698.50  6.0386E-002  
  699.00  5.9536E-002  
  699.50  5.9148E-002  
  700.00  5.8072E-002  
  700.50  5.7284E-002  
  701.00  5.6778E-002  
  701.50  5.6286E-002  
  702.00  5.5482E-002  
  702.50  5.4716E-002  
  703.00  5.4000E-002  
  703.50  5.2821E-002  
  704.00  5.1528E-002  
  704.50  5.1160E-002  
  705.00  5.0711E-002  
  705.50  4.9682E-002  
  706.00  4.8491E-002  
  706.50  4.8148E-002  
  707.00  4.8238E-002  
  707.50  4.7880E-002  
  708.00  4.6647E-002  
  708.50  4.5510E-002  
  709.00  4.4201E-002  
  709.50  4.3611E-002  
  710.00  4.3281E-002  
  710.50  4.3327E-002  
  711.00  4.3050E-002  
  711.50  4.2470E-002  
  712.00  4.1479E-002  
  712.50  4.0677E-002  
  713.00  4.0071E-002  
  713.50  3.9419E-002  
  714.00  3.8503E-002  
  714.50  3.7884E-002  
  715.00  3.7766E-002  
  715.50  3.7450E-002  
  716.00  3.7195E-002  
  716.50  3.6526E-002  
  717.00  3.5930E-002  
  717.50  3.4843E-002  
  718.00  3.3810E-002  
  718.50  3.3504E-002  
  719.00  3.3570E-002  
  719.50  3.3574E-002  
  720.00  3.2946E-002  
  720.50  3.2398E-002  
  721.00  3.2072E-002  
  721.50  3.1539E-002  
  722.00  3.0685E-002  
  722.50  2.9957E-002  
  723.00  2.9752E-002  
  723.50  2.9178E-002  
  724.00  2.8961E-002  
  724.50  2.8554E-002  
  725.00  2.8223E-002  
  725.50  2.7986E-002  
  726.00  2.7642E-002  
  726.50  2.6968E-002  
  727.00  2.6025E-002  
  727.50  2.5634E-002  
  728.00  2.5719E-002  
  728.50  2.5447E-002  
  729.00  2.4700E-002  
  729.50  2.4142E-002  
  730.00  2.4515E-002  
  730.50  2.4708E-002  
  731.00  2.4611E-002  
  731.50  2.4067E-002  
  732.00  2.3368E-002  
  732.50  2.2072E-002  
  733.00  2.1427E-002  
  733.50  2.1190E-002  
  734.00  2.1516E-002  
  734.50  2.1476E-002  
  735.00  2.1530E-002  
  735.50  2.1339E-002  
  736.00  2.1079E-002  
  736.50  2.0673E-002  
  737.00  2.0213E-002  
  737.50  1.9676E-002  
  738.00  1.9020E-002  
  738.50  1.8865E-002  
  739.00  1.8562E-002  
  739.50  1.7665E-002  
  740.00  1.6677E-002  
  740.50  1.6024E-002  
  741.00  1.6347E-002  
  741.50  1.6978E-002  
  742.00  1.6918E-002  
  742.50  1.6446E-002  
  743.00  1.6275E-002  
  743.50  1.6313E-002  
  744.00  1.5625E-002  
  744.50  1.4876E-002  
  745.00  1.4595E-002  
  745.50  1.4731E-002  
  746.00  1.4154E-002  
  746.50  1.3903E-002  
  747.00  1.3928E-002  
  747.50  1.3757E-002  
  748.00  1.4258E-002  
  748.50  1.4979E-002  
  749.00  1.5001E-002  
  749.50  1.4012E-002  
  750.00  1.3396E-002  
  750.50  1.3614E-002  
  751.00  1.3418E-002  
  751.50  1.3571E-002  
  752.00  1.3859E-002  
  752.50  1.3902E-002  
  753.00  1.3393E-002  
  753.50  1.2679E-002  
  754.00  1.2159E-002  
  754.50  1.1858E-002  
  755.00  1.1704E-002  
  755.50  1.1780E-002  
  756.00  1.2243E-002  
  756.50  1.3261E-002  
  757.00  1.2906E-002  
  757.50  1.2022E-002  
  758.00  1.1675E-002  
  758.50  1.2153E-002  
  759.00  1.2366E-002  
  759.50  1.1743E-002  
  760.00  1.0901E-002  
  760.50  1.0100E-002  
  761.00  1.0243E-002  
  761.50  1.0401E-002  
  762.00  1.0973E-002  
  762.50  1.1143E-002  
  763.00  1.1506E-002  
  763.50  1.0778E-002  
  764.00  9.6927E-003  
  764.50  9.2213E-003  
  765.00  9.5675E-003  
  765.50  9.4005E-003  
  766.00  9.3828E-003  
  766.50  9.3864E-003  
  767.00  9.0768E-003  
  767.50  8.9600E-003  
  768.00  8.6749E-003  
  768.50  8.4613E-003  
  769.00  8.0444E-003  
  769.50  8.4944E-003  
  770.00  8.6669E-003  
  770.50  8.6982E-003  
  771.00  8.3154E-003  
  771.50  8.6938E-003  
  772.00  8.4948E-003  
  772.50  8.4282E-003  
  773.00  8.4028E-003  
  773.50  8.6513E-003  
  774.00  7.9682E-003  
  774.50  7.6538E-003  
  775.00  7.4816E-003  
  775.50  7.9029E-003  
  776.00  8.4217E-003  
  776.50  8.7427E-003  
  777.00  8.2333E-003  
  777.50  8.0595E-003  
  778.00  7.5760E-003  
  778.50  6.9018E-003  
  779.00  6.2997E-003  
  779.50  5.7141E-003  
  780.00  5.3586E-003  
  780.50  5.9730E-003  
  781.00  7.0860E-003  
  781.50  7.4794E-003  
  782.00  6.8941E-003  
  782.50  6.1404E-003  
  783.00  6.0178E-003  
  783.50  6.3759E-003  
  784.00  7.2797E-003  
  784.50  7.6974E-003  
  785.00  7.1674E-003  
  785.50  6.1606E-003  
  786.00  5.4995E-003  
  786.50  6.1445E-003  
  787.00  6.7635E-003  
  787.50  6.2011E-003  
  788.00  5.4561E-003  
  788.50  4.6759E-003  
  789.00  4.6462E-003  
  789.50  5.3003E-003  
  790.00  6.1834E-003  
  790.50  6.2796E-003  
  791.00  5.9892E-003  
  791.50  6.3152E-003  
  792.00  5.1617E-003  
  792.50  3.8548E-003  
  793.00  3.3589E-003  
  793.50  3.9784E-003  
  794.00  4.2609E-003  
  794.50  3.9516E-003  
  795.00  4.3569E-003  
  795.50  5.5972E-003  
  796.00  5.4789E-003  
  796.50  4.7962E-003  
  797.00  4.6739E-003  
  797.50  5.7307E-003  
  798.00  6.9715E-003  
  798.50  5.5339E-003  
  799.00  4.7414E-003  
  799.50  4.3810E-003  
  800.00  3.6937E-003  
  800.50  3.7568E-003  
  801.00  5.6073E-003  
  801.50  6.4770E-003  
  802.00  5.9582E-003  
  802.50  4.5681E-003  
  803.00  3.8908E-003  
  803.50  3.5565E-003  
  804.00  3.2451E-003  
  804.50  4.1276E-003  
  805.00  4.5049E-003  
  805.50  4.2303E-003  
  806.00  2.9349E-003  
  806.50  3.2174E-003  
  807.00  3.8318E-003  
  807.50  2.7422E-003  
  808.00  2.6362E-003  
  808.50  2.9831E-003  
  809.00  4.9219E-003  
  809.50  4.5635E-003  
  810.00  4.8082E-003  
  810.50  4.5176E-003  
  811.00  4.3560E-003  
  811.50  3.7908E-003  
  812.00  3.9866E-003  
  812.50  3.9222E-003  
  813.00  3.7443E-003  
  813.50  4.4109E-003  
  814.00  4.4060E-003  
  814.50  4.6864E-003  
  815.00  4.6641E-003  
  815.50  3.8304E-003  
  816.00  2.3296E-003  
  816.50  3.1376E-003  
  817.00  4.2760E-003  
  817.50  3.8910E-003  
  818.00  3.3705E-003  
  818.50  1.7236E-003  
  819.00  2.4514E-003  
  819.50  2.6317E-003  
  820.00  3.7785E-003  
  820.50  3.9590E-003  
  821.00  2.5202E-003  
  821.50  1.2596E-003  
  822.00  3.2749E-005  
  822.50  1.0094E-003  
  823.00  2.5487E-003  
  823.50  3.7601E-003  
  824.00  3.7892E-003  
  824.50  2.9630E-003  
  825.00  1.3772E-003  
  825.50  7.4269E-004  
  826.00  1.4127E-003  
  826.50  3.1048E-003  
  827.00  4.0495E-003  
  827.50  4.2637E-003  
  828.00  4.0827E-003  
  828.50  3.9572E-003  
  829.00  3.6028E-003  
  829.50  3.7051E-003  
  830.00  4.3162E-003  
  830.50  3.6961E-003  
  831.00  2.4795E-003  
  831.50  2.2759E-003  
  832.00  2.5607E-003  
  832.50  2.6663E-003  
  833.00  3.5988E-003  
  833.50  3.4831E-003  
  834.00  3.2569E-003  
  834.50  3.3189E-003  
  835.00  2.3962E-003  
  835.50  2.2738E-003  
  836.00  2.6291E-003  
  836.50  2.6617E-003  
  837.00  1.1866E-003  
  837.50  6.0557E-004  
  838.00  1.6557E-003  
  838.50  1.0482E-003  
  839.00  2.0080E-003  
  839.50  2.8641E-003  
  840.00  4.9425E-003  
  840.50  5.4390E-003  
  841.00  3.7453E-003  
  841.50  2.9489E-003  
  842.00  2.7548E-003  
  842.50  2.9062E-003  
  843.00  3.2097E-003  
  843.50  3.8279E-003  
  844.00  3.5476E-003  
  844.50  3.1895E-003  
  845.00  3.6886E-003  
  845.50  3.1272E-003  
  846.00  1.2899E-003  
  846.50  1.2116E-003  
  847.00  2.4342E-003  
  847.50  2.0323E-003  
  848.00  2.9526E-003  
  848.50  2.2828E-003  
  849.00  8.5262E-004  
  849.50  1.7863E-003  
  850.00  4.0492E-003  
  850.50  2.7958E-003  
  851.00  6.4150E-004  
  851.50  2.3454E-003  
  852.00  4.6510E-003  
  852.50  1.1948E-003  
  853.00  2.8108E-004  
  853.50  0.0000E+000  
  854.00  1.3667E-003  
  854.50  3.5244E-003  
  855.00  3.0985E-003  
  855.50  2.6679E-003  
  856.00  2.7296E-003  
  856.50  1.5299E-003  
  857.00  4.5371E-006  
  857.50  0.0000E+000  
  858.00  0.0000E+000  
  858.50  2.3620E-005  
  859.00  3.5920E-004  
  859.50  3.0576E-004  
  860.00  4.1741E-005  
  860.50  5.5224E-004  
  861.00  2.7571E-003  
  861.50  3.5149E-003  
  862.00  6.4495E-004  
  862.50  0.0000E+000  
  863.00  0.0000E+000  
  863.50  0.0000E+000  
  864.00  6.5355E-006  
  864.50  2.2605E-004  
  865.00  1.5282E-003  
  865.50  2.6165E-003  
  866.00  2.1847E-003  
  866.50  6.1712E-004  
  867.00  1.7608E-003  
  867.50  4.9294E-003  
  868.00  7.5819E-003  
  868.50  6.5984E-003  
  869.00  4.1058E-003  
  869.50  2.7385E-003  
  870.00  1.9461E-003  
  870.50  1.7136E-003  
  871.00  3.7043E-003  
  871.50  7.2338E-003  
  872.00  7.4976E-003  
  872.50  6.1116E-003  
  873.00  2.7213E-003  
  873.50  4.4801E-003  
  874.00  6.1117E-003  
  874.50  6.5860E-003  
  875.00  7.5800E-003  
  875.50  8.1533E-003  
  876.00  6.4954E-003  
  876.50  6.6996E-003  
  877.00  5.4407E-003  
  877.50  4.3432E-003  
  878.00  2.6177E-003  
  878.50  1.4090E-003  
  879.00  0.0000E+000  
  879.50  1.0431E-003  
  880.00  4.1632E-003  
  880.50  6.4984E-003  
  881.00  4.3403E-003  
  881.50  4.7275E-003  
  882.00  4.3500E-003  
  882.50  9.1203E-003  
  883.00  1.3253E-002  
  883.50  1.0682E-002  
  884.00  4.7259E-003  
  884.50  4.7309E-003  
  885.00  4.4408E-003  
  885.50  1.1341E-003  
  886.00  1.8952E-003  
  886.50  3.2331E-003  
  887.00  4.5955E-003  
  887.50  5.4799E-003  
  888.00  6.6339E-003  
  888.50  7.0241E-003  
  889.00  9.6264E-003  
  889.50  1.1220E-002  
  890.00  1.0509E-002  
  890.50  9.5205E-003  
  891.00  7.3731E-003  
  891.50  6.1557E-003  
  892.00  3.5544E-003  
  892.50  1.8243E-003  
  893.00  5.5794E-003  
  893.50  9.2680E-003  
  894.00  9.9951E-003  
  894.50  1.0845E-002  
  895.00  6.5193E-003  
  895.50  5.6681E-003  
  896.00  5.3733E-003  
  896.50  5.5231E-003  
  897.00  9.0253E-003  
  897.50  1.0572E-002  
  898.00  7.9118E-003  
  898.50  4.1042E-003  
  899.00  6.2751E-003  
  899.50  1.8548E-004  
