
# From lspdd.org
# 
# Name: DEL DALS Wall-Pack-1190 Domestique
# Indice spectral Valeur 
# MSI 0.53 
# SLI 0.72 
# IPI 0.68 
# Pourcentage de bleu 34.4 
# Caractéristique Valeur 
# CCT calculée (K) 4335 
# CCT du fabricant (K) 4000 
# Tension (V) 120 
# Puissance (W) 20.0 
# Efficacité lumineuse (Lum/W) 70.0 
#
# Image: '/app/system/img_2s/2643/medium_image2.jpg?1432222923'
# Image: '/app/system/img_1s/2643/medium_image1.jpg?1432222910'
# 

  273.00  0.0000E+000  
  273.50  0.0000E+000  
  274.00  0.0000E+000  
  274.50  0.0000E+000  
  275.00  0.0000E+000  
  275.50  0.0000E+000  
  276.00  0.0000E+000  
  276.50  0.0000E+000  
  277.00  0.0000E+000  
  277.50  0.0000E+000  
  278.00  0.0000E+000  
  278.50  0.0000E+000  
  279.00  0.0000E+000  
  279.50  0.0000E+000  
  280.00  0.0000E+000  
  280.50  0.0000E+000  
  281.00  0.0000E+000  
  281.50  0.0000E+000  
  282.00  0.0000E+000  
  282.50  0.0000E+000  
  283.00  0.0000E+000  
  283.50  0.0000E+000  
  284.00  0.0000E+000  
  284.50  0.0000E+000  
  285.00  0.0000E+000  
  285.50  0.0000E+000  
  286.00  0.0000E+000  
  286.50  0.0000E+000  
  287.00  0.0000E+000  
  287.50  0.0000E+000  
  288.00  0.0000E+000  
  288.50  0.0000E+000  
  289.00  0.0000E+000  
  289.50  0.0000E+000  
  290.00  0.0000E+000  
  290.50  0.0000E+000  
  291.00  0.0000E+000  
  291.50  0.0000E+000  
  292.00  0.0000E+000  
  292.50  0.0000E+000  
  293.00  0.0000E+000  
  293.50  0.0000E+000  
  294.00  0.0000E+000  
  294.50  0.0000E+000  
  295.00  0.0000E+000  
  295.50  0.0000E+000  
  296.00  0.0000E+000  
  296.50  0.0000E+000  
  297.00  0.0000E+000  
  297.50  0.0000E+000  
  298.00  0.0000E+000  
  298.50  0.0000E+000  
  299.00  0.0000E+000  
  299.50  0.0000E+000  
  300.00  1.3516E-004  
  300.50  3.5561E-004  
  301.00  3.3806E-004  
  301.50  5.8256E-004  
  302.00  9.9190E-004  
  302.50  1.1284E-003  
  303.00  9.8116E-004  
  303.50  6.8228E-004  
  304.00  7.5163E-004  
  304.50  9.8164E-004  
  305.00  8.1423E-004  
  305.50  5.7066E-004  
  306.00  2.6202E-004  
  306.50  8.6022E-005  
  307.00  2.7855E-004  
  307.50  5.0173E-004  
  308.00  7.2519E-004  
  308.50  1.1026E-003  
  309.00  1.5596E-003  
  309.50  1.8019E-003  
  310.00  1.4264E-003  
  310.50  9.4189E-004  
  311.00  1.9264E-004  
  311.50  3.9479E-004  
  312.00  6.8504E-004  
  312.50  8.2235E-004  
  313.00  1.1063E-003  
  313.50  8.4589E-004  
  314.00  8.0148E-004  
  314.50  8.6565E-004  
  315.00  9.5455E-004  
  315.50  9.4678E-004  
  316.00  8.9998E-004  
  316.50  8.7340E-004  
  317.00  5.1236E-004  
  317.50  3.1311E-004  
  318.00  3.0209E-004  
  318.50  6.2081E-004  
  319.00  1.0480E-003  
  319.50  9.1299E-004  
  320.00  5.7914E-004  
  320.50  0.0000E+000  
  321.00  0.0000E+000  
  321.50  0.0000E+000  
  322.00  0.0000E+000  
  322.50  1.9132E-004  
  323.00  3.6741E-004  
  323.50  7.6631E-004  
  324.00  1.0246E-003  
  324.50  1.0703E-003  
  325.00  1.1500E-003  
  325.50  7.6301E-004  
  326.00  3.8133E-004  
  326.50  1.4530E-004  
  327.00  1.5448E-004  
  327.50  6.1225E-004  
  328.00  1.0794E-003  
  328.50  1.0916E-003  
  329.00  1.2107E-003  
  329.50  1.1261E-003  
  330.00  8.1270E-004  
  330.50  5.0709E-004  
  331.00  8.6792E-005  
  331.50  0.0000E+000  
  332.00  3.7538E-006  
  332.50  1.6592E-004  
  333.00  2.1744E-005  
  333.50  0.0000E+000  
  334.00  0.0000E+000  
  334.50  5.9247E-006  
  335.00  4.0782E-004  
  335.50  8.0892E-004  
  336.00  7.6352E-004  
  336.50  5.1467E-004  
  337.00  3.2925E-004  
  337.50  4.1916E-004  
  338.00  6.6192E-004  
  338.50  4.8587E-004  
  339.00  4.3181E-004  
  339.50  4.3223E-004  
  340.00  6.2024E-004  
  340.50  9.2544E-004  
  341.00  8.0903E-004  
  341.50  3.7463E-004  
  342.00  7.5480E-006  
  342.50  0.0000E+000  
  343.00  0.0000E+000  
  343.50  0.0000E+000  
  344.00  6.6178E-005  
  344.50  4.0873E-004  
  345.00  7.4221E-004  
  345.50  7.8547E-004  
  346.00  4.3880E-004  
  346.50  2.3602E-004  
  347.00  3.3206E-004  
  347.50  4.8567E-004  
  348.00  5.6805E-004  
  348.50  4.1518E-004  
  349.00  5.6817E-004  
  349.50  8.2362E-004  
  350.00  7.7437E-004  
  350.50  4.9728E-004  
  351.00  1.8811E-004  
  351.50  6.8889E-005  
  352.00  3.1930E-004  
  352.50  4.9867E-004  
  353.00  8.5200E-004  
  353.50  9.3508E-004  
  354.00  1.0520E-003  
  354.50  9.3181E-004  
  355.00  7.2611E-004  
  355.50  6.9330E-004  
  356.00  6.4937E-004  
  356.50  9.9448E-004  
  357.00  1.0651E-003  
  357.50  7.8183E-004  
  358.00  4.5760E-004  
  358.50  0.0000E+000  
  359.00  3.9638E-005  
  359.50  1.4798E-005  
  360.00  2.4798E-004  
  360.50  3.8460E-004  
  361.00  6.7138E-004  
  361.50  9.4585E-004  
  362.00  7.9337E-004  
  362.50  5.4104E-004  
  363.00  1.8853E-004  
  363.50  2.4278E-005  
  364.00  1.2317E-004  
  364.50  1.0096E-004  
  365.00  1.7601E-005  
  365.50  0.0000E+000  
  366.00  0.0000E+000  
  366.50  0.0000E+000  
  367.00  4.8820E-004  
  367.50  1.0476E-003  
  368.00  1.1744E-003  
  368.50  1.0513E-003  
  369.00  6.1144E-004  
  369.50  3.6290E-004  
  370.00  2.5800E-004  
  370.50  2.9565E-004  
  371.00  4.5357E-004  
  371.50  3.6334E-004  
  372.00  3.7779E-004  
  372.50  3.6506E-004  
  373.00  3.2066E-004  
  373.50  1.1523E-004  
  374.00  0.0000E+000  
  374.50  0.0000E+000  
  375.00  4.1744E-005  
  375.50  6.2527E-004  
  376.00  1.0989E-003  
  376.50  1.1117E-003  
  377.00  8.1447E-004  
  377.50  3.3987E-004  
  378.00  4.6000E-004  
  378.50  8.6342E-004  
  379.00  1.1752E-003  
  379.50  1.1722E-003  
  380.00  8.2050E-004  
  380.50  4.8733E-004  
  381.00  4.4367E-004  
  381.50  4.4328E-004  
  382.00  7.5660E-004  
  382.50  9.1802E-004  
  383.00  1.0950E-003  
  383.50  1.1278E-003  
  384.00  1.0689E-003  
  384.50  8.8261E-004  
  385.00  7.6409E-004  
  385.50  7.0095E-004  
  386.00  6.1781E-004  
  386.50  4.3150E-004  
  387.00  2.0829E-004  
  387.50  1.5526E-004  
  388.00  3.2214E-004  
  388.50  4.0355E-004  
  389.00  3.3946E-004  
  389.50  4.8318E-004  
  390.00  8.7775E-004  
  390.50  1.3542E-003  
  391.00  1.4993E-003  
  391.50  1.2549E-003  
  392.00  1.0351E-003  
  392.50  9.2606E-004  
  393.00  9.0790E-004  
  393.50  7.2770E-004  
  394.00  6.3189E-004  
  394.50  5.1355E-004  
  395.00  4.4202E-004  
  395.50  4.1495E-004  
  396.00  3.2146E-004  
  396.50  4.9027E-004  
  397.00  7.3844E-004  
  397.50  7.0473E-004  
  398.00  3.9774E-004  
  398.50  1.0423E-004  
  399.00  4.8290E-005  
  399.50  1.2422E-004  
  400.00  5.8104E-004  
  400.50  7.5087E-004  
  401.00  8.5956E-004  
  401.50  8.9256E-004  
  402.00  6.1116E-004  
  402.50  6.1758E-004  
  403.00  7.2266E-004  
  403.50  9.7202E-004  
  404.00  1.0661E-003  
  404.50  1.0955E-003  
  405.00  1.2188E-003  
  405.50  1.4049E-003  
  406.00  1.5220E-003  
  406.50  1.4942E-003  
  407.00  1.4649E-003  
  407.50  1.7057E-003  
  408.00  1.8975E-003  
  408.50  2.0003E-003  
  409.00  1.8558E-003  
  409.50  1.7492E-003  
  410.00  1.9385E-003  
  410.50  2.0391E-003  
  411.00  2.3150E-003  
  411.50  2.1871E-003  
  412.00  1.9974E-003  
  412.50  1.9366E-003  
  413.00  1.9577E-003  
  413.50  2.3356E-003  
  414.00  2.7353E-003  
  414.50  2.9225E-003  
  415.00  3.1726E-003  
  415.50  3.2725E-003  
  416.00  3.4395E-003  
  416.50  3.5472E-003  
  417.00  3.4808E-003  
  417.50  3.5708E-003  
  418.00  3.9192E-003  
  418.50  4.4018E-003  
  419.00  4.9001E-003  
  419.50  5.4218E-003  
  420.00  6.0407E-003  
  420.50  6.6645E-003  
  421.00  6.9699E-003  
  421.50  7.0080E-003  
  422.00  7.2793E-003  
  422.50  7.6811E-003  
  423.00  8.2613E-003  
  423.50  8.8060E-003  
  424.00  9.0637E-003  
  424.50  9.4782E-003  
  425.00  9.9539E-003  
  425.50  1.0830E-002  
  426.00  1.1814E-002  
  426.50  1.2597E-002  
  427.00  1.3313E-002  
  427.50  1.3737E-002  
  428.00  1.4393E-002  
  428.50  1.5261E-002  
  429.00  1.5967E-002  
  429.50  1.6589E-002  
  430.00  1.7610E-002  
  430.50  1.8883E-002  
  431.00  2.0460E-002  
  431.50  2.1756E-002  
  432.00  2.2388E-002  
  432.50  2.3196E-002  
  433.00  2.4158E-002  
  433.50  2.5509E-002  
  434.00  2.6651E-002  
  434.50  2.7438E-002  
  435.00  2.8231E-002  
  435.50  2.9186E-002  
  436.00  3.0639E-002  
  436.50  3.2054E-002  
  437.00  3.3386E-002  
  437.50  3.4926E-002  
  438.00  3.6451E-002  
  438.50  3.8295E-002  
  439.00  4.0079E-002  
  439.50  4.1750E-002  
  440.00  4.3722E-002  
  440.50  4.5640E-002  
  441.00  4.7833E-002  
  441.50  5.0087E-002  
  442.00  5.1982E-002  
  442.50  5.4104E-002  
  443.00  5.5919E-002  
  443.50  5.8113E-002  
  444.00  6.0836E-002  
  444.50  6.3538E-002  
  445.00  6.5809E-002  
  445.50  6.8100E-002  
  446.00  6.9830E-002  
  446.50  7.1640E-002  
  447.00  7.3539E-002  
  447.50  7.5183E-002  
  448.00  7.7259E-002  
  448.50  7.9158E-002  
  449.00  8.0547E-002  
  449.50  8.1442E-002  
  450.00  8.2087E-002  
  450.50  8.2819E-002  
  451.00  8.3521E-002  
  451.50  8.3438E-002  
  452.00  8.2821E-002  
  452.50  8.1950E-002  
  453.00  8.0976E-002  
  453.50  8.0340E-002  
  454.00  7.9062E-002  
  454.50  7.7685E-002  
  455.00  7.6327E-002  
  455.50  7.5160E-002  
  456.00  7.4021E-002  
  456.50  7.2720E-002  
  457.00  7.0963E-002  
  457.50  6.9265E-002  
  458.00  6.7626E-002  
  458.50  6.6584E-002  
  459.00  6.5560E-002  
  459.50  6.4139E-002  
  460.00  6.2377E-002  
  460.50  6.0440E-002  
  461.00  5.8929E-002  
  461.50  5.7419E-002  
  462.00  5.5966E-002  
  462.50  5.4089E-002  
  463.00  5.2998E-002  
  463.50  5.2149E-002  
  464.00  5.1736E-002  
  464.50  5.1218E-002  
  465.00  5.0668E-002  
  465.50  4.9811E-002  
  466.00  4.8910E-002  
  466.50  4.7793E-002  
  467.00  4.6510E-002  
  467.50  4.5615E-002  
  468.00  4.4989E-002  
  468.50  4.4381E-002  
  469.00  4.4032E-002  
  469.50  4.3380E-002  
  470.00  4.2397E-002  
  470.50  4.1685E-002  
  471.00  4.0570E-002  
  471.50  3.9689E-002  
  472.00  3.8851E-002  
  472.50  3.8225E-002  
  473.00  3.7820E-002  
  473.50  3.7431E-002  
  474.00  3.6865E-002  
  474.50  3.6213E-002  
  475.00  3.5633E-002  
  475.50  3.5196E-002  
  476.00  3.4645E-002  
  476.50  3.4329E-002  
  477.00  3.3746E-002  
  477.50  3.3558E-002  
  478.00  3.3412E-002  
  478.50  3.3214E-002  
  479.00  3.2930E-002  
  479.50  3.2231E-002  
  480.00  3.1833E-002  
  480.50  3.1501E-002  
  481.00  3.1511E-002  
  481.50  3.1607E-002  
  482.00  3.1610E-002  
  482.50  3.1513E-002  
  483.00  3.1360E-002  
  483.50  3.1192E-002  
  484.00  3.1015E-002  
  484.50  3.0913E-002  
  485.00  3.0949E-002  
  485.50  3.1216E-002  
  486.00  3.1603E-002  
  486.50  3.1898E-002  
  487.00  3.1995E-002  
  487.50  3.2144E-002  
  488.00  3.2242E-002  
  488.50  3.2218E-002  
  489.00  3.2398E-002  
  489.50  3.2372E-002  
  490.00  3.2411E-002  
  490.50  3.2774E-002  
  491.00  3.3086E-002  
  491.50  3.3506E-002  
  492.00  3.3772E-002  
  492.50  3.3860E-002  
  493.00  3.4071E-002  
  493.50  3.4499E-002  
  494.00  3.4745E-002  
  494.50  3.5220E-002  
  495.00  3.5518E-002  
  495.50  3.5894E-002  
  496.00  3.6427E-002  
  496.50  3.6856E-002  
  497.00  3.7315E-002  
  497.50  3.7770E-002  
  498.00  3.8047E-002  
  498.50  3.8498E-002  
  499.00  3.8949E-002  
  499.50  3.9462E-002  
  500.00  3.9975E-002  
  500.50  4.0347E-002  
  501.00  4.0737E-002  
  501.50  4.1150E-002  
  502.00  4.1804E-002  
  502.50  4.2461E-002  
  503.00  4.3061E-002  
  503.50  4.3485E-002  
  504.00  4.3754E-002  
  504.50  4.4121E-002  
  505.00  4.4637E-002  
  505.50  4.5206E-002  
  506.00  4.5679E-002  
  506.50  4.6060E-002  
  507.00  4.6259E-002  
  507.50  4.6488E-002  
  508.00  4.6823E-002  
  508.50  4.7167E-002  
  509.00  4.7484E-002  
  509.50  4.7967E-002  
  510.00  4.8457E-002  
  510.50  4.9127E-002  
  511.00  4.9661E-002  
  511.50  4.9985E-002  
  512.00  5.0477E-002  
  512.50  5.0699E-002  
  513.00  5.1054E-002  
  513.50  5.1294E-002  
  514.00  5.1500E-002  
  514.50  5.1763E-002  
  515.00  5.2052E-002  
  515.50  5.2303E-002  
  516.00  5.2603E-002  
  516.50  5.2856E-002  
  517.00  5.3326E-002  
  517.50  5.3814E-002  
  518.00  5.4318E-002  
  518.50  5.4778E-002  
  519.00  5.5069E-002  
  519.50  5.5594E-002  
  520.00  5.5929E-002  
  520.50  5.6082E-002  
  521.00  5.6303E-002  
  521.50  5.6437E-002  
  522.00  5.6619E-002  
  522.50  5.6672E-002  
  523.00  5.6826E-002  
  523.50  5.7256E-002  
  524.00  5.7671E-002  
  524.50  5.8005E-002  
  525.00  5.7971E-002  
  525.50  5.8222E-002  
  526.00  5.8751E-002  
  526.50  5.9247E-002  
  527.00  5.9595E-002  
  527.50  5.9771E-002  
  528.00  6.0025E-002  
  528.50  6.0506E-002  
  529.00  6.0766E-002  
  529.50  6.0743E-002  
  530.00  6.0790E-002  
  530.50  6.1110E-002  
  531.00  6.1696E-002  
  531.50  6.2040E-002  
  532.00  6.2296E-002  
  532.50  6.2317E-002  
  533.00  6.2272E-002  
  533.50  6.1973E-002  
  534.00  6.1914E-002  
  534.50  6.2217E-002  
  535.00  6.2663E-002  
  535.50  6.3121E-002  
  536.00  6.3334E-002  
  536.50  6.3697E-002  
  537.00  6.4208E-002  
  537.50  6.4625E-002  
  538.00  6.4886E-002  
  538.50  6.5115E-002  
  539.00  6.5283E-002  
  539.50  6.5564E-002  
  540.00  6.5775E-002  
  540.50  6.5843E-002  
  541.00  6.5914E-002  
  541.50  6.6082E-002  
  542.00  6.6488E-002  
  542.50  6.6919E-002  
  543.00  6.7301E-002  
  543.50  6.7351E-002  
  544.00  6.7381E-002  
  544.50  6.7224E-002  
  545.00  6.7365E-002  
  545.50  6.7631E-002  
  546.00  6.7998E-002  
  546.50  6.8387E-002  
  547.00  6.8569E-002  
  547.50  6.8684E-002  
  548.00  6.8655E-002  
  548.50  6.8602E-002  
  549.00  6.9011E-002  
  549.50  6.9455E-002  
  550.00  6.9838E-002  
  550.50  7.0058E-002  
  551.00  7.0198E-002  
  551.50  7.0327E-002  
  552.00  7.0403E-002  
  552.50  7.0715E-002  
  553.00  7.1179E-002  
  553.50  7.1524E-002  
  554.00  7.1718E-002  
  554.50  7.1660E-002  
  555.00  7.1572E-002  
  555.50  7.1793E-002  
  556.00  7.2013E-002  
  556.50  7.2274E-002  
  557.00  7.2354E-002  
  557.50  7.2544E-002  
  558.00  7.3062E-002  
  558.50  7.3583E-002  
  559.00  7.3900E-002  
  559.50  7.3754E-002  
  560.00  7.3522E-002  
  560.50  7.3440E-002  
  561.00  7.3588E-002  
  561.50  7.4077E-002  
  562.00  7.4520E-002  
  562.50  7.5027E-002  
  563.00  7.4962E-002  
  563.50  7.4955E-002  
  564.00  7.4864E-002  
  564.50  7.4975E-002  
  565.00  7.5232E-002  
  565.50  7.5373E-002  
  566.00  7.5517E-002  
  566.50  7.5600E-002  
  567.00  7.5723E-002  
  567.50  7.5763E-002  
  568.00  7.5779E-002  
  568.50  7.5999E-002  
  569.00  7.6215E-002  
  569.50  7.6485E-002  
  570.00  7.6526E-002  
  570.50  7.6538E-002  
  571.00  7.6499E-002  
  571.50  7.6442E-002  
  572.00  7.6561E-002  
  572.50  7.6793E-002  
  573.00  7.7151E-002  
  573.50  7.7506E-002  
  574.00  7.7655E-002  
  574.50  7.7681E-002  
  575.00  7.7641E-002  
  575.50  7.7811E-002  
  576.00  7.7951E-002  
  576.50  7.7673E-002  
  577.00  7.7735E-002  
  577.50  7.8035E-002  
  578.00  7.8456E-002  
  578.50  7.8476E-002  
  579.00  7.8063E-002  
  579.50  7.7803E-002  
  580.00  7.7800E-002  
  580.50  7.7902E-002  
  581.00  7.8203E-002  
  581.50  7.8364E-002  
  582.00  7.8840E-002  
  582.50  7.9036E-002  
  583.00  7.8922E-002  
  583.50  7.8664E-002  
  584.00  7.8656E-002  
  584.50  7.8916E-002  
  585.00  7.9327E-002  
  585.50  7.9654E-002  
  586.00  7.9485E-002  
  586.50  7.9100E-002  
  587.00  7.8677E-002  
  587.50  7.8717E-002  
  588.00  7.8915E-002  
  588.50  7.8968E-002  
  589.00  7.9157E-002  
  589.50  7.9374E-002  
  590.00  7.9335E-002  
  590.50  7.9208E-002  
  591.00  7.9131E-002  
  591.50  7.9329E-002  
  592.00  7.9514E-002  
  592.50  7.9301E-002  
  593.00  7.9221E-002  
  593.50  7.9020E-002  
  594.00  7.9077E-002  
  594.50  7.8907E-002  
  595.00  7.8662E-002  
  595.50  7.8436E-002  
  596.00  7.8174E-002  
  596.50  7.8133E-002  
  597.00  7.8110E-002  
  597.50  7.8273E-002  
  598.00  7.8243E-002  
  598.50  7.8069E-002  
  599.00  7.7778E-002  
  599.50  7.7615E-002  
  600.00  7.7528E-002  
  600.50  7.7245E-002  
  601.00  7.7030E-002  
  601.50  7.6750E-002  
  602.00  7.6964E-002  
  602.50  7.6705E-002  
  603.00  7.6388E-002  
  603.50  7.5756E-002  
  604.00  7.5744E-002  
  604.50  7.5920E-002  
  605.00  7.5916E-002  
  605.50  7.5684E-002  
  606.00  7.5292E-002  
  606.50  7.5011E-002  
  607.00  7.4519E-002  
  607.50  7.3986E-002  
  608.00  7.3746E-002  
  608.50  7.3608E-002  
  609.00  7.3898E-002  
  609.50  7.3989E-002  
  610.00  7.4057E-002  
  610.50  7.3644E-002  
  611.00  7.3014E-002  
  611.50  7.2452E-002  
  612.00  7.1912E-002  
  612.50  7.1582E-002  
  613.00  7.1070E-002  
  613.50  7.0735E-002  
  614.00  7.0448E-002  
  614.50  7.0347E-002  
  615.00  7.0094E-002  
  615.50  6.9625E-002  
  616.00  6.9221E-002  
  616.50  6.8755E-002  
  617.00  6.8155E-002  
  617.50  6.7431E-002  
  618.00  6.6962E-002  
  618.50  6.6725E-002  
  619.00  6.6664E-002  
  619.50  6.6205E-002  
  620.00  6.5497E-002  
  620.50  6.4916E-002  
  621.00  6.4259E-002  
  621.50  6.3844E-002  
  622.00  6.3427E-002  
  622.50  6.3290E-002  
  623.00  6.3358E-002  
  623.50  6.3041E-002  
  624.00  6.2352E-002  
  624.50  6.1744E-002  
  625.00  6.1136E-002  
  625.50  6.0744E-002  
  626.00  6.0334E-002  
  626.50  6.0014E-002  
  627.00  5.9663E-002  
  627.50  5.9184E-002  
  628.00  5.8484E-002  
  628.50  5.7960E-002  
  629.00  5.7440E-002  
  629.50  5.6947E-002  
  630.00  5.6564E-002  
  630.50  5.6181E-002  
  631.00  5.5845E-002  
  631.50  5.5284E-002  
  632.00  5.4787E-002  
  632.50  5.4484E-002  
  633.00  5.4145E-002  
  633.50  5.3636E-002  
  634.00  5.2984E-002  
  634.50  5.2559E-002  
  635.00  5.2369E-002  
  635.50  5.2128E-002  
  636.00  5.1904E-002  
  636.50  5.1319E-002  
  637.00  5.0622E-002  
  637.50  4.9973E-002  
  638.00  4.9487E-002  
  638.50  4.9231E-002  
  639.00  4.8604E-002  
  639.50  4.7975E-002  
  640.00  4.7266E-002  
  640.50  4.6778E-002  
  641.00  4.6550E-002  
  641.50  4.6239E-002  
  642.00  4.5843E-002  
  642.50  4.5170E-002  
  643.00  4.4831E-002  
  643.50  4.4587E-002  
  644.00  4.4287E-002  
  644.50  4.3651E-002  
  645.00  4.3096E-002  
  645.50  4.2577E-002  
  646.00  4.2203E-002  
  646.50  4.1814E-002  
  647.00  4.1624E-002  
  647.50  4.1488E-002  
  648.00  4.0979E-002  
  648.50  4.0140E-002  
  649.00  3.9466E-002  
  649.50  3.8955E-002  
  650.00  3.8428E-002  
  650.50  3.8001E-002  
  651.00  3.7471E-002  
  651.50  3.7090E-002  
  652.00  3.6496E-002  
  652.50  3.5849E-002  
  653.00  3.5521E-002  
  653.50  3.5149E-002  
  654.00  3.4765E-002  
  654.50  3.4328E-002  
  655.00  3.3878E-002  
  655.50  3.3587E-002  
  656.00  3.2963E-002  
  656.50  3.2440E-002  
  657.00  3.2127E-002  
  657.50  3.1982E-002  
  658.00  3.1613E-002  
  658.50  3.1050E-002  
  659.00  3.0373E-002  
  659.50  2.9853E-002  
  660.00  2.9911E-002  
  660.50  3.0120E-002  
  661.00  2.9815E-002  
  661.50  2.9026E-002  
  662.00  2.8084E-002  
  662.50  2.7855E-002  
  663.00  2.7562E-002  
  663.50  2.7430E-002  
  664.00  2.6938E-002  
  664.50  2.6408E-002  
  665.00  2.6063E-002  
  665.50  2.6024E-002  
  666.00  2.5898E-002  
  666.50  2.5386E-002  
  667.00  2.4606E-002  
  667.50  2.4151E-002  
  668.00  2.3761E-002  
  668.50  2.3338E-002  
  669.00  2.3087E-002  
  669.50  2.2773E-002  
  670.00  2.2816E-002  
  670.50  2.2532E-002  
  671.00  2.2512E-002  
  671.50  2.2269E-002  
  672.00  2.2034E-002  
  672.50  2.1531E-002  
  673.00  2.1169E-002  
  673.50  2.0579E-002  
  674.00  2.0189E-002  
  674.50  1.9907E-002  
  675.00  1.9855E-002  
  675.50  1.9681E-002  
  676.00  1.9168E-002  
  676.50  1.8790E-002  
  677.00  1.8173E-002  
  677.50  1.7858E-002  
  678.00  1.7488E-002  
  678.50  1.7503E-002  
  679.00  1.7511E-002  
  679.50  1.7227E-002  
  680.00  1.7073E-002  
  680.50  1.6801E-002  
  681.00  1.6649E-002  
  681.50  1.6367E-002  
  682.00  1.5921E-002  
  682.50  1.5640E-002  
  683.00  1.5331E-002  
  683.50  1.5332E-002  
  684.00  1.5404E-002  
  684.50  1.4970E-002  
  685.00  1.4565E-002  
  685.50  1.4314E-002  
  686.00  1.4802E-002  
  686.50  1.5155E-002  
  687.00  1.5244E-002  
  687.50  1.4731E-002  
  688.00  1.3865E-002  
  688.50  1.3077E-002  
  689.00  1.2843E-002  
  689.50  1.2787E-002  
  690.00  1.2582E-002  
  690.50  1.2208E-002  
  691.00  1.2172E-002  
  691.50  1.2475E-002  
  692.00  1.2370E-002  
  692.50  1.2075E-002  
  693.00  1.1521E-002  
  693.50  1.1462E-002  
  694.00  1.1537E-002  
  694.50  1.1675E-002  
  695.00  1.1607E-002  
  695.50  1.1087E-002  
  696.00  9.9380E-003  
  696.50  9.3270E-003  
  697.00  9.7162E-003  
  697.50  1.0501E-002  
  698.00  1.0341E-002  
  698.50  9.5674E-003  
  699.00  9.0802E-003  
  699.50  9.1814E-003  
  700.00  9.1490E-003  
  700.50  9.4345E-003  
  701.00  9.6492E-003  
  701.50  9.7097E-003  
  702.00  9.4564E-003  
  702.50  9.2395E-003  
  703.00  9.4816E-003  
  703.50  9.2102E-003  
  704.00  8.6036E-003  
  704.50  8.0401E-003  
  705.00  8.0153E-003  
  705.50  7.7707E-003  
  706.00  7.9408E-003  
  706.50  8.0778E-003  
  707.00  8.5599E-003  
  707.50  8.2131E-003  
  708.00  7.1083E-003  
  708.50  6.0844E-003  
  709.00  5.8165E-003  
  709.50  6.5429E-003  
  710.00  7.2164E-003  
  710.50  7.4501E-003  
  711.00  7.5831E-003  
  711.50  7.5438E-003  
  712.00  7.2327E-003  
  712.50  6.9480E-003  
  713.00  6.6954E-003  
  713.50  6.3604E-003  
  714.00  6.1760E-003  
  714.50  6.1635E-003  
  715.00  6.3221E-003  
  715.50  6.6341E-003  
  716.00  6.7317E-003  
  716.50  6.5302E-003  
  717.00  5.8223E-003  
  717.50  5.5116E-003  
  718.00  5.2189E-003  
  718.50  5.2499E-003  
  719.00  5.5155E-003  
  719.50  5.7269E-003  
  720.00  5.5581E-003  
  720.50  5.7008E-003  
  721.00  6.0746E-003  
  721.50  6.4368E-003  
  722.00  5.8813E-003  
  722.50  5.1443E-003  
  723.00  4.4311E-003  
  723.50  4.1096E-003  
  724.00  4.1068E-003  
  724.50  4.2732E-003  
  725.00  4.2776E-003  
  725.50  4.4741E-003  
  726.00  4.5816E-003  
  726.50  4.2476E-003  
  727.00  4.0254E-003  
  727.50  4.2852E-003  
  728.00  4.9021E-003  
  728.50  4.8095E-003  
  729.00  4.2260E-003  
  729.50  3.9564E-003  
  730.00  4.3580E-003  
  730.50  4.7818E-003  
  731.00  5.0371E-003  
  731.50  4.9645E-003  
  732.00  4.5418E-003  
  732.50  3.8161E-003  
  733.00  3.5126E-003  
  733.50  3.8462E-003  
  734.00  4.5441E-003  
  734.50  4.5719E-003  
  735.00  4.4644E-003  
  735.50  4.2092E-003  
  736.00  3.8568E-003  
  736.50  3.5435E-003  
  737.00  3.4486E-003  
  737.50  3.4973E-003  
  738.00  3.0861E-003  
  738.50  2.8116E-003  
  739.00  2.7775E-003  
  739.50  2.7906E-003  
  740.00  2.4758E-003  
  740.50  2.2284E-003  
  741.00  2.4910E-003  
  741.50  3.3944E-003  
  742.00  4.1622E-003  
  742.50  4.0050E-003  
  743.00  3.7030E-003  
  743.50  3.0320E-003  
  744.00  2.2257E-003  
  744.50  1.5394E-003  
  745.00  1.3208E-003  
  745.50  1.5597E-003  
  746.00  1.3602E-003  
  746.50  1.7641E-003  
  747.00  1.9341E-003  
  747.50  2.3685E-003  
  748.00  2.4373E-003  
  748.50  2.5775E-003  
  749.00  2.2051E-003  
  749.50  2.1007E-003  
  750.00  2.1450E-003  
  750.50  2.4842E-003  
  751.00  2.2353E-003  
  751.50  1.7664E-003  
  752.00  1.6896E-003  
  752.50  1.7320E-003  
  753.00  1.7080E-003  
  753.50  1.6528E-003  
  754.00  1.8907E-003  
  754.50  1.9556E-003  
  755.00  1.1700E-003  
  755.50  6.0478E-004  
  756.00  6.5377E-004  
  756.50  2.0379E-003  
  757.00  2.4569E-003  
  757.50  2.5349E-003  
  758.00  2.3249E-003  
  758.50  2.9009E-003  
  759.00  2.9070E-003  
  759.50  2.8270E-003  
  760.00  2.2689E-003  
  760.50  2.1416E-003  
  761.00  2.1222E-003  
  761.50  2.1666E-003  
  762.00  2.3206E-003  
  762.50  2.1649E-003  
  763.00  1.7034E-003  
  763.50  9.4059E-004  
  764.00  1.0118E-003  
  764.50  1.0845E-003  
  765.00  1.7306E-003  
  765.50  1.8403E-003  
  766.00  2.4041E-003  
  766.50  1.6490E-003  
  767.00  2.0648E-003  
  767.50  2.1435E-003  
  768.00  1.9091E-003  
  768.50  1.0387E-003  
  769.00  4.6897E-004  
  769.50  6.1826E-004  
  770.00  2.2043E-004  
  770.50  8.1018E-005  
  771.00  6.6253E-004  
  771.50  1.7331E-003  
  772.00  2.2858E-003  
  772.50  2.1716E-003  
  773.00  2.6608E-003  
  773.50  3.3687E-003  
  774.00  2.5271E-003  
  774.50  1.1475E-003  
  775.00  5.4955E-004  
  775.50  1.6619E-003  
  776.00  3.3226E-003  
  776.50  3.6107E-003  
  777.00  2.1588E-003  
  777.50  1.7403E-003  
  778.00  2.0862E-003  
  778.50  2.1842E-003  
  779.00  1.0361E-003  
  779.50  1.4203E-004  
  780.00  0.0000E+000  
  780.50  4.7914E-005  
  781.00  6.9020E-004  
  781.50  6.6875E-004  
  782.00  2.9829E-004  
  782.50  1.0677E-003  
  783.00  2.2898E-003  
  783.50  2.3254E-003  
  784.00  2.1912E-003  
  784.50  2.1440E-003  
  785.00  2.3682E-003  
  785.50  1.7416E-003  
  786.00  1.2471E-003  
  786.50  1.1543E-003  
  787.00  2.0675E-003  
  787.50  2.0553E-003  
  788.00  1.1163E-003  
  788.50  4.1206E-005  
  789.00  3.9586E-004  
  789.50  8.3785E-004  
  790.00  8.8860E-004  
  790.50  6.3801E-004  
  791.00  4.1950E-004  
  791.50  8.8353E-004  
  792.00  4.2488E-004  
  792.50  0.0000E+000  
  793.00  0.0000E+000  
  793.50  1.0354E-003  
  794.00  1.6140E-003  
  794.50  1.2633E-003  
  795.00  1.0491E-003  
  795.50  1.8409E-003  
  796.00  2.0640E-003  
  796.50  8.1154E-004  
  797.00  1.9232E-005  
  797.50  1.1559E-003  
  798.00  2.5508E-003  
  798.50  1.5820E-003  
  799.00  1.7862E-004  
  799.50  9.2369E-004  
  800.00  1.5664E-003  
  800.50  9.4963E-004  
  801.00  1.4449E-003  
  801.50  1.9744E-003  
  802.00  2.1424E-003  
  802.50  2.1392E-003  
  803.00  1.5834E-003  
  803.50  1.6439E-003  
  804.00  1.0268E-003  
  804.50  8.3023E-004  
  805.00  1.8598E-004  
  805.50  9.3559E-004  
  806.00  1.8223E-003  
  806.50  1.7839E-003  
  807.00  1.0915E-003  
  807.50  7.7430E-005  
  808.00  0.0000E+000  
  808.50  0.0000E+000  
  809.00  3.1940E-004  
  809.50  2.2959E-004  
  810.00  6.7678E-004  
  810.50  7.3358E-004  
  811.00  1.5798E-003  
  811.50  8.7684E-004  
  812.00  6.7112E-005  
  812.50  0.0000E+000  
  813.00  1.4822E-004  
  813.50  5.0443E-004  
  814.00  9.6527E-004  
  814.50  1.9262E-003  
  815.00  2.0789E-003  
  815.50  2.1292E-003  
  816.00  1.5456E-003  
  816.50  2.2916E-003  
  817.00  2.3142E-003  
  817.50  1.3432E-003  
  818.00  1.3828E-003  
  818.50  1.6659E-005  
  819.00  8.1282E-004  
  819.50  2.2951E-003  
  820.00  3.2405E-003  
  820.50  2.3701E-003  
  821.00  1.0168E-003  
  821.50  1.6591E-003  
  822.00  7.9435E-004  
  822.50  0.0000E+000  
  823.00  7.2226E-004  
  823.50  2.3907E-003  
  824.00  2.5436E-003  
  824.50  2.2950E-003  
  825.00  1.4914E-003  
  825.50  4.5608E-004  
  826.00  1.6338E-005  
  826.50  5.6064E-004  
  827.00  2.0496E-003  
  827.50  2.2289E-003  
  828.00  1.1906E-003  
  828.50  1.4161E-003  
  829.00  1.5873E-003  
  829.50  1.5733E-003  
  830.00  1.9118E-003  
  830.50  1.6634E-003  
  831.00  2.2172E-004  
  831.50  8.8980E-004  
  832.00  2.6106E-003  
  832.50  2.8754E-003  
  833.00  2.8690E-003  
  833.50  3.1242E-003  
  834.00  2.2298E-003  
  834.50  2.2686E-003  
  835.00  1.7755E-003  
  835.50  1.3912E-003  
  836.00  1.6408E-004  
  836.50  0.0000E+000  
  837.00  0.0000E+000  
  837.50  0.0000E+000  
  838.00  5.8667E-004  
  838.50  8.2367E-004  
  839.00  0.0000E+000  
  839.50  0.0000E+000  
  840.00  1.9948E-003  
  840.50  4.1772E-003  
  841.00  3.5325E-003  
  841.50  1.9462E-003  
  842.00  1.6054E-003  
  842.50  2.6738E-003  
  843.00  1.8659E-003  
  843.50  1.8626E-003  
  844.00  1.7087E-003  
  844.50  1.7792E-003  
  845.00  2.8602E-003  
  845.50  3.5787E-003  
  846.00  1.4521E-003  
  846.50  3.7000E-006  
  847.00  0.0000E+000  
  847.50  4.0714E-004  
  848.00  5.3091E-004  
  848.50  5.9015E-005  
  849.00  0.0000E+000  
  849.50  1.5201E-004  
  850.00  2.6333E-003  
  850.50  2.6372E-003  
  851.00  0.0000E+000  
  851.50  0.0000E+000  
  852.00  9.3003E-004  
  852.50  1.4947E-003  
  853.00  2.4600E-003  
  853.50  2.6507E-003  
  854.00  3.4681E-003  
  854.50  3.9904E-003  
  855.00  2.0950E-003  
  855.50  1.1522E-003  
  856.00  9.0577E-004  
  856.50  2.5214E-004  
  857.00  0.0000E+000  
  857.50  9.0174E-004  
  858.00  1.8361E-003  
  858.50  2.6067E-003  
  859.00  2.2117E-004  
  859.50  0.0000E+000  
  860.00  0.0000E+000  
  860.50  0.0000E+000  
  861.00  1.1203E-003  
  861.50  1.8217E-003  
  862.00  8.7000E-005  
  862.50  0.0000E+000  
  863.00  0.0000E+000  
  863.50  3.3930E-004  
  864.00  5.2718E-004  
  864.50  1.1030E-003  
  865.00  1.1746E-004  
  865.50  1.1120E-003  
  866.00  1.0458E-003  
  866.50  1.7797E-003  
  867.00  1.9826E-003  
  867.50  1.4568E-003  
  868.00  0.0000E+000  
  868.50  7.7099E-004  
  869.00  3.5364E-003  
  869.50  3.6693E-003  
  870.00  1.5950E-003  
  870.50  0.0000E+000  
  871.00  1.3836E-003  
  871.50  2.4713E-003  
  872.00  8.4041E-004  
  872.50  1.1851E-003  
  873.00  3.6243E-003  
  873.50  6.7756E-003  
  874.00  6.7532E-003  
  874.50  6.8627E-003  
  875.00  5.6884E-003  
  875.50  3.5498E-003  
  876.00  2.3811E-003  
  876.50  5.8198E-003  
  877.00  7.0812E-003  
  877.50  4.2677E-003  
  878.00  3.2027E-003  
  878.50  3.6298E-003  
  879.00  5.0666E-004  
  879.50  0.0000E+000  
  880.00  0.0000E+000  
  880.50  0.0000E+000  
  881.00  0.0000E+000  
  881.50  2.5089E-004  
  882.00  2.4305E-004  
  882.50  4.5264E-003  
  883.00  6.4999E-003  
  883.50  6.6033E-003  
  884.00  3.7064E-003  
  884.50  5.8471E-003  
  885.00  3.7911E-003  
  885.50  1.2378E-004  
  886.00  0.0000E+000  
  886.50  6.8244E-005  
  887.00  4.0683E-003  
  887.50  6.0377E-003  
  888.00  6.4672E-003  
  888.50  7.1004E-003  
  889.00  8.4564E-003  
  889.50  5.6524E-003  
  890.00  6.4715E-003  
  890.50  5.5366E-003  
  891.00  2.4422E-003  
  891.50  8.2029E-004  
  892.00  2.5585E-003  
  892.50  1.1742E-004  
  893.00  2.6648E-003  
  893.50  7.5333E-003  
  894.00  7.4146E-003  
  894.50  5.8926E-003  
  895.00  7.7224E-004  
  895.50  6.8707E-005  
  896.00  2.7097E-003  
  896.50  2.6157E-003  
  897.00  4.5939E-003  
  897.50  6.6924E-003  
  898.00  5.1994E-003  
  898.50  4.7225E-003  
  899.00  5.2916E-003  
  899.50  5.8894E-005  
