
# From lspdd.org
# 
# Name: HM Philips - Industriel
# Indice spectral Valeur 
# MSI 0.45 
# SLI 0.59 
# IPI 0.62 
# Pourcentage de bleu 30.2 
# Caractéristique Valeur 
# CCT calculée (K) 3449 
# CCT du fabricant (K) 4000 
# Tension (V) 120 
# Puissance (W) 400.0 
# Efficacité lumineuse (Lum/W) 100.0 
#
# Image: '/app/system/img_2s/2644/medium_image2.JPG?1432222958'
# Image: '/app/system/img_1s/2644/medium_image1.JPG?1432222941'
# 

  273.00  0.0000E+000  
  273.50  0.0000E+000  
  274.00  0.0000E+000  
  274.50  0.0000E+000  
  275.00  0.0000E+000  
  275.50  0.0000E+000  
  276.00  0.0000E+000  
  276.50  0.0000E+000  
  277.00  0.0000E+000  
  277.50  0.0000E+000  
  278.00  0.0000E+000  
  278.50  0.0000E+000  
  279.00  0.0000E+000  
  279.50  0.0000E+000  
  280.00  0.0000E+000  
  280.50  0.0000E+000  
  281.00  0.0000E+000  
  281.50  0.0000E+000  
  282.00  0.0000E+000  
  282.50  0.0000E+000  
  283.00  0.0000E+000  
  283.50  0.0000E+000  
  284.00  0.0000E+000  
  284.50  0.0000E+000  
  285.00  0.0000E+000  
  285.50  0.0000E+000  
  286.00  0.0000E+000  
  286.50  0.0000E+000  
  287.00  0.0000E+000  
  287.50  0.0000E+000  
  288.00  0.0000E+000  
  288.50  0.0000E+000  
  289.00  0.0000E+000  
  289.50  0.0000E+000  
  290.00  0.0000E+000  
  290.50  0.0000E+000  
  291.00  0.0000E+000  
  291.50  0.0000E+000  
  292.00  0.0000E+000  
  292.50  0.0000E+000  
  293.00  0.0000E+000  
  293.50  0.0000E+000  
  294.00  0.0000E+000  
  294.50  0.0000E+000  
  295.00  0.0000E+000  
  295.50  0.0000E+000  
  296.00  0.0000E+000  
  296.50  0.0000E+000  
  297.00  0.0000E+000  
  297.50  0.0000E+000  
  298.00  0.0000E+000  
  298.50  0.0000E+000  
  299.00  0.0000E+000  
  299.50  0.0000E+000  
  300.00  0.0000E+000  
  300.50  0.0000E+000  
  301.00  0.0000E+000  
  301.50  0.0000E+000  
  302.00  0.0000E+000  
  302.50  0.0000E+000  
  303.00  0.0000E+000  
  303.50  0.0000E+000  
  304.00  0.0000E+000  
  304.50  0.0000E+000  
  305.00  0.0000E+000  
  305.50  0.0000E+000  
  306.00  0.0000E+000  
  306.50  0.0000E+000  
  307.00  0.0000E+000  
  307.50  2.4690E-004  
  308.00  1.5830E-004  
  308.50  3.1306E-005  
  309.00  7.7960E-006  
  309.50  5.3799E-006  
  310.00  5.1063E-006  
  310.50  0.0000E+000  
  311.00  0.0000E+000  
  311.50  0.0000E+000  
  312.00  2.0992E-005  
  312.50  2.1850E-004  
  313.00  4.8852E-004  
  313.50  4.0640E-004  
  314.00  2.2951E-004  
  314.50  7.8778E-005  
  315.00  0.0000E+000  
  315.50  0.0000E+000  
  316.00  0.0000E+000  
  316.50  0.0000E+000  
  317.00  0.0000E+000  
  317.50  0.0000E+000  
  318.00  0.0000E+000  
  318.50  0.0000E+000  
  319.00  1.7950E-004  
  319.50  1.5022E-004  
  320.00  8.3100E-005  
  320.50  0.0000E+000  
  321.00  0.0000E+000  
  321.50  0.0000E+000  
  322.00  0.0000E+000  
  322.50  0.0000E+000  
  323.00  0.0000E+000  
  323.50  0.0000E+000  
  324.00  0.0000E+000  
  324.50  5.9818E-005  
  325.00  7.7308E-005  
  325.50  0.0000E+000  
  326.00  0.0000E+000  
  326.50  0.0000E+000  
  327.00  0.0000E+000  
  327.50  5.1950E-005  
  328.00  3.3914E-004  
  328.50  3.2054E-004  
  329.00  4.7949E-004  
  329.50  5.2344E-004  
  330.00  2.9502E-004  
  330.50  6.5869E-005  
  331.00  0.0000E+000  
  331.50  0.0000E+000  
  332.00  0.0000E+000  
  332.50  0.0000E+000  
  333.00  0.0000E+000  
  333.50  0.0000E+000  
  334.00  0.0000E+000  
  334.50  1.2157E-004  
  335.00  2.9773E-004  
  335.50  5.0603E-004  
  336.00  6.4146E-004  
  336.50  5.2600E-004  
  337.00  3.8687E-004  
  337.50  1.1839E-004  
  338.00  1.6999E-005  
  338.50  0.0000E+000  
  339.00  0.0000E+000  
  339.50  0.0000E+000  
  340.00  9.4927E-005  
  340.50  2.6116E-004  
  341.00  1.2102E-004  
  341.50  2.9946E-005  
  342.00  0.0000E+000  
  342.50  0.0000E+000  
  343.00  0.0000E+000  
  343.50  0.0000E+000  
  344.00  0.0000E+000  
  344.50  0.0000E+000  
  345.00  0.0000E+000  
  345.50  0.0000E+000  
  346.00  0.0000E+000  
  346.50  0.0000E+000  
  347.00  0.0000E+000  
  347.50  5.3456E-005  
  348.00  8.5340E-005  
  348.50  6.7240E-005  
  349.00  1.7628E-004  
  349.50  1.4735E-004  
  350.00  0.0000E+000  
  350.50  0.0000E+000  
  351.00  0.0000E+000  
  351.50  0.0000E+000  
  352.00  0.0000E+000  
  352.50  0.0000E+000  
  353.00  0.0000E+000  
  353.50  0.0000E+000  
  354.00  0.0000E+000  
  354.50  0.0000E+000  
  355.00  0.0000E+000  
  355.50  1.3579E-004  
  356.00  3.6498E-004  
  356.50  7.0631E-004  
  357.00  6.1358E-004  
  357.50  1.5677E-004  
  358.00  8.1464E-006  
  358.50  0.0000E+000  
  359.00  0.0000E+000  
  359.50  0.0000E+000  
  360.00  7.4755E-005  
  360.50  1.7627E-004  
  361.00  3.2212E-004  
  361.50  3.2059E-004  
  362.00  5.3102E-005  
  362.50  0.0000E+000  
  363.00  0.0000E+000  
  363.50  0.0000E+000  
  364.00  0.0000E+000  
  364.50  0.0000E+000  
  365.00  0.0000E+000  
  365.50  0.0000E+000  
  366.00  0.0000E+000  
  366.50  0.0000E+000  
  367.00  0.0000E+000  
  367.50  0.0000E+000  
  368.00  0.0000E+000  
  368.50  1.3679E-004  
  369.00  3.8708E-005  
  369.50  0.0000E+000  
  370.00  0.0000E+000  
  370.50  0.0000E+000  
  371.00  0.0000E+000  
  371.50  0.0000E+000  
  372.00  0.0000E+000  
  372.50  0.0000E+000  
  373.00  0.0000E+000  
  373.50  0.0000E+000  
  374.00  0.0000E+000  
  374.50  0.0000E+000  
  375.00  0.0000E+000  
  375.50  0.0000E+000  
  376.00  0.0000E+000  
  376.50  0.0000E+000  
  377.00  7.0184E-005  
  377.50  0.0000E+000  
  378.00  0.0000E+000  
  378.50  0.0000E+000  
  379.00  0.0000E+000  
  379.50  4.5547E-005  
  380.00  5.1723E-005  
  380.50  1.6702E-005  
  381.00  1.1098E-004  
  381.50  1.5207E-004  
  382.00  2.8033E-004  
  382.50  1.3005E-004  
  383.00  0.0000E+000  
  383.50  4.2280E-005  
  384.00  1.3552E-004  
  384.50  2.3556E-004  
  385.00  4.1827E-004  
  385.50  5.4474E-004  
  386.00  5.1362E-004  
  386.50  5.1063E-004  
  387.00  3.3106E-004  
  387.50  4.0434E-005  
  388.00  0.0000E+000  
  388.50  0.0000E+000  
  389.00  0.0000E+000  
  389.50  2.1317E-005  
  390.00  4.3978E-004  
  390.50  1.1875E-003  
  391.00  1.3072E-003  
  391.50  1.0295E-003  
  392.00  7.7118E-004  
  392.50  8.4956E-004  
  393.00  1.1424E-003  
  393.50  1.1052E-003  
  394.00  7.7429E-004  
  394.50  1.2383E-004  
  395.00  0.0000E+000  
  395.50  0.0000E+000  
  396.00  3.1488E-005  
  396.50  3.0916E-004  
  397.00  5.3075E-004  
  397.50  4.8325E-004  
  398.00  7.2856E-004  
  398.50  1.0611E-003  
  399.00  1.5351E-003  
  399.50  2.0168E-003  
  400.00  2.6664E-003  
  400.50  3.4276E-003  
  401.00  4.5699E-003  
  401.50  6.1420E-003  
  402.00  6.9962E-003  
  402.50  7.5246E-003  
  403.00  7.5911E-003  
  403.50  7.8536E-003  
  404.00  8.6330E-003  
  404.50  9.0819E-003  
  405.00  8.9412E-003  
  405.50  7.9460E-003  
  406.00  6.7005E-003  
  406.50  6.0364E-003  
  407.00  6.5617E-003  
  407.50  7.9086E-003  
  408.00  8.9405E-003  
  408.50  9.0813E-003  
  409.00  7.9046E-003  
  409.50  6.5585E-003  
  410.00  5.6407E-003  
  410.50  5.3307E-003  
  411.00  5.3343E-003  
  411.50  5.3113E-003  
  412.00  5.4797E-003  
  412.50  6.3584E-003  
  413.00  7.9237E-003  
  413.50  9.6979E-003  
  414.00  1.1208E-002  
  414.50  1.2304E-002  
  415.00  1.3082E-002  
  415.50  1.3641E-002  
  416.00  1.3613E-002  
  416.50  1.2468E-002  
  417.00  1.0869E-002  
  417.50  9.1238E-003  
  418.00  7.6870E-003  
  418.50  6.7029E-003  
  419.00  6.2363E-003  
  419.50  6.5067E-003  
  420.00  7.5617E-003  
  420.50  9.1591E-003  
  421.00  1.0082E-002  
  421.50  1.0566E-002  
  422.00  1.1438E-002  
  422.50  1.2928E-002  
  423.00  1.5165E-002  
  423.50  1.7824E-002  
  424.00  1.8952E-002  
  424.50  1.8417E-002  
  425.00  1.6034E-002  
  425.50  1.2962E-002  
  426.00  1.0660E-002  
  426.50  9.2179E-003  
  427.00  8.9401E-003  
  427.50  8.9702E-003  
  428.00  9.1016E-003  
  428.50  9.2089E-003  
  429.00  9.0880E-003  
  429.50  9.5756E-003  
  430.00  1.1281E-002  
  430.50  1.4685E-002  
  431.00  1.8155E-002  
  431.50  2.0235E-002  
  432.00  1.9179E-002  
  432.50  1.6330E-002  
  433.00  1.3431E-002  
  433.50  1.2796E-002  
  434.00  1.5435E-002  
  434.50  2.2875E-002  
  435.00  3.2363E-002  
  435.50  3.8964E-002  
  436.00  3.8570E-002  
  436.50  3.2589E-002  
  437.00  2.4705E-002  
  437.50  1.8684E-002  
  438.00  1.5217E-002  
  438.50  1.3412E-002  
  439.00  1.2897E-002  
  439.50  1.3248E-002  
  440.00  1.3870E-002  
  440.50  1.3898E-002  
  441.00  1.3223E-002  
  441.50  1.2242E-002  
  442.00  1.1162E-002  
  442.50  1.0273E-002  
  443.00  9.8373E-003  
  443.50  9.5356E-003  
  444.00  9.3137E-003  
  444.50  8.7254E-003  
  445.00  7.8813E-003  
  445.50  7.6784E-003  
  446.00  7.4116E-003  
  446.50  7.5049E-003  
  447.00  7.4750E-003  
  447.50  7.5280E-003  
  448.00  8.2797E-003  
  448.50  9.0254E-003  
  449.00  9.5413E-003  
  449.50  9.5737E-003  
  450.00  8.9579E-003  
  450.50  8.2818E-003  
  451.00  7.7419E-003  
  451.50  7.7256E-003  
  452.00  7.9543E-003  
  452.50  8.1324E-003  
  453.00  8.4125E-003  
  453.50  9.0064E-003  
  454.00  9.6805E-003  
  454.50  1.0356E-002  
  455.00  1.0397E-002  
  455.50  1.0281E-002  
  456.00  1.0415E-002  
  456.50  1.0575E-002  
  457.00  1.0713E-002  
  457.50  1.0247E-002  
  458.00  9.4369E-003  
  458.50  9.1647E-003  
  459.00  9.0688E-003  
  459.50  8.9429E-003  
  460.00  8.4379E-003  
  460.50  7.5573E-003  
  461.00  7.0533E-003  
  461.50  6.1063E-003  
  462.00  5.5292E-003  
  462.50  4.8203E-003  
  463.00  4.7300E-003  
  463.50  5.0614E-003  
  464.00  5.4548E-003  
  464.50  5.8085E-003  
  465.00  6.4839E-003  
  465.50  7.7912E-003  
  466.00  9.3994E-003  
  466.50  1.0615E-002  
  467.00  1.0878E-002  
  467.50  1.0404E-002  
  468.00  9.7645E-003  
  468.50  9.2251E-003  
  469.00  9.3926E-003  
  469.50  1.0519E-002  
  470.00  1.2647E-002  
  470.50  1.5194E-002  
  471.00  1.7371E-002  
  471.50  2.0779E-002  
  472.00  2.8146E-002  
  472.50  3.9902E-002  
  473.00  5.2879E-002  
  473.50  6.0323E-002  
  474.00  5.8788E-002  
  474.50  4.7712E-002  
  475.00  3.3787E-002  
  475.50  2.2064E-002  
  476.00  1.4592E-002  
  476.50  1.1804E-002  
  477.00  1.1783E-002  
  477.50  1.2869E-002  
  478.00  1.3217E-002  
  478.50  1.2060E-002  
  479.00  1.0139E-002  
  479.50  8.1760E-003  
  480.00  7.2639E-003  
  480.50  7.1401E-003  
  481.00  7.9513E-003  
  481.50  9.4238E-003  
  482.00  1.1469E-002  
  482.50  1.3691E-002  
  483.00  1.5648E-002  
  483.50  1.6590E-002  
  484.00  1.6373E-002  
  484.50  1.4596E-002  
  485.00  1.2272E-002  
  485.50  1.0095E-002  
  486.00  8.7292E-003  
  486.50  8.4796E-003  
  487.00  8.8076E-003  
  487.50  9.1559E-003  
  488.00  8.9617E-003  
  488.50  8.4082E-003  
  489.00  7.9530E-003  
  489.50  7.8450E-003  
  490.00  8.1595E-003  
  490.50  8.6522E-003  
  491.00  9.0279E-003  
  491.50  9.1939E-003  
  492.00  9.2202E-003  
  492.50  9.1980E-003  
  493.00  9.4385E-003  
  493.50  9.8413E-003  
  494.00  1.0399E-002  
  494.50  1.0751E-002  
  495.00  1.0493E-002  
  495.50  9.8272E-003  
  496.00  9.5318E-003  
  496.50  1.1122E-002  
  497.00  1.4510E-002  
  497.50  1.8554E-002  
  498.00  2.1071E-002  
  498.50  2.0222E-002  
  499.00  1.7174E-002  
  499.50  1.3139E-002  
  500.00  1.0093E-002  
  500.50  9.2105E-003  
  501.00  1.0358E-002  
  501.50  1.2426E-002  
  502.00  1.4023E-002  
  502.50  1.4207E-002  
  503.00  1.3059E-002  
  503.50  1.1464E-002  
  504.00  1.0030E-002  
  504.50  9.7178E-003  
  505.00  1.1950E-002  
  505.50  1.7627E-002  
  506.00  2.6850E-002  
  506.50  3.9230E-002  
  507.00  5.6696E-002  
  507.50  7.6767E-002  
  508.00  9.1494E-002  
  508.50  9.4002E-002  
  509.00  8.1054E-002  
  509.50  6.2150E-002  
  510.00  4.5217E-002  
  510.50  3.3028E-002  
  511.00  2.4717E-002  
  511.50  1.8445E-002  
  512.00  1.3698E-002  
  512.50  9.7678E-003  
  513.00  7.2958E-003  
  513.50  6.3336E-003  
  514.00  6.5383E-003  
  514.50  7.4503E-003  
  515.00  8.1045E-003  
  515.50  7.9522E-003  
  516.00  6.9931E-003  
  516.50  5.7932E-003  
  517.00  5.0242E-003  
  517.50  4.7251E-003  
  518.00  4.7763E-003  
  518.50  5.1259E-003  
  519.00  5.8644E-003  
  519.50  7.5696E-003  
  520.00  1.0057E-002  
  520.50  1.2841E-002  
  521.00  1.4706E-002  
  521.50  1.4464E-002  
  522.00  1.2731E-002  
  522.50  1.0226E-002  
  523.00  8.2628E-003  
  523.50  7.0338E-003  
  524.00  6.5264E-003  
  524.50  7.0931E-003  
  525.00  8.2712E-003  
  525.50  9.2741E-003  
  526.00  8.9642E-003  
  526.50  7.5651E-003  
  527.00  6.5074E-003  
  527.50  6.9455E-003  
  528.00  8.1326E-003  
  528.50  8.8696E-003  
  529.00  8.7160E-003  
  529.50  7.9891E-003  
  530.00  7.4355E-003  
  530.50  7.2555E-003  
  531.00  7.2138E-003  
  531.50  7.3535E-003  
  532.00  8.2057E-003  
  532.50  1.0378E-002  
  533.00  1.4854E-002  
  533.50  2.2136E-002  
  534.00  3.1028E-002  
  534.50  3.8362E-002  
  535.00  4.0061E-002  
  535.50  3.4664E-002  
  536.00  2.6189E-002  
  536.50  1.9391E-002  
  537.00  1.6470E-002  
  537.50  1.6347E-002  
  538.00  1.7332E-002  
  538.50  1.8500E-002  
  539.00  1.8487E-002  
  539.50  1.6428E-002  
  540.00  1.2858E-002  
  540.50  1.0091E-002  
  541.00  9.2301E-003  
  541.50  9.8304E-003  
  542.00  1.1113E-002  
  542.50  1.3082E-002  
  543.00  1.5995E-002  
  543.50  2.0077E-002  
  544.00  2.6565E-002  
  544.50  3.7875E-002  
  545.00  5.5675E-002  
  545.50  7.2816E-002  
  546.00  7.7233E-002  
  546.50  6.9163E-002  
  547.00  5.6234E-002  
  547.50  4.8127E-002  
  548.00  4.4441E-002  
  548.50  3.7873E-002  
  549.00  2.7375E-002  
  549.50  1.8284E-002  
  550.00  1.6233E-002  
  550.50  2.1787E-002  
  551.00  3.1390E-002  
  551.50  3.8218E-002  
  552.00  3.7809E-002  
  552.50  3.0553E-002  
  553.00  2.1702E-002  
  553.50  1.5726E-002  
  554.00  1.3034E-002  
  554.50  1.2357E-002  
  555.00  1.2074E-002  
  555.50  1.1888E-002  
  556.00  1.1666E-002  
  556.50  1.1261E-002  
  557.00  1.0738E-002  
  557.50  1.0743E-002  
  558.00  1.1611E-002  
  558.50  1.2749E-002  
  559.00  1.2825E-002  
  559.50  1.1492E-002  
  560.00  9.6590E-003  
  560.50  8.5034E-003  
  561.00  7.9829E-003  
  561.50  7.6954E-003  
  562.00  7.2898E-003  
  562.50  7.1254E-003  
  563.00  7.4243E-003  
  563.50  8.3977E-003  
  564.00  9.8905E-003  
  564.50  1.1288E-002  
  565.00  1.3270E-002  
  565.50  1.7981E-002  
  566.00  2.7488E-002  
  566.50  4.0694E-002  
  567.00  5.4429E-002  
  567.50  6.7444E-002  
  568.00  7.8515E-002  
  568.50  8.3593E-002  
  569.00  8.1610E-002  
  569.50  7.4809E-002  
  570.00  6.9420E-002  
  570.50  6.7414E-002  
  571.00  6.4245E-002  
  571.50  5.6298E-002  
  572.00  4.3648E-002  
  572.50  2.9750E-002  
  573.00  1.8998E-002  
  573.50  1.2334E-002  
  574.00  9.9063E-003  
  574.50  1.0232E-002  
  575.00  1.3708E-002  
  575.50  2.0926E-002  
  576.00  3.0217E-002  
  576.50  3.6666E-002  
  577.00  3.7570E-002  
  577.50  3.4976E-002  
  578.00  3.4132E-002  
  578.50  3.5895E-002  
  579.00  3.5593E-002  
  579.50  2.9991E-002  
  580.00  2.1590E-002  
  580.50  1.4192E-002  
  581.00  9.9025E-003  
  581.50  7.7199E-003  
  582.00  6.8130E-003  
  582.50  6.4892E-003  
  583.00  6.3876E-003  
  583.50  6.5583E-003  
  584.00  6.9369E-003  
  584.50  7.4778E-003  
  585.00  8.3719E-003  
  585.50  9.8046E-003  
  586.00  1.2773E-002  
  586.50  2.1119E-002  
  587.00  3.9276E-002  
  587.50  7.0007E-002  
  588.00  1.0537E-001  
  588.50  1.3741E-001  
  589.00  1.6291E-001  
  589.50  1.8468E-001  
  590.00  1.9960E-001  
  590.50  1.9967E-001  
  591.00  1.8288E-001  
  591.50  1.5669E-001  
  592.00  1.3054E-001  
  592.50  1.1019E-001  
  593.00  9.4673E-002  
  593.50  8.3185E-002  
  594.00  7.4095E-002  
  594.50  6.6523E-002  
  595.00  6.0611E-002  
  595.50  5.6155E-002  
  596.00  5.3288E-002  
  596.50  5.1029E-002  
  597.00  4.8391E-002  
  597.50  4.5164E-002  
  598.00  4.2336E-002  
  598.50  4.0201E-002  
  599.00  3.8111E-002  
  599.50  3.5476E-002  
  600.00  3.2355E-002  
  600.50  2.9675E-002  
  601.00  2.7849E-002  
  601.50  2.7061E-002  
  602.00  2.6791E-002  
  602.50  2.6414E-002  
  603.00  2.5276E-002  
  603.50  2.3570E-002  
  604.00  2.1802E-002  
  604.50  2.0414E-002  
  605.00  1.9318E-002  
  605.50  1.8386E-002  
  606.00  1.7485E-002  
  606.50  1.6785E-002  
  607.00  1.6320E-002  
  607.50  1.5784E-002  
  608.00  1.5104E-002  
  608.50  1.4487E-002  
  609.00  1.4567E-002  
  609.50  1.5144E-002  
  610.00  1.5628E-002  
  610.50  1.5201E-002  
  611.00  1.4293E-002  
  611.50  1.3405E-002  
  612.00  1.2930E-002  
  612.50  1.2598E-002  
  613.00  1.2364E-002  
  613.50  1.2720E-002  
  614.00  1.4275E-002  
  614.50  1.6471E-002  
  615.00  1.8857E-002  
  615.50  2.0054E-002  
  616.00  1.9712E-002  
  616.50  1.7781E-002  
  617.00  1.5643E-002  
  617.50  1.4517E-002  
  618.00  1.5028E-002  
  618.50  1.6289E-002  
  619.00  1.8047E-002  
  619.50  2.1106E-002  
  620.00  2.5962E-002  
  620.50  3.0583E-002  
  621.00  3.0780E-002  
  621.50  2.5996E-002  
  622.00  1.9967E-002  
  622.50  1.8922E-002  
  623.00  2.4293E-002  
  623.50  3.1840E-002  
  624.00  3.5934E-002  
  624.50  3.5399E-002  
  625.00  3.3465E-002  
  625.50  3.1950E-002  
  626.00  2.9343E-002  
  626.50  2.5581E-002  
  627.00  2.1931E-002  
  627.50  2.0095E-002  
  628.00  1.8518E-002  
  628.50  1.7149E-002  
  629.00  1.8473E-002  
  629.50  2.4465E-002  
  630.00  3.2968E-002  
  630.50  3.6534E-002  
  631.00  3.1930E-002  
  631.50  2.2401E-002  
  632.00  1.4464E-002  
  632.50  1.0584E-002  
  633.00  9.5333E-003  
  633.50  9.7655E-003  
  634.00  1.0133E-002  
  634.50  1.0042E-002  
  635.00  8.9375E-003  
  635.50  7.7002E-003  
  636.00  7.2321E-003  
  636.50  8.5972E-003  
  637.00  1.1553E-002  
  637.50  1.4101E-002  
  638.00  1.4093E-002  
  638.50  1.1611E-002  
  639.00  8.5674E-003  
  639.50  7.4478E-003  
  640.00  9.1401E-003  
  640.50  1.2815E-002  
  641.00  1.5743E-002  
  641.50  1.5686E-002  
  642.00  1.2439E-002  
  642.50  8.9802E-003  
  643.00  7.0090E-003  
  643.50  6.8940E-003  
  644.00  7.3765E-003  
  644.50  8.2875E-003  
  645.00  9.5084E-003  
  645.50  1.0202E-002  
  646.00  9.8240E-003  
  646.50  8.4168E-003  
  647.00  7.4273E-003  
  647.50  6.8125E-003  
  648.00  6.6924E-003  
  648.50  6.3908E-003  
  649.00  6.0063E-003  
  649.50  5.6990E-003  
  650.00  5.3113E-003  
  650.50  5.1602E-003  
  651.00  5.0947E-003  
  651.50  5.5967E-003  
  652.00  6.4405E-003  
  652.50  7.1018E-003  
  653.00  7.3379E-003  
  653.50  6.6734E-003  
  654.00  5.7504E-003  
  654.50  5.2670E-003  
  655.00  5.4293E-003  
  655.50  5.8956E-003  
  656.00  5.6799E-003  
  656.50  5.4695E-003  
  657.00  5.8974E-003  
  657.50  7.3271E-003  
  658.00  9.3204E-003  
  658.50  1.0709E-002  
  659.00  1.0849E-002  
  659.50  9.4868E-003  
  660.00  7.7852E-003  
  660.50  6.3267E-003  
  661.00  5.4664E-003  
  661.50  5.0261E-003  
  662.00  4.5474E-003  
  662.50  4.4876E-003  
  663.00  4.3946E-003  
  663.50  4.5256E-003  
  664.00  4.3624E-003  
  664.50  4.3603E-003  
  665.00  4.7406E-003  
  665.50  5.3797E-003  
  666.00  5.6894E-003  
  666.50  5.6715E-003  
  667.00  5.3155E-003  
  667.50  4.9904E-003  
  668.00  4.4614E-003  
  668.50  4.3603E-003  
  669.00  6.8560E-003  
  669.50  1.3538E-002  
  670.00  2.4198E-002  
  670.50  3.2733E-002  
  671.00  3.3184E-002  
  671.50  2.5525E-002  
  672.00  1.5792E-002  
  672.50  1.0279E-002  
  673.00  9.1906E-003  
  673.50  9.6804E-003  
  674.00  9.4743E-003  
  674.50  8.0264E-003  
  675.00  6.6038E-003  
  675.50  5.6009E-003  
  676.00  5.1988E-003  
  676.50  4.9079E-003  
  677.00  4.6404E-003  
  677.50  4.5434E-003  
  678.00  4.7252E-003  
  678.50  5.0491E-003  
  679.00  5.3112E-003  
  679.50  5.3863E-003  
  680.00  5.3382E-003  
  680.50  5.6851E-003  
  681.00  6.1844E-003  
  681.50  7.2851E-003  
  682.00  8.2313E-003  
  682.50  8.8757E-003  
  683.00  9.0814E-003  
  683.50  8.3921E-003  
  684.00  7.1422E-003  
  684.50  5.6858E-003  
  685.00  4.5719E-003  
  685.50  4.2331E-003  
  686.00  4.1843E-003  
  686.50  4.1903E-003  
  687.00  4.2806E-003  
  687.50  4.2756E-003  
  688.00  4.6328E-003  
  688.50  4.3750E-003  
  689.00  3.9367E-003  
  689.50  3.5209E-003  
  690.00  3.8874E-003  
  690.50  4.3234E-003  
  691.00  4.6605E-003  
  691.50  4.5132E-003  
  692.00  4.0155E-003  
  692.50  3.3871E-003  
  693.00  3.2834E-003  
  693.50  4.0791E-003  
  694.00  5.0573E-003  
  694.50  5.2193E-003  
  695.00  4.8696E-003  
  695.50  4.1736E-003  
  696.00  3.4232E-003  
  696.50  3.0061E-003  
  697.00  2.9871E-003  
  697.50  3.6861E-003  
  698.00  4.3464E-003  
  698.50  4.9800E-003  
  699.00  5.4721E-003  
  699.50  5.3980E-003  
  700.00  4.8685E-003  
  700.50  4.5226E-003  
  701.00  4.7870E-003  
  701.50  5.0362E-003  
  702.00  4.6655E-003  
  702.50  3.7857E-003  
  703.00  3.4431E-003  
  703.50  3.0681E-003  
  704.00  2.7445E-003  
  704.50  2.4951E-003  
  705.00  2.4576E-003  
  705.50  2.2922E-003  
  706.00  2.2277E-003  
  706.50  2.3294E-003  
  707.00  2.8457E-003  
  707.50  3.2092E-003  
  708.00  3.3371E-003  
  708.50  3.2383E-003  
  709.00  2.3541E-003  
  709.50  2.3238E-003  
  710.00  2.6779E-003  
  710.50  3.1336E-003  
  711.00  3.3963E-003  
  711.50  3.5009E-003  
  712.00  3.5454E-003  
  712.50  3.2264E-003  
  713.00  3.0466E-003  
  713.50  2.9025E-003  
  714.00  2.5629E-003  
  714.50  2.5427E-003  
  715.00  2.7807E-003  
  715.50  3.3586E-003  
  716.00  4.3490E-003  
  716.50  5.3809E-003  
  717.00  5.6567E-003  
  717.50  4.4344E-003  
  718.00  2.8850E-003  
  718.50  2.2252E-003  
  719.00  2.3762E-003  
  719.50  2.7200E-003  
  720.00  2.9566E-003  
  720.50  3.7152E-003  
  721.00  4.2641E-003  
  721.50  4.2020E-003  
  722.00  3.4591E-003  
  722.50  2.6530E-003  
  723.00  1.7984E-003  
  723.50  1.3306E-003  
  724.00  1.4454E-003  
  724.50  1.7437E-003  
  725.00  1.8530E-003  
  725.50  2.1024E-003  
  726.00  1.8205E-003  
  726.50  1.2931E-003  
  727.00  1.0569E-003  
  727.50  1.6661E-003  
  728.00  2.2768E-003  
  728.50  2.4678E-003  
  729.00  1.6871E-003  
  729.50  1.3788E-003  
  730.00  1.7780E-003  
  730.50  2.9291E-003  
  731.00  3.5713E-003  
  731.50  3.3624E-003  
  732.00  2.1897E-003  
  732.50  1.1621E-003  
  733.00  8.7701E-004  
  733.50  1.8396E-003  
  734.00  2.3127E-003  
  734.50  2.3114E-003  
  735.00  2.1152E-003  
  735.50  2.3996E-003  
  736.00  2.3652E-003  
  736.50  2.2735E-003  
  737.00  2.2345E-003  
  737.50  2.6042E-003  
  738.00  2.6106E-003  
  738.50  2.7887E-003  
  739.00  2.8194E-003  
  739.50  2.2569E-003  
  740.00  1.7878E-003  
  740.50  1.2037E-003  
  741.00  1.3146E-003  
  741.50  1.6975E-003  
  742.00  1.9749E-003  
  742.50  2.2727E-003  
  743.00  2.2242E-003  
  743.50  2.1978E-003  
  744.00  1.4369E-003  
  744.50  1.2994E-003  
  745.00  6.2564E-004  
  745.50  3.1590E-004  
  746.00  2.0585E-004  
  746.50  1.0259E-003  
  747.00  1.7973E-003  
  747.50  1.8174E-003  
  748.00  1.7920E-003  
  748.50  1.5650E-003  
  749.00  1.2623E-003  
  749.50  1.1038E-003  
  750.00  1.7055E-003  
  750.50  2.7882E-003  
  751.00  3.4774E-003  
  751.50  3.7794E-003  
  752.00  3.7284E-003  
  752.50  3.5287E-003  
  753.00  2.6714E-003  
  753.50  2.3843E-003  
  754.00  2.7170E-003  
  754.50  3.0804E-003  
  755.00  2.9729E-003  
  755.50  2.5627E-003  
  756.00  2.7571E-003  
  756.50  3.7631E-003  
  757.00  4.2482E-003  
  757.50  4.3154E-003  
  758.00  3.9834E-003  
  758.50  4.1139E-003  
  759.00  3.7953E-003  
  759.50  3.1217E-003  
  760.00  2.4338E-003  
  760.50  2.3420E-003  
  761.00  3.1776E-003  
  761.50  3.0990E-003  
  762.00  2.7202E-003  
  762.50  2.3458E-003  
  763.00  2.3399E-003  
  763.50  2.3920E-003  
  764.00  2.1358E-003  
  764.50  2.7254E-003  
  765.00  3.8798E-003  
  765.50  5.2346E-003  
  766.00  6.8935E-003  
  766.50  7.8959E-003  
  767.00  7.7729E-003  
  767.50  6.5349E-003  
  768.00  4.7187E-003  
  768.50  3.8009E-003  
  769.00  4.3901E-003  
  769.50  6.2284E-003  
  770.00  7.0785E-003  
  770.50  5.5620E-003  
  771.00  3.8998E-003  
  771.50  2.7980E-003  
  772.00  3.0211E-003  
  772.50  3.2246E-003  
  773.00  4.2084E-003  
  773.50  5.6626E-003  
  774.00  6.0200E-003  
  774.50  4.6056E-003  
  775.00  3.1308E-003  
  775.50  3.3861E-003  
  776.00  3.9363E-003  
  776.50  3.6564E-003  
  777.00  3.1026E-003  
  777.50  3.3699E-003  
  778.00  4.1602E-003  
  778.50  4.2162E-003  
  779.00  3.6289E-003  
  779.50  3.2557E-003  
  780.00  2.8140E-003  
  780.50  2.6477E-003  
  781.00  3.3058E-003  
  781.50  4.1848E-003  
  782.00  4.4061E-003  
  782.50  3.9078E-003  
  783.00  3.6247E-003  
  783.50  3.9831E-003  
  784.00  5.1754E-003  
  784.50  5.7900E-003  
  785.00  5.2721E-003  
  785.50  3.8419E-003  
  786.00  1.7442E-003  
  786.50  1.6899E-003  
  787.00  2.9679E-003  
  787.50  3.4861E-003  
  788.00  2.1541E-003  
  788.50  9.5549E-004  
  789.00  1.6801E-003  
  789.50  2.1896E-003  
  790.00  2.4347E-003  
  790.50  2.5413E-003  
  791.00  2.5003E-003  
  791.50  2.6035E-003  
  792.00  2.7444E-003  
  792.50  2.1418E-003  
  793.00  1.4468E-003  
  793.50  2.0396E-003  
  794.00  2.5491E-003  
  794.50  2.3489E-003  
  795.00  1.8854E-003  
  795.50  2.4637E-003  
  796.00  1.5848E-003  
  796.50  1.1246E-003  
  797.00  2.3721E-003  
  797.50  4.6068E-003  
  798.00  5.5357E-003  
  798.50  4.4127E-003  
  799.00  2.9032E-003  
  799.50  2.2879E-003  
  800.00  1.6706E-003  
  800.50  1.7487E-003  
  801.00  1.7607E-003  
  801.50  2.1546E-003  
  802.00  2.0615E-003  
  802.50  2.3352E-003  
  803.00  1.6612E-003  
  803.50  2.1863E-003  
  804.00  2.4686E-003  
  804.50  2.5438E-003  
  805.00  1.9621E-003  
  805.50  1.9230E-003  
  806.00  1.9480E-003  
  806.50  2.1375E-003  
  807.00  2.2296E-003  
  807.50  9.2677E-004  
  808.00  4.2310E-004  
  808.50  2.2135E-004  
  809.00  1.5798E-003  
  809.50  1.1566E-003  
  810.00  2.0579E-003  
  810.50  2.4019E-003  
  811.00  1.8862E-003  
  811.50  7.3368E-004  
  812.00  1.4234E-003  
  812.50  2.5270E-003  
  813.00  2.1134E-003  
  813.50  2.4281E-003  
  814.00  2.7521E-003  
  814.50  4.1621E-003  
  815.00  4.0026E-003  
  815.50  4.1292E-003  
  816.00  5.2033E-003  
  816.50  1.3801E-002  
  817.00  3.5066E-002  
  817.50  7.3089E-002  
  818.00  1.1895E-001  
  818.50  1.5760E-001  
  819.00  1.7625E-001  
  819.50  1.6283E-001  
  820.00  1.2085E-001  
  820.50  7.1913E-002  
  821.00  3.6040E-002  
  821.50  1.6976E-002  
  822.00  8.2756E-003  
  822.50  5.0923E-003  
  823.00  4.7004E-003  
  823.50  5.8021E-003  
  824.00  7.4328E-003  
  824.50  6.3284E-003  
  825.00  4.2336E-003  
  825.50  2.4316E-003  
  826.00  2.3004E-003  
  826.50  3.2552E-003  
  827.00  2.4666E-003  
  827.50  2.0773E-003  
  828.00  1.2634E-003  
  828.50  1.7164E-003  
  829.00  1.6881E-003  
  829.50  2.5574E-003  
  830.00  3.5880E-003  
  830.50  3.5418E-003  
  831.00  4.2873E-003  
  831.50  4.9617E-003  
  832.00  4.4827E-003  
  832.50  2.4246E-003  
  833.00  2.9920E-003  
  833.50  2.8969E-003  
  834.00  1.6177E-003  
  834.50  9.2501E-004  
  835.00  7.3692E-004  
  835.50  1.0559E-003  
  836.00  2.2288E-003  
  836.50  2.1057E-003  
  837.00  1.1022E-003  
  837.50  7.5412E-004  
  838.00  8.8668E-004  
  838.50  5.2659E-004  
  839.00  5.5698E-004  
  839.50  1.7157E-004  
  840.00  1.6710E-003  
  840.50  4.9164E-003  
  841.00  5.4000E-003  
  841.50  4.4881E-003  
  842.00  3.8471E-003  
  842.50  4.3471E-003  
  843.00  3.7597E-003  
  843.50  3.1610E-003  
  844.00  2.3818E-003  
  844.50  1.3778E-003  
  845.00  9.8510E-004  
  845.50  7.2123E-004  
  846.00  9.1414E-004  
  846.50  1.1244E-003  
  847.00  2.7161E-004  
  847.50  0.0000E+000  
  848.00  5.1838E-004  
  848.50  1.7220E-003  
  849.00  1.8007E-003  
  849.50  1.9261E-003  
  850.00  3.1403E-003  
  850.50  3.5261E-003  
  851.00  1.1352E-003  
  851.50  1.1357E-003  
  852.00  3.5943E-003  
  852.50  2.6924E-003  
  853.00  1.5311E-003  
  853.50  2.8302E-003  
  854.00  4.3887E-003  
  854.50  4.3496E-003  
  855.00  3.0738E-003  
  855.50  2.6199E-003  
  856.00  5.1131E-003  
  856.50  5.3799E-003  
  857.00  3.4338E-003  
  857.50  2.6400E-003  
  858.00  2.4835E-003  
  858.50  6.0722E-004  
  859.00  2.0062E-003  
  859.50  2.5201E-003  
  860.00  0.0000E+000  
  860.50  0.0000E+000  
  861.00  7.0501E-004  
  861.50  1.0037E-003  
  862.00  9.0026E-006  
  862.50  0.0000E+000  
  863.00  0.0000E+000  
  863.50  0.0000E+000  
  864.00  2.1442E-004  
  864.50  1.5680E-003  
  865.00  6.6364E-004  
  865.50  0.0000E+000  
  866.00  0.0000E+000  
  866.50  6.9357E-004  
  867.00  1.6147E-003  
  867.50  2.8903E-005  
  868.00  0.0000E+000  
  868.50  2.3141E-004  
  869.00  1.0040E-003  
  869.50  2.1238E-003  
  870.00  2.1019E-003  
  870.50  3.4345E-004  
  871.00  2.0986E-003  
  871.50  4.3662E-003  
  872.00  4.8397E-003  
  872.50  4.7153E-003  
  873.00  4.3719E-003  
  873.50  4.6714E-003  
  874.00  5.1944E-003  
  874.50  5.6654E-003  
  875.00  4.7604E-003  
  875.50  4.2967E-003  
  876.00  4.8109E-003  
  876.50  7.5149E-003  
  877.00  8.0468E-003  
  877.50  5.2030E-003  
  878.00  2.6217E-003  
  878.50  1.9863E-003  
  879.00  0.0000E+000  
  879.50  0.0000E+000  
  880.00  3.0023E-003  
  880.50  1.4619E-003  
  881.00  0.0000E+000  
  881.50  0.0000E+000  
  882.00  0.0000E+000  
  882.50  4.6307E-003  
  883.00  6.5642E-003  
  883.50  5.2848E-003  
  884.00  2.5494E-003  
  884.50  2.5086E-003  
  885.00  1.5248E-003  
  885.50  0.0000E+000  
  886.00  0.0000E+000  
  886.50  0.0000E+000  
  887.00  3.1657E-004  
  887.50  1.5131E-003  
  888.00  3.4686E-003  
  888.50  6.9626E-003  
  889.00  7.6175E-003  
  889.50  4.9422E-003  
  890.00  4.3862E-003  
  890.50  3.7614E-003  
  891.00  3.6301E-004  
  891.50  0.0000E+000  
  892.00  0.0000E+000  
  892.50  0.0000E+000  
  893.00  7.4492E-004  
  893.50  2.9021E-003  
  894.00  5.9377E-003  
  894.50  7.0563E-003  
  895.00  8.5654E-004  
  895.50  2.4202E-003  
  896.00  3.6189E-003  
  896.50  2.1899E-003  
  897.00  3.4953E-003  
  897.50  3.9241E-003  
  898.00  7.0019E-004  
  898.50  0.0000E+000  
  899.00  2.6028E-003  
  899.50  7.7633E-005  
