
# From lspdd.org
# 
# Name: DEL RAB-Desigh Ceiling-Light Domestique
# Indice spectral Valeur 
# MSI 0.55 
# SLI 0.70 
# IPI 0.62 
# Pourcentage de bleu 35.6 
# Caractéristique Valeur 
# CCT calculée (K) 5056 
# CCT du fabricant (K) 5000 
# Tension (V) 120 
# Puissance (W) 14.0 
# Efficacité lumineuse (Lum/W) 88.0 
#
# Image: '/app/system/img_2s/2645/medium_image2.jpg?1432222980'
# Image: '/app/system/img_1s/2645/medium_image1.jpg?1432222974'
# 

  273.00  0.0000E+000  
  273.50  0.0000E+000  
  274.00  0.0000E+000  
  274.50  0.0000E+000  
  275.00  0.0000E+000  
  275.50  0.0000E+000  
  276.00  0.0000E+000  
  276.50  0.0000E+000  
  277.00  0.0000E+000  
  277.50  0.0000E+000  
  278.00  0.0000E+000  
  278.50  0.0000E+000  
  279.00  0.0000E+000  
  279.50  0.0000E+000  
  280.00  0.0000E+000  
  280.50  0.0000E+000  
  281.00  0.0000E+000  
  281.50  0.0000E+000  
  282.00  0.0000E+000  
  282.50  0.0000E+000  
  283.00  0.0000E+000  
  283.50  0.0000E+000  
  284.00  0.0000E+000  
  284.50  0.0000E+000  
  285.00  0.0000E+000  
  285.50  0.0000E+000  
  286.00  0.0000E+000  
  286.50  0.0000E+000  
  287.00  0.0000E+000  
  287.50  0.0000E+000  
  288.00  0.0000E+000  
  288.50  0.0000E+000  
  289.00  0.0000E+000  
  289.50  0.0000E+000  
  290.00  0.0000E+000  
  290.50  0.0000E+000  
  291.00  0.0000E+000  
  291.50  0.0000E+000  
  292.00  0.0000E+000  
  292.50  0.0000E+000  
  293.00  0.0000E+000  
  293.50  0.0000E+000  
  294.00  0.0000E+000  
  294.50  0.0000E+000  
  295.00  0.0000E+000  
  295.50  0.0000E+000  
  296.00  0.0000E+000  
  296.50  0.0000E+000  
  297.00  0.0000E+000  
  297.50  0.0000E+000  
  298.00  0.0000E+000  
  298.50  0.0000E+000  
  299.00  0.0000E+000  
  299.50  0.0000E+000  
  300.00  9.4169E-005  
  300.50  1.6740E-004  
  301.00  1.7216E-004  
  301.50  2.0537E-004  
  302.00  3.1349E-004  
  302.50  2.1033E-004  
  303.00  0.0000E+000  
  303.50  0.0000E+000  
  304.00  0.0000E+000  
  304.50  0.0000E+000  
  305.00  0.0000E+000  
  305.50  0.0000E+000  
  306.00  2.0324E-005  
  306.50  0.0000E+000  
  307.00  0.0000E+000  
  307.50  0.0000E+000  
  308.00  0.0000E+000  
  308.50  7.6431E-006  
  309.00  3.0630E-004  
  309.50  6.5358E-004  
  310.00  8.4970E-004  
  310.50  1.1567E-003  
  311.00  1.0891E-003  
  311.50  8.6660E-004  
  312.00  4.1592E-004  
  312.50  3.5140E-005  
  313.00  2.0501E-005  
  313.50  1.4902E-004  
  314.00  3.3527E-004  
  314.50  2.3280E-004  
  315.00  4.1397E-005  
  315.50  0.0000E+000  
  316.00  0.0000E+000  
  316.50  0.0000E+000  
  317.00  0.0000E+000  
  317.50  0.0000E+000  
  318.00  0.0000E+000  
  318.50  0.0000E+000  
  319.00  0.0000E+000  
  319.50  0.0000E+000  
  320.00  0.0000E+000  
  320.50  7.2219E-005  
  321.00  1.6025E-004  
  321.50  2.8034E-004  
  322.00  5.9359E-004  
  322.50  4.8934E-004  
  323.00  6.4289E-004  
  323.50  7.3572E-004  
  324.00  3.6922E-004  
  324.50  2.6815E-004  
  325.00  1.2816E-004  
  325.50  2.8165E-004  
  326.00  3.7864E-004  
  326.50  3.5787E-004  
  327.00  9.0034E-005  
  327.50  0.0000E+000  
  328.00  0.0000E+000  
  328.50  0.0000E+000  
  329.00  0.0000E+000  
  329.50  0.0000E+000  
  330.00  0.0000E+000  
  330.50  0.0000E+000  
  331.00  0.0000E+000  
  331.50  0.0000E+000  
  332.00  0.0000E+000  
  332.50  0.0000E+000  
  333.00  0.0000E+000  
  333.50  0.0000E+000  
  334.00  0.0000E+000  
  334.50  0.0000E+000  
  335.00  0.0000E+000  
  335.50  0.0000E+000  
  336.00  0.0000E+000  
  336.50  0.0000E+000  
  337.00  0.0000E+000  
  337.50  0.0000E+000  
  338.00  0.0000E+000  
  338.50  0.0000E+000  
  339.00  0.0000E+000  
  339.50  9.8790E-005  
  340.00  5.5478E-005  
  340.50  1.1516E-006  
  341.00  0.0000E+000  
  341.50  0.0000E+000  
  342.00  0.0000E+000  
  342.50  0.0000E+000  
  343.00  0.0000E+000  
  343.50  0.0000E+000  
  344.00  0.0000E+000  
  344.50  0.0000E+000  
  345.00  0.0000E+000  
  345.50  0.0000E+000  
  346.00  0.0000E+000  
  346.50  0.0000E+000  
  347.00  0.0000E+000  
  347.50  0.0000E+000  
  348.00  3.9379E-005  
  348.50  2.0852E-004  
  349.00  4.2171E-004  
  349.50  5.7720E-004  
  350.00  3.7379E-004  
  350.50  2.6622E-004  
  351.00  2.4720E-004  
  351.50  3.8660E-005  
  352.00  0.0000E+000  
  352.50  0.0000E+000  
  353.00  0.0000E+000  
  353.50  0.0000E+000  
  354.00  3.0113E-006  
  354.50  1.6553E-004  
  355.00  4.3879E-004  
  355.50  5.5842E-004  
  356.00  3.5323E-004  
  356.50  2.5315E-005  
  357.00  8.7742E-005  
  357.50  1.4225E-005  
  358.00  0.0000E+000  
  358.50  6.6064E-005  
  359.00  1.6992E-004  
  359.50  3.5079E-004  
  360.00  5.7720E-004  
  360.50  5.4423E-004  
  361.00  6.7292E-004  
  361.50  7.9695E-004  
  362.00  5.9674E-004  
  362.50  2.9804E-004  
  363.00  0.0000E+000  
  363.50  0.0000E+000  
  364.00  0.0000E+000  
  364.50  0.0000E+000  
  365.00  0.0000E+000  
  365.50  4.8079E-005  
  366.00  1.3042E-004  
  366.50  3.5603E-004  
  367.00  6.4302E-004  
  367.50  6.4854E-004  
  368.00  3.8578E-004  
  368.50  7.3694E-005  
  369.00  0.0000E+000  
  369.50  7.3686E-005  
  370.00  4.8987E-004  
  370.50  6.0386E-004  
  371.00  4.9153E-004  
  371.50  2.3471E-004  
  372.00  3.3082E-005  
  372.50  0.0000E+000  
  373.00  1.8296E-006  
  373.50  3.4227E-006  
  374.00  0.0000E+000  
  374.50  0.0000E+000  
  375.00  0.0000E+000  
  375.50  2.1334E-005  
  376.00  3.4491E-004  
  376.50  6.1871E-004  
  377.00  8.7631E-004  
  377.50  8.8859E-004  
  378.00  6.5729E-004  
  378.50  1.9515E-004  
  379.00  3.5904E-005  
  379.50  1.3697E-006  
  380.00  2.8379E-004  
  380.50  4.5125E-004  
  381.00  3.3722E-004  
  381.50  7.4531E-005  
  382.00  3.0831E-006  
  382.50  3.2230E-004  
  383.00  7.0074E-004  
  383.50  6.6046E-004  
  384.00  4.3904E-004  
  384.50  1.6340E-004  
  385.00  2.5966E-005  
  385.50  3.1242E-004  
  386.00  4.9998E-004  
  386.50  5.3841E-004  
  387.00  7.4227E-004  
  387.50  8.2683E-004  
  388.00  5.9535E-004  
  388.50  6.8916E-004  
  389.00  7.2110E-004  
  389.50  9.6555E-004  
  390.00  9.9690E-004  
  390.50  8.3154E-004  
  391.00  6.2988E-004  
  391.50  2.2837E-004  
  392.00  4.8685E-006  
  392.50  0.0000E+000  
  393.00  0.0000E+000  
  393.50  2.7845E-004  
  394.00  5.8777E-004  
  394.50  8.8963E-004  
  395.00  1.3003E-003  
  395.50  1.4066E-003  
  396.00  1.1808E-003  
  396.50  8.1302E-004  
  397.00  4.6821E-004  
  397.50  6.6307E-004  
  398.00  9.0178E-004  
  398.50  1.0877E-003  
  399.00  1.4400E-003  
  399.50  1.2197E-003  
  400.00  1.1908E-003  
  400.50  1.0870E-003  
  401.00  9.5300E-004  
  401.50  8.6494E-004  
  402.00  5.2786E-004  
  402.50  5.2032E-004  
  403.00  6.1954E-004  
  403.50  1.0759E-003  
  404.00  1.3695E-003  
  404.50  1.3417E-003  
  405.00  1.3806E-003  
  405.50  1.6476E-003  
  406.00  2.1211E-003  
  406.50  2.8747E-003  
  407.00  3.1189E-003  
  407.50  3.2597E-003  
  408.00  3.0616E-003  
  408.50  2.8456E-003  
  409.00  2.6385E-003  
  409.50  2.3390E-003  
  410.00  2.4314E-003  
  410.50  2.7165E-003  
  411.00  3.0563E-003  
  411.50  3.3453E-003  
  412.00  3.4972E-003  
  412.50  3.7724E-003  
  413.00  4.2082E-003  
  413.50  4.4816E-003  
  414.00  4.5784E-003  
  414.50  4.6551E-003  
  415.00  4.9481E-003  
  415.50  5.5105E-003  
  416.00  6.0389E-003  
  416.50  6.4887E-003  
  417.00  6.6480E-003  
  417.50  7.1668E-003  
  418.00  8.1751E-003  
  418.50  9.3136E-003  
  419.00  1.0495E-002  
  419.50  1.1304E-002  
  420.00  1.1988E-002  
  420.50  1.2784E-002  
  421.00  1.3754E-002  
  421.50  1.4644E-002  
  422.00  1.5324E-002  
  422.50  1.6049E-002  
  423.00  1.6874E-002  
  423.50  1.8086E-002  
  424.00  1.9440E-002  
  424.50  2.0523E-002  
  425.00  2.1860E-002  
  425.50  2.3463E-002  
  426.00  2.4919E-002  
  426.50  2.6640E-002  
  427.00  2.8181E-002  
  427.50  3.0245E-002  
  428.00  3.2735E-002  
  428.50  3.4947E-002  
  429.00  3.7232E-002  
  429.50  3.9237E-002  
  430.00  4.1843E-002  
  430.50  4.4672E-002  
  431.00  4.7388E-002  
  431.50  4.9970E-002  
  432.00  5.2350E-002  
  432.50  5.4889E-002  
  433.00  5.7462E-002  
  433.50  6.0421E-002  
  434.00  6.3564E-002  
  434.50  6.7069E-002  
  435.00  7.0735E-002  
  435.50  7.4572E-002  
  436.00  7.8606E-002  
  436.50  8.2579E-002  
  437.00  8.7067E-002  
  437.50  9.1549E-002  
  438.00  9.6385E-002  
  438.50  1.0137E-001  
  439.00  1.0605E-001  
  439.50  1.1095E-001  
  440.00  1.1655E-001  
  440.50  1.2246E-001  
  441.00  1.2869E-001  
  441.50  1.3526E-001  
  442.00  1.4204E-001  
  442.50  1.4910E-001  
  443.00  1.5651E-001  
  443.50  1.6386E-001  
  444.00  1.7184E-001  
  444.50  1.8083E-001  
  445.00  1.8949E-001  
  445.50  1.9790E-001  
  446.00  2.0500E-001  
  446.50  2.1155E-001  
  447.00  2.1812E-001  
  447.50  2.2375E-001  
  448.00  2.2951E-001  
  448.50  2.3365E-001  
  449.00  2.3753E-001  
  449.50  2.4035E-001  
  450.00  2.4254E-001  
  450.50  2.4476E-001  
  451.00  2.4608E-001  
  451.50  2.4465E-001  
  452.00  2.4181E-001  
  452.50  2.3738E-001  
  453.00  2.3307E-001  
  453.50  2.2838E-001  
  454.00  2.2215E-001  
  454.50  2.1518E-001  
  455.00  2.0715E-001  
  455.50  1.9850E-001  
  456.00  1.8931E-001  
  456.50  1.8041E-001  
  457.00  1.7225E-001  
  457.50  1.6517E-001  
  458.00  1.5752E-001  
  458.50  1.5031E-001  
  459.00  1.4283E-001  
  459.50  1.3521E-001  
  460.00  1.2774E-001  
  460.50  1.2081E-001  
  461.00  1.1545E-001  
  461.50  1.1087E-001  
  462.00  1.0665E-001  
  462.50  1.0240E-001  
  463.00  9.8219E-002  
  463.50  9.4279E-002  
  464.00  9.0623E-002  
  464.50  8.7081E-002  
  465.00  8.3746E-002  
  465.50  8.0782E-002  
  466.00  7.7683E-002  
  466.50  7.5092E-002  
  467.00  7.2412E-002  
  467.50  7.0162E-002  
  468.00  6.7806E-002  
  468.50  6.5436E-002  
  469.00  6.3307E-002  
  469.50  6.0864E-002  
  470.00  5.8418E-002  
  470.50  5.6247E-002  
  471.00  5.4009E-002  
  471.50  5.2021E-002  
  472.00  4.9775E-002  
  472.50  4.7267E-002  
  473.00  4.5026E-002  
  473.50  4.3334E-002  
  474.00  4.2048E-002  
  474.50  4.0531E-002  
  475.00  3.8633E-002  
  475.50  3.6757E-002  
  476.00  3.5440E-002  
  476.50  3.4406E-002  
  477.00  3.3435E-002  
  477.50  3.2216E-002  
  478.00  3.1095E-002  
  478.50  3.0350E-002  
  479.00  2.9443E-002  
  479.50  2.8802E-002  
  480.00  2.8081E-002  
  480.50  2.7681E-002  
  481.00  2.7394E-002  
  481.50  2.7032E-002  
  482.00  2.6577E-002  
  482.50  2.5877E-002  
  483.00  2.5271E-002  
  483.50  2.4661E-002  
  484.00  2.4333E-002  
  484.50  2.4339E-002  
  485.00  2.4339E-002  
  485.50  2.4169E-002  
  486.00  2.3861E-002  
  486.50  2.3509E-002  
  487.00  2.3376E-002  
  487.50  2.3443E-002  
  488.00  2.3528E-002  
  488.50  2.3727E-002  
  489.00  2.3859E-002  
  489.50  2.3703E-002  
  490.00  2.3880E-002  
  490.50  2.3947E-002  
  491.00  2.4167E-002  
  491.50  2.4346E-002  
  492.00  2.4654E-002  
  492.50  2.5316E-002  
  493.00  2.5981E-002  
  493.50  2.6646E-002  
  494.00  2.7331E-002  
  494.50  2.8012E-002  
  495.00  2.8726E-002  
  495.50  2.9407E-002  
  496.00  3.0102E-002  
  496.50  3.1058E-002  
  497.00  3.2082E-002  
  497.50  3.3161E-002  
  498.00  3.4249E-002  
  498.50  3.5360E-002  
  499.00  3.6444E-002  
  499.50  3.7737E-002  
  500.00  3.9164E-002  
  500.50  4.0690E-002  
  501.00  4.2230E-002  
  501.50  4.3797E-002  
  502.00  4.5390E-002  
  502.50  4.7080E-002  
  503.00  4.8737E-002  
  503.50  5.0408E-002  
  504.00  5.2110E-002  
  504.50  5.3825E-002  
  505.00  5.5593E-002  
  505.50  5.7437E-002  
  506.00  5.9385E-002  
  506.50  6.1399E-002  
  507.00  6.3521E-002  
  507.50  6.5704E-002  
  508.00  6.7942E-002  
  508.50  7.0022E-002  
  509.00  7.1852E-002  
  509.50  7.3584E-002  
  510.00  7.5554E-002  
  510.50  7.7927E-002  
  511.00  8.0470E-002  
  511.50  8.2725E-002  
  512.00  8.4598E-002  
  512.50  8.6276E-002  
  513.00  8.8058E-002  
  513.50  9.0136E-002  
  514.00  9.2226E-002  
  514.50  9.4521E-002  
  515.00  9.6663E-002  
  515.50  9.8709E-002  
  516.00  1.0087E-001  
  516.50  1.0302E-001  
  517.00  1.0515E-001  
  517.50  1.0689E-001  
  518.00  1.0866E-001  
  518.50  1.1044E-001  
  519.00  1.1224E-001  
  519.50  1.1387E-001  
  520.00  1.1552E-001  
  520.50  1.1716E-001  
  521.00  1.1907E-001  
  521.50  1.2077E-001  
  522.00  1.2238E-001  
  522.50  1.2388E-001  
  523.00  1.2528E-001  
  523.50  1.2679E-001  
  524.00  1.2836E-001  
  524.50  1.2995E-001  
  525.00  1.3154E-001  
  525.50  1.3278E-001  
  526.00  1.3413E-001  
  526.50  1.3528E-001  
  527.00  1.3670E-001  
  527.50  1.3820E-001  
  528.00  1.3977E-001  
  528.50  1.4141E-001  
  529.00  1.4258E-001  
  529.50  1.4347E-001  
  530.00  1.4418E-001  
  530.50  1.4527E-001  
  531.00  1.4631E-001  
  531.50  1.4728E-001  
  532.00  1.4832E-001  
  532.50  1.4947E-001  
  533.00  1.5044E-001  
  533.50  1.5115E-001  
  534.00  1.5145E-001  
  534.50  1.5212E-001  
  535.00  1.5308E-001  
  535.50  1.5391E-001  
  536.00  1.5441E-001  
  536.50  1.5478E-001  
  537.00  1.5532E-001  
  537.50  1.5586E-001  
  538.00  1.5662E-001  
  538.50  1.5746E-001  
  539.00  1.5844E-001  
  539.50  1.5948E-001  
  540.00  1.6020E-001  
  540.50  1.6089E-001  
  541.00  1.6105E-001  
  541.50  1.6103E-001  
  542.00  1.6126E-001  
  542.50  1.6168E-001  
  543.00  1.6247E-001  
  543.50  1.6299E-001  
  544.00  1.6334E-001  
  544.50  1.6343E-001  
  545.00  1.6353E-001  
  545.50  1.6362E-001  
  546.00  1.6416E-001  
  546.50  1.6476E-001  
  547.00  1.6546E-001  
  547.50  1.6573E-001  
  548.00  1.6553E-001  
  548.50  1.6517E-001  
  549.00  1.6523E-001  
  549.50  1.6537E-001  
  550.00  1.6547E-001  
  550.50  1.6577E-001  
  551.00  1.6604E-001  
  551.50  1.6643E-001  
  552.00  1.6668E-001  
  552.50  1.6666E-001  
  553.00  1.6682E-001  
  553.50  1.6723E-001  
  554.00  1.6760E-001  
  554.50  1.6784E-001  
  555.00  1.6782E-001  
  555.50  1.6780E-001  
  556.00  1.6814E-001  
  556.50  1.6829E-001  
  557.00  1.6817E-001  
  557.50  1.6802E-001  
  558.00  1.6785E-001  
  558.50  1.6774E-001  
  559.00  1.6784E-001  
  559.50  1.6789E-001  
  560.00  1.6807E-001  
  560.50  1.6809E-001  
  561.00  1.6790E-001  
  561.50  1.6759E-001  
  562.00  1.6746E-001  
  562.50  1.6751E-001  
  563.00  1.6788E-001  
  563.50  1.6841E-001  
  564.00  1.6840E-001  
  564.50  1.6830E-001  
  565.00  1.6798E-001  
  565.50  1.6749E-001  
  566.00  1.6732E-001  
  566.50  1.6685E-001  
  567.00  1.6646E-001  
  567.50  1.6599E-001  
  568.00  1.6533E-001  
  568.50  1.6480E-001  
  569.00  1.6428E-001  
  569.50  1.6411E-001  
  570.00  1.6420E-001  
  570.50  1.6455E-001  
  571.00  1.6457E-001  
  571.50  1.6426E-001  
  572.00  1.6384E-001  
  572.50  1.6339E-001  
  573.00  1.6321E-001  
  573.50  1.6269E-001  
  574.00  1.6207E-001  
  574.50  1.6149E-001  
  575.00  1.6111E-001  
  575.50  1.6079E-001  
  576.00  1.6052E-001  
  576.50  1.6011E-001  
  577.00  1.5999E-001  
  577.50  1.5967E-001  
  578.00  1.5910E-001  
  578.50  1.5856E-001  
  579.00  1.5826E-001  
  579.50  1.5800E-001  
  580.00  1.5786E-001  
  580.50  1.5708E-001  
  581.00  1.5658E-001  
  581.50  1.5610E-001  
  582.00  1.5572E-001  
  582.50  1.5518E-001  
  583.00  1.5458E-001  
  583.50  1.5388E-001  
  584.00  1.5327E-001  
  584.50  1.5294E-001  
  585.00  1.5221E-001  
  585.50  1.5112E-001  
  586.00  1.4970E-001  
  586.50  1.4886E-001  
  587.00  1.4857E-001  
  587.50  1.4835E-001  
  588.00  1.4808E-001  
  588.50  1.4781E-001  
  589.00  1.4723E-001  
  589.50  1.4647E-001  
  590.00  1.4582E-001  
  590.50  1.4514E-001  
  591.00  1.4442E-001  
  591.50  1.4369E-001  
  592.00  1.4330E-001  
  592.50  1.4284E-001  
  593.00  1.4204E-001  
  593.50  1.4084E-001  
  594.00  1.4018E-001  
  594.50  1.3960E-001  
  595.00  1.3920E-001  
  595.50  1.3840E-001  
  596.00  1.3758E-001  
  596.50  1.3617E-001  
  597.00  1.3491E-001  
  597.50  1.3368E-001  
  598.00  1.3316E-001  
  598.50  1.3275E-001  
  599.00  1.3248E-001  
  599.50  1.3206E-001  
  600.00  1.3128E-001  
  600.50  1.3008E-001  
  601.00  1.2893E-001  
  601.50  1.2788E-001  
  602.00  1.2692E-001  
  602.50  1.2600E-001  
  603.00  1.2512E-001  
  603.50  1.2412E-001  
  604.00  1.2321E-001  
  604.50  1.2228E-001  
  605.00  1.2159E-001  
  605.50  1.2069E-001  
  606.00  1.1971E-001  
  606.50  1.1860E-001  
  607.00  1.1772E-001  
  607.50  1.1681E-001  
  608.00  1.1614E-001  
  608.50  1.1523E-001  
  609.00  1.1444E-001  
  609.50  1.1339E-001  
  610.00  1.1273E-001  
  610.50  1.1198E-001  
  611.00  1.1107E-001  
  611.50  1.1011E-001  
  612.00  1.0937E-001  
  612.50  1.0906E-001  
  613.00  1.0871E-001  
  613.50  1.0841E-001  
  614.00  1.0771E-001  
  614.50  1.0693E-001  
  615.00  1.0563E-001  
  615.50  1.0442E-001  
  616.00  1.0343E-001  
  616.50  1.0249E-001  
  617.00  1.0162E-001  
  617.50  1.0086E-001  
  618.00  1.0015E-001  
  618.50  9.9753E-002  
  619.00  9.9063E-002  
  619.50  9.8715E-002  
  620.00  9.8066E-002  
  620.50  9.7149E-002  
  621.00  9.5977E-002  
  621.50  9.5112E-002  
  622.00  9.4462E-002  
  622.50  9.3516E-002  
  623.00  9.2422E-002  
  623.50  9.1551E-002  
  624.00  9.0958E-002  
  624.50  9.0365E-002  
  625.00  8.9510E-002  
  625.50  8.8828E-002  
  626.00  8.8018E-002  
  626.50  8.7203E-002  
  627.00  8.6362E-002  
  627.50  8.5654E-002  
  628.00  8.4907E-002  
  628.50  8.4393E-002  
  629.00  8.3877E-002  
  629.50  8.3078E-002  
  630.00  8.2261E-002  
  630.50  8.1093E-002  
  631.00  7.9826E-002  
  631.50  7.8846E-002  
  632.00  7.8078E-002  
  632.50  7.7536E-002  
  633.00  7.6681E-002  
  633.50  7.5816E-002  
  634.00  7.5192E-002  
  634.50  7.4410E-002  
  635.00  7.3803E-002  
  635.50  7.3012E-002  
  636.00  7.2242E-002  
  636.50  7.1390E-002  
  637.00  7.0760E-002  
  637.50  7.0468E-002  
  638.00  6.9778E-002  
  638.50  6.8954E-002  
  639.00  6.7965E-002  
  639.50  6.7335E-002  
  640.00  6.6717E-002  
  640.50  6.6135E-002  
  641.00  6.5281E-002  
  641.50  6.4321E-002  
  642.00  6.3513E-002  
  642.50  6.2555E-002  
  643.00  6.2001E-002  
  643.50  6.1375E-002  
  644.00  6.1144E-002  
  644.50  6.0734E-002  
  645.00  5.9776E-002  
  645.50  5.8533E-002  
  646.00  5.7375E-002  
  646.50  5.6997E-002  
  647.00  5.6800E-002  
  647.50  5.6475E-002  
  648.00  5.5902E-002  
  648.50  5.4968E-002  
  649.00  5.4163E-002  
  649.50  5.3615E-002  
  650.00  5.3236E-002  
  650.50  5.2803E-002  
  651.00  5.1985E-002  
  651.50  5.0958E-002  
  652.00  5.0209E-002  
  652.50  4.9812E-002  
  653.00  4.9936E-002  
  653.50  4.9406E-002  
  654.00  4.8421E-002  
  654.50  4.7416E-002  
  655.00  4.6941E-002  
  655.50  4.6474E-002  
  656.00  4.5626E-002  
  656.50  4.4838E-002  
  657.00  4.4642E-002  
  657.50  4.4677E-002  
  658.00  4.4015E-002  
  658.50  4.3047E-002  
  659.00  4.2347E-002  
  659.50  4.2201E-002  
  660.00  4.1878E-002  
  660.50  4.1044E-002  
  661.00  3.9975E-002  
  661.50  3.8876E-002  
  662.00  3.7907E-002  
  662.50  3.7564E-002  
  663.00  3.7055E-002  
  663.50  3.6669E-002  
  664.00  3.6025E-002  
  664.50  3.5623E-002  
  665.00  3.5093E-002  
  665.50  3.4490E-002  
  666.00  3.3860E-002  
  666.50  3.3426E-002  
  667.00  3.2501E-002  
  667.50  3.1864E-002  
  668.00  3.1067E-002  
  668.50  3.0611E-002  
  669.00  2.9786E-002  
  669.50  2.8829E-002  
  670.00  2.7946E-002  
  670.50  2.7710E-002  
  671.00  2.7675E-002  
  671.50  2.7458E-002  
  672.00  2.6808E-002  
  672.50  2.6334E-002  
  673.00  2.6001E-002  
  673.50  2.5738E-002  
  674.00  2.5591E-002  
  674.50  2.5408E-002  
  675.00  2.5035E-002  
  675.50  2.4344E-002  
  676.00  2.3957E-002  
  676.50  2.3901E-002  
  677.00  2.3864E-002  
  677.50  2.3776E-002  
  678.00  2.3084E-002  
  678.50  2.2683E-002  
  679.00  2.2544E-002  
  679.50  2.3002E-002  
  680.00  2.2814E-002  
  680.50  2.2271E-002  
  681.00  2.1742E-002  
  681.50  2.1466E-002  
  682.00  2.1245E-002  
  682.50  2.0799E-002  
  683.00  2.0578E-002  
  683.50  2.0596E-002  
  684.00  2.0444E-002  
  684.50  2.0364E-002  
  685.00  2.0214E-002  
  685.50  2.0232E-002  
  686.00  2.0077E-002  
  686.50  1.9878E-002  
  687.00  1.9557E-002  
  687.50  1.9106E-002  
  688.00  1.8705E-002  
  688.50  1.8782E-002  
  689.00  1.8609E-002  
  689.50  1.8452E-002  
  690.00  1.8313E-002  
  690.50  1.8572E-002  
  691.00  1.8842E-002  
  691.50  1.8791E-002  
  692.00  1.8672E-002  
  692.50  1.8404E-002  
  693.00  1.8250E-002  
  693.50  1.7846E-002  
  694.00  1.7305E-002  
  694.50  1.6311E-002  
  695.00  1.5948E-002  
  695.50  1.6108E-002  
  696.00  1.6915E-002  
  696.50  1.7242E-002  
  697.00  1.6852E-002  
  697.50  1.6102E-002  
  698.00  1.5709E-002  
  698.50  1.5830E-002  
  699.00  1.6014E-002  
  699.50  1.5815E-002  
  700.00  1.5352E-002  
  700.50  1.4699E-002  
  701.00  1.4323E-002  
  701.50  1.4239E-002  
  702.00  1.4503E-002  
  702.50  1.4463E-002  
  703.00  1.4475E-002  
  703.50  1.4148E-002  
  704.00  1.4028E-002  
  704.50  1.3825E-002  
  705.00  1.3913E-002  
  705.50  1.3813E-002  
  706.00  1.3538E-002  
  706.50  1.3196E-002  
  707.00  1.3003E-002  
  707.50  1.2577E-002  
  708.00  1.1904E-002  
  708.50  1.1812E-002  
  709.00  1.2190E-002  
  709.50  1.2471E-002  
  710.00  1.1923E-002  
  710.50  1.1390E-002  
  711.00  1.0963E-002  
  711.50  1.1083E-002  
  712.00  1.1197E-002  
  712.50  1.1495E-002  
  713.00  1.1652E-002  
  713.50  1.0988E-002  
  714.00  1.0434E-002  
  714.50  1.0298E-002  
  715.00  1.0626E-002  
  715.50  1.0126E-002  
  716.00  9.6470E-003  
  716.50  9.6235E-003  
  717.00  9.3724E-003  
  717.50  9.3480E-003  
  718.00  9.6159E-003  
  718.50  9.9847E-003  
  719.00  9.3298E-003  
  719.50  8.4030E-003  
  720.00  8.2872E-003  
  720.50  8.9239E-003  
  721.00  9.3510E-003  
  721.50  9.0248E-003  
  722.00  8.9186E-003  
  722.50  8.5564E-003  
  723.00  8.6526E-003  
  723.50  8.1902E-003  
  724.00  8.0146E-003  
  724.50  7.4034E-003  
  725.00  6.9376E-003  
  725.50  6.8437E-003  
  726.00  7.0482E-003  
  726.50  7.2908E-003  
  727.00  7.5281E-003  
  727.50  7.6241E-003  
  728.00  7.7683E-003  
  728.50  7.5393E-003  
  729.00  7.8670E-003  
  729.50  8.1019E-003  
  730.00  8.3402E-003  
  730.50  8.0447E-003  
  731.00  8.1965E-003  
  731.50  7.8016E-003  
  732.00  7.1362E-003  
  732.50  6.3666E-003  
  733.00  6.2096E-003  
  733.50  5.7935E-003  
  734.00  5.3462E-003  
  734.50  5.1226E-003  
  735.00  5.2483E-003  
  735.50  6.0627E-003  
  736.00  6.6265E-003  
  736.50  6.2370E-003  
  737.00  4.9275E-003  
  737.50  3.9600E-003  
  738.00  3.8188E-003  
  738.50  4.1058E-003  
  739.00  4.1215E-003  
  739.50  4.1655E-003  
  740.00  3.8788E-003  
  740.50  3.9295E-003  
  741.00  4.1630E-003  
  741.50  4.2412E-003  
  742.00  4.2648E-003  
  742.50  5.0248E-003  
  743.00  5.2903E-003  
  743.50  5.3346E-003  
  744.00  4.7726E-003  
  744.50  4.2072E-003  
  745.00  3.7955E-003  
  745.50  3.7320E-003  
  746.00  4.1011E-003  
  746.50  3.9733E-003  
  747.00  3.7567E-003  
  747.50  3.9938E-003  
  748.00  4.8203E-003  
  748.50  4.7440E-003  
  749.00  3.9865E-003  
  749.50  3.9068E-003  
  750.00  4.0695E-003  
  750.50  4.7860E-003  
  751.00  4.9611E-003  
  751.50  5.3711E-003  
  752.00  4.6966E-003  
  752.50  4.1048E-003  
  753.00  3.8884E-003  
  753.50  3.7232E-003  
  754.00  2.7760E-003  
  754.50  2.0768E-003  
  755.00  2.5391E-003  
  755.50  3.3636E-003  
  756.00  3.3944E-003  
  756.50  2.9339E-003  
  757.00  2.4383E-003  
  757.50  2.5857E-003  
  758.00  2.7098E-003  
  758.50  2.5385E-003  
  759.00  2.3365E-003  
  759.50  2.0997E-003  
  760.00  1.9846E-003  
  760.50  2.3267E-003  
  761.00  2.9723E-003  
  761.50  3.5781E-003  
  762.00  3.2994E-003  
  762.50  2.8329E-003  
  763.00  2.3678E-003  
  763.50  1.5566E-003  
  764.00  1.1591E-003  
  764.50  1.5384E-003  
  765.00  1.6915E-003  
  765.50  1.7216E-003  
  766.00  1.7840E-003  
  766.50  2.4080E-003  
  767.00  2.4297E-003  
  767.50  1.9110E-003  
  768.00  2.0801E-003  
  768.50  1.7925E-003  
  769.00  1.1828E-003  
  769.50  5.8818E-004  
  770.00  8.7735E-004  
  770.50  1.1459E-003  
  771.00  7.5371E-004  
  771.50  9.7782E-004  
  772.00  1.5754E-003  
  772.50  1.3007E-003  
  773.00  7.1240E-004  
  773.50  4.8016E-004  
  774.00  9.1448E-006  
  774.50  0.0000E+000  
  775.00  2.1484E-004  
  775.50  6.8395E-004  
  776.00  1.4170E-004  
  776.50  0.0000E+000  
  777.00  1.4879E-003  
  777.50  2.6259E-003  
  778.00  1.9077E-003  
  778.50  9.6798E-004  
  779.00  1.1387E-003  
  779.50  1.6122E-003  
  780.00  1.3412E-003  
  780.50  9.2305E-004  
  781.00  1.1085E-003  
  781.50  7.9963E-004  
  782.00  6.0019E-004  
  782.50  5.4177E-004  
  783.00  7.4958E-004  
  783.50  2.7944E-004  
  784.00  0.0000E+000  
  784.50  1.1493E-004  
  785.00  5.3364E-004  
  785.50  8.7398E-004  
  786.00  9.6304E-004  
  786.50  8.8141E-004  
  787.00  5.9078E-004  
  787.50  3.1759E-005  
  788.00  2.5847E-004  
  788.50  8.1167E-005  
  789.00  0.0000E+000  
  789.50  0.0000E+000  
  790.00  6.7413E-005  
  790.50  0.0000E+000  
  791.00  0.0000E+000  
  791.50  0.0000E+000  
  792.00  0.0000E+000  
  792.50  0.0000E+000  
  793.00  8.1377E-004  
  793.50  1.1892E-003  
  794.00  3.3230E-004  
  794.50  1.1889E-004  
  795.00  7.9106E-004  
  795.50  1.1299E-003  
  796.00  9.1181E-004  
  796.50  0.0000E+000  
  797.00  0.0000E+000  
  797.50  0.0000E+000  
  798.00  0.0000E+000  
  798.50  0.0000E+000  
  799.00  0.0000E+000  
  799.50  0.0000E+000  
  800.00  0.0000E+000  
  800.50  5.3407E-004  
  801.00  4.4885E-004  
  801.50  0.0000E+000  
  802.00  0.0000E+000  
  802.50  0.0000E+000  
  803.00  0.0000E+000  
  803.50  7.0757E-004  
  804.00  1.9491E-003  
  804.50  4.1298E-004  
  805.00  0.0000E+000  
  805.50  5.8157E-005  
  806.00  7.0903E-004  
  806.50  1.5069E-006  
  807.00  0.0000E+000  
  807.50  0.0000E+000  
  808.00  0.0000E+000  
  808.50  0.0000E+000  
  809.00  0.0000E+000  
  809.50  9.9985E-005  
  810.00  9.1786E-005  
  810.50  1.4295E-004  
  811.00  1.8303E-004  
  811.50  1.8972E-003  
  812.00  1.2983E-003  
  812.50  1.7287E-004  
  813.00  0.0000E+000  
  813.50  0.0000E+000  
  814.00  0.0000E+000  
  814.50  0.0000E+000  
  815.00  0.0000E+000  
  815.50  0.0000E+000  
  816.00  0.0000E+000  
  816.50  0.0000E+000  
  817.00  0.0000E+000  
  817.50  0.0000E+000  
  818.00  0.0000E+000  
  818.50  0.0000E+000  
  819.00  0.0000E+000  
  819.50  2.7363E-006  
  820.00  9.3098E-005  
  820.50  1.3133E-005  
  821.00  0.0000E+000  
  821.50  0.0000E+000  
  822.00  0.0000E+000  
  822.50  0.0000E+000  
  823.00  7.9246E-004  
  823.50  6.6671E-005  
  824.00  0.0000E+000  
  824.50  0.0000E+000  
  825.00  1.5754E-004  
  825.50  6.6033E-005  
  826.00  0.0000E+000  
  826.50  0.0000E+000  
  827.00  1.3186E-003  
  827.50  1.4428E-003  
  828.00  1.8309E-004  
  828.50  0.0000E+000  
  829.00  0.0000E+000  
  829.50  0.0000E+000  
  830.00  0.0000E+000  
  830.50  0.0000E+000  
  831.00  0.0000E+000  
  831.50  0.0000E+000  
  832.00  0.0000E+000  
  832.50  0.0000E+000  
  833.00  0.0000E+000  
  833.50  0.0000E+000  
  834.00  0.0000E+000  
  834.50  0.0000E+000  
  835.00  0.0000E+000  
  835.50  0.0000E+000  
  836.00  0.0000E+000  
  836.50  0.0000E+000  
  837.00  0.0000E+000  
  837.50  0.0000E+000  
  838.00  0.0000E+000  
  838.50  0.0000E+000  
  839.00  0.0000E+000  
  839.50  0.0000E+000  
  840.00  4.4673E-005  
  840.50  6.0276E-004  
  841.00  0.0000E+000  
  841.50  0.0000E+000  
  842.00  0.0000E+000  
  842.50  0.0000E+000  
  843.00  0.0000E+000  
  843.50  0.0000E+000  
  844.00  0.0000E+000  
  844.50  0.0000E+000  
  845.00  0.0000E+000  
  845.50  0.0000E+000  
  846.00  0.0000E+000  
  846.50  0.0000E+000  
  847.00  0.0000E+000  
  847.50  0.0000E+000  
  848.00  0.0000E+000  
  848.50  0.0000E+000  
  849.00  0.0000E+000  
  849.50  0.0000E+000  
  850.00  1.2289E-003  
  850.50  1.9913E-003  
  851.00  3.3564E-004  
  851.50  1.0927E-003  
  852.00  0.0000E+000  
  852.50  0.0000E+000  
  853.00  0.0000E+000  
  853.50  0.0000E+000  
  854.00  0.0000E+000  
  854.50  0.0000E+000  
  855.00  0.0000E+000  
  855.50  0.0000E+000  
  856.00  0.0000E+000  
  856.50  0.0000E+000  
  857.00  0.0000E+000  
  857.50  0.0000E+000  
  858.00  0.0000E+000  
  858.50  0.0000E+000  
  859.00  0.0000E+000  
  859.50  0.0000E+000  
  860.00  0.0000E+000  
  860.50  0.0000E+000  
  861.00  0.0000E+000  
  861.50  0.0000E+000  
  862.00  0.0000E+000  
  862.50  0.0000E+000  
  863.00  0.0000E+000  
  863.50  0.0000E+000  
  864.00  1.1349E-004  
  864.50  0.0000E+000  
  865.00  0.0000E+000  
  865.50  0.0000E+000  
  866.00  0.0000E+000  
  866.50  7.6748E-004  
  867.00  4.5121E-004  
  867.50  0.0000E+000  
  868.00  0.0000E+000  
  868.50  0.0000E+000  
  869.00  0.0000E+000  
  869.50  9.4443E-005  
  870.00  1.3541E-003  
  870.50  3.5958E-004  
  871.00  2.4377E-005  
  871.50  0.0000E+000  
  872.00  0.0000E+000  
  872.50  0.0000E+000  
  873.00  1.7449E-003  
  873.50  8.2910E-004  
  874.00  0.0000E+000  
  874.50  0.0000E+000  
  875.00  0.0000E+000  
  875.50  2.4389E-004  
  876.00  0.0000E+000  
  876.50  0.0000E+000  
  877.00  0.0000E+000  
  877.50  0.0000E+000  
  878.00  0.0000E+000  
  878.50  0.0000E+000  
  879.00  0.0000E+000  
  879.50  0.0000E+000  
  880.00  0.0000E+000  
  880.50  0.0000E+000  
  881.00  0.0000E+000  
  881.50  0.0000E+000  
  882.00  4.2061E-004  
  882.50  4.0106E-003  
  883.00  4.2115E-003  
  883.50  2.5670E-003  
  884.00  4.1864E-003  
  884.50  3.1280E-003  
  885.00  6.7677E-004  
  885.50  0.0000E+000  
  886.00  0.0000E+000  
  886.50  0.0000E+000  
  887.00  7.2358E-004  
  887.50  0.0000E+000  
  888.00  0.0000E+000  
  888.50  0.0000E+000  
  889.00  0.0000E+000  
  889.50  2.9274E-003  
  890.00  2.4960E-003  
  890.50  0.0000E+000  
  891.00  0.0000E+000  
  891.50  0.0000E+000  
  892.00  0.0000E+000  
  892.50  9.7825E-006  
  893.00  2.7853E-004  
  893.50  0.0000E+000  
  894.00  0.0000E+000  
  894.50  0.0000E+000  
  895.00  0.0000E+000  
  895.50  0.0000E+000  
  896.00  0.0000E+000  
  896.50  0.0000E+000  
  897.00  6.0077E-004  
  897.50  5.6801E-003  
  898.00  5.1057E-003  
  898.50  0.0000E+000  
  899.00  0.0000E+000  
  899.50  0.0000E+000  
