
# From lspdd.org
# 
# Name: DEL RAB-Design Wall-Light Domestique
# Indice spectral Valeur 
# MSI 0.53 
# SLI 0.67 
# IPI 0.62 
# Pourcentage de bleu 34.2 
# Caractéristique Valeur 
# CCT calculée (K) 4807 
# CCT du fabricant (K) 5000 
# Tension (V) 120 
# Puissance (W) 14.0 
# Efficacité lumineuse (Lum/W) 91.0 
#
# Image: '/app/system/img_1s/2647/medium_image1.jpg?1432223001'
# 

  273.00  0.0000E+000  
  273.50  0.0000E+000  
  274.00  0.0000E+000  
  274.50  0.0000E+000  
  275.00  0.0000E+000  
  275.50  0.0000E+000  
  276.00  0.0000E+000  
  276.50  0.0000E+000  
  277.00  0.0000E+000  
  277.50  0.0000E+000  
  278.00  0.0000E+000  
  278.50  0.0000E+000  
  279.00  0.0000E+000  
  279.50  0.0000E+000  
  280.00  0.0000E+000  
  280.50  0.0000E+000  
  281.00  0.0000E+000  
  281.50  0.0000E+000  
  282.00  0.0000E+000  
  282.50  0.0000E+000  
  283.00  0.0000E+000  
  283.50  0.0000E+000  
  284.00  0.0000E+000  
  284.50  0.0000E+000  
  285.00  0.0000E+000  
  285.50  0.0000E+000  
  286.00  0.0000E+000  
  286.50  0.0000E+000  
  287.00  0.0000E+000  
  287.50  0.0000E+000  
  288.00  0.0000E+000  
  288.50  0.0000E+000  
  289.00  0.0000E+000  
  289.50  0.0000E+000  
  290.00  0.0000E+000  
  290.50  0.0000E+000  
  291.00  0.0000E+000  
  291.50  0.0000E+000  
  292.00  0.0000E+000  
  292.50  0.0000E+000  
  293.00  0.0000E+000  
  293.50  0.0000E+000  
  294.00  0.0000E+000  
  294.50  0.0000E+000  
  295.00  0.0000E+000  
  295.50  0.0000E+000  
  296.00  0.0000E+000  
  296.50  0.0000E+000  
  297.00  0.0000E+000  
  297.50  0.0000E+000  
  298.00  0.0000E+000  
  298.50  0.0000E+000  
  299.00  0.0000E+000  
  299.50  0.0000E+000  
  300.00  2.7519E-004  
  300.50  6.6193E-004  
  301.00  5.9478E-004  
  301.50  5.1773E-004  
  302.00  3.7370E-004  
  302.50  3.2638E-004  
  303.00  1.2896E-005  
  303.50  0.0000E+000  
  304.00  0.0000E+000  
  304.50  1.2543E-006  
  305.00  1.9832E-004  
  305.50  7.5970E-004  
  306.00  1.0666E-003  
  306.50  1.0252E-003  
  307.00  7.9414E-004  
  307.50  6.5372E-004  
  308.00  7.4962E-004  
  308.50  9.0161E-004  
  309.00  9.7039E-004  
  309.50  6.7164E-004  
  310.00  6.1033E-004  
  310.50  8.9844E-004  
  311.00  1.0363E-003  
  311.50  1.1381E-003  
  312.00  1.0942E-003  
  312.50  7.0302E-004  
  313.00  7.6499E-004  
  313.50  1.2503E-003  
  314.00  1.4277E-003  
  314.50  1.8383E-003  
  315.00  1.7475E-003  
  315.50  1.3672E-003  
  316.00  9.1356E-004  
  316.50  5.8018E-004  
  317.00  2.2496E-004  
  317.50  4.8134E-005  
  318.00  1.1427E-006  
  318.50  6.0780E-007  
  319.00  3.0685E-004  
  319.50  3.8893E-004  
  320.00  8.5653E-004  
  320.50  1.3077E-003  
  321.00  1.3611E-003  
  321.50  1.6917E-003  
  322.00  1.9146E-003  
  322.50  2.0643E-003  
  323.00  2.1812E-003  
  323.50  1.5344E-003  
  324.00  7.4851E-004  
  324.50  2.1945E-004  
  325.00  1.9007E-004  
  325.50  5.4925E-004  
  326.00  8.4109E-004  
  326.50  1.0997E-003  
  327.00  8.5708E-004  
  327.50  6.9673E-004  
  328.00  6.5863E-004  
  328.50  3.3024E-004  
  329.00  3.9006E-004  
  329.50  3.4148E-004  
  330.00  1.6763E-004  
  330.50  3.6596E-005  
  331.00  1.8292E-006  
  331.50  1.4625E-005  
  332.00  2.5700E-004  
  332.50  6.4790E-004  
  333.00  7.8619E-004  
  333.50  6.0820E-004  
  334.00  3.9974E-004  
  334.50  1.5335E-004  
  335.00  3.6241E-004  
  335.50  7.1462E-004  
  336.00  6.2170E-004  
  336.50  3.0939E-004  
  337.00  3.1480E-005  
  337.50  0.0000E+000  
  338.00  5.8535E-004  
  338.50  1.2567E-003  
  339.00  1.9322E-003  
  339.50  2.2584E-003  
  340.00  1.9360E-003  
  340.50  1.3801E-003  
  341.00  9.9575E-004  
  341.50  8.6764E-004  
  342.00  6.4745E-004  
  342.50  3.4514E-004  
  343.00  1.1265E-004  
  343.50  1.1651E-006  
  344.00  3.8056E-004  
  344.50  8.2424E-004  
  345.00  9.2427E-004  
  345.50  1.0131E-003  
  346.00  9.9948E-004  
  346.50  8.6790E-004  
  347.00  1.1420E-003  
  347.50  1.3656E-003  
  348.00  1.9662E-003  
  348.50  2.2590E-003  
  349.00  2.2651E-003  
  349.50  2.0019E-003  
  350.00  1.4009E-003  
  350.50  9.5468E-004  
  351.00  8.4732E-004  
  351.50  7.2648E-004  
  352.00  6.7314E-004  
  352.50  6.8430E-004  
  353.00  7.5594E-004  
  353.50  8.6569E-004  
  354.00  1.3962E-003  
  354.50  2.0621E-003  
  355.00  2.3924E-003  
  355.50  2.3570E-003  
  356.00  1.8660E-003  
  356.50  1.1276E-003  
  357.00  1.0786E-003  
  357.50  8.4923E-004  
  358.00  8.7994E-004  
  358.50  1.0858E-003  
  359.00  9.2807E-004  
  359.50  1.2079E-003  
  360.00  1.2576E-003  
  360.50  1.3783E-003  
  361.00  1.6494E-003  
  361.50  1.7435E-003  
  362.00  1.7267E-003  
  362.50  1.7272E-003  
  363.00  1.6807E-003  
  363.50  1.6788E-003  
  364.00  1.8765E-003  
  364.50  1.7202E-003  
  365.00  1.6338E-003  
  365.50  1.5903E-003  
  366.00  1.5394E-003  
  366.50  1.8933E-003  
  367.00  2.0831E-003  
  367.50  2.0864E-003  
  368.00  1.6988E-003  
  368.50  1.2398E-003  
  369.00  1.0928E-003  
  369.50  1.2067E-003  
  370.00  1.6552E-003  
  370.50  2.0755E-003  
  371.00  2.1306E-003  
  371.50  1.9082E-003  
  372.00  1.4856E-003  
  372.50  1.0785E-003  
  373.00  1.0670E-003  
  373.50  1.1043E-003  
  374.00  9.7561E-004  
  374.50  1.0495E-003  
  375.00  1.3721E-003  
  375.50  1.8263E-003  
  376.00  2.4488E-003  
  376.50  2.6965E-003  
  377.00  2.5062E-003  
  377.50  2.1354E-003  
  378.00  1.8035E-003  
  378.50  1.5264E-003  
  379.00  1.7248E-003  
  379.50  1.9122E-003  
  380.00  2.2859E-003  
  380.50  2.2909E-003  
  381.00  2.2251E-003  
  381.50  1.9236E-003  
  382.00  1.5884E-003  
  382.50  1.8833E-003  
  383.00  1.9662E-003  
  383.50  2.2275E-003  
  384.00  2.4848E-003  
  384.50  2.4560E-003  
  385.00  2.6691E-003  
  385.50  2.7251E-003  
  386.00  2.7130E-003  
  386.50  2.5971E-003  
  387.00  2.8487E-003  
  387.50  2.9857E-003  
  388.00  3.0318E-003  
  388.50  3.1735E-003  
  389.00  3.1580E-003  
  389.50  3.3704E-003  
  390.00  3.2107E-003  
  390.50  3.1089E-003  
  391.00  3.1960E-003  
  391.50  3.1757E-003  
  392.00  3.3455E-003  
  392.50  3.1711E-003  
  393.00  3.0547E-003  
  393.50  3.1452E-003  
  394.00  3.0775E-003  
  394.50  3.0929E-003  
  395.00  3.4491E-003  
  395.50  3.6533E-003  
  396.00  3.7736E-003  
  396.50  3.8359E-003  
  397.00  3.7557E-003  
  397.50  3.9239E-003  
  398.00  4.2776E-003  
  398.50  4.5489E-003  
  399.00  4.7797E-003  
  399.50  4.6678E-003  
  400.00  4.5596E-003  
  400.50  4.5778E-003  
  401.00  4.8006E-003  
  401.50  5.1251E-003  
  402.00  5.2006E-003  
  402.50  5.3537E-003  
  403.00  5.3880E-003  
  403.50  5.6716E-003  
  404.00  5.8890E-003  
  404.50  6.1293E-003  
  405.00  6.8146E-003  
  405.50  7.5178E-003  
  406.00  8.3198E-003  
  406.50  9.0078E-003  
  407.00  9.5270E-003  
  407.50  1.0180E-002  
  408.00  1.0686E-002  
  408.50  1.0989E-002  
  409.00  1.1160E-002  
  409.50  1.1437E-002  
  410.00  1.2053E-002  
  410.50  1.2823E-002  
  411.00  1.3565E-002  
  411.50  1.4447E-002  
  412.00  1.5666E-002  
  412.50  1.7187E-002  
  413.00  1.8982E-002  
  413.50  2.0575E-002  
  414.00  2.1940E-002  
  414.50  2.3148E-002  
  415.00  2.4462E-002  
  415.50  2.5834E-002  
  416.00  2.7675E-002  
  416.50  2.9832E-002  
  417.00  3.1820E-002  
  417.50  3.4308E-002  
  418.00  3.6923E-002  
  418.50  3.9838E-002  
  419.00  4.3330E-002  
  419.50  4.6473E-002  
  420.00  5.0100E-002  
  420.50  5.4010E-002  
  421.00  5.8194E-002  
  421.50  6.2703E-002  
  422.00  6.7113E-002  
  422.50  7.1681E-002  
  423.00  7.6478E-002  
  423.50  8.1345E-002  
  424.00  8.6851E-002  
  424.50  9.2357E-002  
  425.00  9.8802E-002  
  425.50  1.0561E-001  
  426.00  1.1289E-001  
  426.50  1.2048E-001  
  427.00  1.2887E-001  
  427.50  1.3816E-001  
  428.00  1.4833E-001  
  428.50  1.5845E-001  
  429.00  1.6839E-001  
  429.50  1.7885E-001  
  430.00  1.8954E-001  
  430.50  2.0116E-001  
  431.00  2.1324E-001  
  431.50  2.2442E-001  
  432.00  2.3601E-001  
  432.50  2.4777E-001  
  433.00  2.6056E-001  
  433.50  2.7515E-001  
  434.00  2.9113E-001  
  434.50  3.0579E-001  
  435.00  3.2047E-001  
  435.50  3.3629E-001  
  436.00  3.5395E-001  
  436.50  3.7379E-001  
  437.00  3.9474E-001  
  437.50  4.1498E-001  
  438.00  4.3627E-001  
  438.50  4.5914E-001  
  439.00  4.8291E-001  
  439.50  5.0974E-001  
  440.00  5.3878E-001  
  440.50  5.6920E-001  
  441.00  5.9961E-001  
  441.50  6.3000E-001  
  442.00  6.6182E-001  
  442.50  6.9418E-001  
  443.00  7.2641E-001  
  443.50  7.5780E-001  
  444.00  7.9086E-001  
  444.50  8.2518E-001  
  445.00  8.5789E-001  
  445.50  8.8639E-001  
  446.00  9.1011E-001  
  446.50  9.3043E-001  
  447.00  9.4830E-001  
  447.50  9.6051E-001  
  448.00  9.7010E-001  
  448.50  9.7263E-001  
  449.00  9.6930E-001  
  449.50  9.6077E-001  
  450.00  9.4934E-001  
  450.50  9.3585E-001  
  451.00  9.1982E-001  
  451.50  8.9387E-001  
  452.00  8.6469E-001  
  452.50  8.3105E-001  
  453.00  7.9791E-001  
  453.50  7.6481E-001  
  454.00  7.2870E-001  
  454.50  6.9222E-001  
  455.00  6.5625E-001  
  455.50  6.2062E-001  
  456.00  5.8470E-001  
  456.50  5.5088E-001  
  457.00  5.1969E-001  
  457.50  4.9316E-001  
  458.00  4.6800E-001  
  458.50  4.4608E-001  
  459.00  4.2511E-001  
  459.50  4.0489E-001  
  460.00  3.8576E-001  
  460.50  3.6780E-001  
  461.00  3.5360E-001  
  461.50  3.4095E-001  
  462.00  3.2786E-001  
  462.50  3.1471E-001  
  463.00  3.0187E-001  
  463.50  2.9067E-001  
  464.00  2.8046E-001  
  464.50  2.6941E-001  
  465.00  2.5884E-001  
  465.50  2.4811E-001  
  466.00  2.3844E-001  
  466.50  2.2929E-001  
  467.00  2.2062E-001  
  467.50  2.1175E-001  
  468.00  2.0251E-001  
  468.50  1.9369E-001  
  469.00  1.8534E-001  
  469.50  1.7733E-001  
  470.00  1.6967E-001  
  470.50  1.6256E-001  
  471.00  1.5565E-001  
  471.50  1.4909E-001  
  472.00  1.4212E-001  
  472.50  1.3496E-001  
  473.00  1.2858E-001  
  473.50  1.2337E-001  
  474.00  1.1873E-001  
  474.50  1.1449E-001  
  475.00  1.1041E-001  
  475.50  1.0657E-001  
  476.00  1.0309E-001  
  476.50  9.9828E-002  
  477.00  9.7194E-002  
  477.50  9.4902E-002  
  478.00  9.2763E-002  
  478.50  9.0726E-002  
  479.00  8.8239E-002  
  479.50  8.6129E-002  
  480.00  8.4316E-002  
  480.50  8.2929E-002  
  481.00  8.2024E-002  
  481.50  8.1026E-002  
  482.00  7.9957E-002  
  482.50  7.8507E-002  
  483.00  7.7170E-002  
  483.50  7.6230E-002  
  484.00  7.5318E-002  
  484.50  7.4979E-002  
  485.00  7.4397E-002  
  485.50  7.4088E-002  
  486.00  7.3692E-002  
  486.50  7.3173E-002  
  487.00  7.2959E-002  
  487.50  7.3160E-002  
  488.00  7.3817E-002  
  488.50  7.4686E-002  
  489.00  7.5619E-002  
  489.50  7.6419E-002  
  490.00  7.7368E-002  
  490.50  7.8532E-002  
  491.00  7.9941E-002  
  491.50  8.1813E-002  
  492.00  8.3795E-002  
  492.50  8.6102E-002  
  493.00  8.8270E-002  
  493.50  9.0726E-002  
  494.00  9.3412E-002  
  494.50  9.6479E-002  
  495.00  9.9824E-002  
  495.50  1.0330E-001  
  496.00  1.0705E-001  
  496.50  1.1115E-001  
  497.00  1.1563E-001  
  497.50  1.2045E-001  
  498.00  1.2535E-001  
  498.50  1.3061E-001  
  499.00  1.3607E-001  
  499.50  1.4196E-001  
  500.00  1.4773E-001  
  500.50  1.5371E-001  
  501.00  1.5945E-001  
  501.50  1.6556E-001  
  502.00  1.7189E-001  
  502.50  1.7875E-001  
  503.00  1.8606E-001  
  503.50  1.9324E-001  
  504.00  2.0046E-001  
  504.50  2.0798E-001  
  505.00  2.1562E-001  
  505.50  2.2385E-001  
  506.00  2.3207E-001  
  506.50  2.4043E-001  
  507.00  2.4922E-001  
  507.50  2.5776E-001  
  508.00  2.6649E-001  
  508.50  2.7506E-001  
  509.00  2.8316E-001  
  509.50  2.9151E-001  
  510.00  2.9995E-001  
  510.50  3.0893E-001  
  511.00  3.1811E-001  
  511.50  3.2757E-001  
  512.00  3.3662E-001  
  512.50  3.4535E-001  
  513.00  3.5360E-001  
  513.50  3.6242E-001  
  514.00  3.7143E-001  
  514.50  3.8053E-001  
  515.00  3.8925E-001  
  515.50  3.9725E-001  
  516.00  4.0533E-001  
  516.50  4.1350E-001  
  517.00  4.2125E-001  
  517.50  4.2881E-001  
  518.00  4.3637E-001  
  518.50  4.4402E-001  
  519.00  4.5146E-001  
  519.50  4.5872E-001  
  520.00  4.6547E-001  
  520.50  4.7231E-001  
  521.00  4.7918E-001  
  521.50  4.8546E-001  
  522.00  4.9123E-001  
  522.50  4.9730E-001  
  523.00  5.0311E-001  
  523.50  5.0926E-001  
  524.00  5.1549E-001  
  524.50  5.2138E-001  
  525.00  5.2673E-001  
  525.50  5.3094E-001  
  526.00  5.3491E-001  
  526.50  5.3949E-001  
  527.00  5.4489E-001  
  527.50  5.5075E-001  
  528.00  5.5614E-001  
  528.50  5.6072E-001  
  529.00  5.6407E-001  
  529.50  5.6620E-001  
  530.00  5.6852E-001  
  530.50  5.7201E-001  
  531.00  5.7564E-001  
  531.50  5.7895E-001  
  532.00  5.8189E-001  
  532.50  5.8510E-001  
  533.00  5.8837E-001  
  533.50  5.9109E-001  
  534.00  5.9354E-001  
  534.50  5.9625E-001  
  535.00  5.9936E-001  
  535.50  6.0161E-001  
  536.00  6.0338E-001  
  536.50  6.0514E-001  
  537.00  6.0737E-001  
  537.50  6.0958E-001  
  538.00  6.1166E-001  
  538.50  6.1384E-001  
  539.00  6.1623E-001  
  539.50  6.1844E-001  
  540.00  6.2043E-001  
  540.50  6.2196E-001  
  541.00  6.2261E-001  
  541.50  6.2312E-001  
  542.00  6.2409E-001  
  542.50  6.2582E-001  
  543.00  6.2788E-001  
  543.50  6.2953E-001  
  544.00  6.3090E-001  
  544.50  6.3146E-001  
  545.00  6.3246E-001  
  545.50  6.3362E-001  
  546.00  6.3565E-001  
  546.50  6.3715E-001  
  547.00  6.3836E-001  
  547.50  6.3946E-001  
  548.00  6.4016E-001  
  548.50  6.4084E-001  
  549.00  6.4190E-001  
  549.50  6.4301E-001  
  550.00  6.4414E-001  
  550.50  6.4520E-001  
  551.00  6.4628E-001  
  551.50  6.4797E-001  
  552.00  6.4903E-001  
  552.50  6.5024E-001  
  553.00  6.5097E-001  
  553.50  6.5143E-001  
  554.00  6.5217E-001  
  554.50  6.5302E-001  
  555.00  6.5408E-001  
  555.50  6.5487E-001  
  556.00  6.5600E-001  
  556.50  6.5698E-001  
  557.00  6.5777E-001  
  557.50  6.5767E-001  
  558.00  6.5858E-001  
  558.50  6.5999E-001  
  559.00  6.6204E-001  
  559.50  6.6279E-001  
  560.00  6.6306E-001  
  560.50  6.6303E-001  
  561.00  6.6328E-001  
  561.50  6.6367E-001  
  562.00  6.6363E-001  
  562.50  6.6361E-001  
  563.00  6.6362E-001  
  563.50  6.6477E-001  
  564.00  6.6527E-001  
  564.50  6.6575E-001  
  565.00  6.6509E-001  
  565.50  6.6409E-001  
  566.00  6.6362E-001  
  566.50  6.6358E-001  
  567.00  6.6374E-001  
  567.50  6.6388E-001  
  568.00  6.6390E-001  
  568.50  6.6421E-001  
  569.00  6.6449E-001  
  569.50  6.6381E-001  
  570.00  6.6230E-001  
  570.50  6.6120E-001  
  571.00  6.6098E-001  
  571.50  6.6124E-001  
  572.00  6.6098E-001  
  572.50  6.6012E-001  
  573.00  6.5893E-001  
  573.50  6.5829E-001  
  574.00  6.5764E-001  
  574.50  6.5722E-001  
  575.00  6.5694E-001  
  575.50  6.5644E-001  
  576.00  6.5486E-001  
  576.50  6.5292E-001  
  577.00  6.5111E-001  
  577.50  6.4998E-001  
  578.00  6.4881E-001  
  578.50  6.4762E-001  
  579.00  6.4667E-001  
  579.50  6.4516E-001  
  580.00  6.4367E-001  
  580.50  6.4172E-001  
  581.00  6.4024E-001  
  581.50  6.3863E-001  
  582.00  6.3665E-001  
  582.50  6.3441E-001  
  583.00  6.3253E-001  
  583.50  6.3099E-001  
  584.00  6.2964E-001  
  584.50  6.2815E-001  
  585.00  6.2589E-001  
  585.50  6.2361E-001  
  586.00  6.2055E-001  
  586.50  6.1730E-001  
  587.00  6.1397E-001  
  587.50  6.1230E-001  
  588.00  6.1080E-001  
  588.50  6.0954E-001  
  589.00  6.0689E-001  
  589.50  6.0453E-001  
  590.00  6.0208E-001  
  590.50  5.9950E-001  
  591.00  5.9679E-001  
  591.50  5.9428E-001  
  592.00  5.9167E-001  
  592.50  5.8953E-001  
  593.00  5.8730E-001  
  593.50  5.8495E-001  
  594.00  5.8153E-001  
  594.50  5.7775E-001  
  595.00  5.7473E-001  
  595.50  5.7234E-001  
  596.00  5.7007E-001  
  596.50  5.6699E-001  
  597.00  5.6352E-001  
  597.50  5.5990E-001  
  598.00  5.5660E-001  
  598.50  5.5369E-001  
  599.00  5.5068E-001  
  599.50  5.4813E-001  
  600.00  5.4477E-001  
  600.50  5.4153E-001  
  601.00  5.3806E-001  
  601.50  5.3445E-001  
  602.00  5.3133E-001  
  602.50  5.2750E-001  
  603.00  5.2426E-001  
  603.50  5.2061E-001  
  604.00  5.1734E-001  
  604.50  5.1454E-001  
  605.00  5.1112E-001  
  605.50  5.0704E-001  
  606.00  5.0246E-001  
  606.50  4.9879E-001  
  607.00  4.9618E-001  
  607.50  4.9269E-001  
  608.00  4.8902E-001  
  608.50  4.8530E-001  
  609.00  4.8240E-001  
  609.50  4.7934E-001  
  610.00  4.7598E-001  
  610.50  4.7272E-001  
  611.00  4.6927E-001  
  611.50  4.6564E-001  
  612.00  4.6235E-001  
  612.50  4.5919E-001  
  613.00  4.5616E-001  
  613.50  4.5217E-001  
  614.00  4.4738E-001  
  614.50  4.4366E-001  
  615.00  4.4010E-001  
  615.50  4.3683E-001  
  616.00  4.3301E-001  
  616.50  4.2925E-001  
  617.00  4.2561E-001  
  617.50  4.2210E-001  
  618.00  4.1807E-001  
  618.50  4.1437E-001  
  619.00  4.1034E-001  
  619.50  4.0690E-001  
  620.00  4.0306E-001  
  620.50  3.9941E-001  
  621.00  3.9515E-001  
  621.50  3.9208E-001  
  622.00  3.8891E-001  
  622.50  3.8568E-001  
  623.00  3.8150E-001  
  623.50  3.7763E-001  
  624.00  3.7434E-001  
  624.50  3.7133E-001  
  625.00  3.6802E-001  
  625.50  3.6491E-001  
  626.00  3.6203E-001  
  626.50  3.5885E-001  
  627.00  3.5589E-001  
  627.50  3.5248E-001  
  628.00  3.4938E-001  
  628.50  3.4620E-001  
  629.00  3.4336E-001  
  629.50  3.4038E-001  
  630.00  3.3701E-001  
  630.50  3.3278E-001  
  631.00  3.2898E-001  
  631.50  3.2559E-001  
  632.00  3.2249E-001  
  632.50  3.1956E-001  
  633.00  3.1667E-001  
  633.50  3.1364E-001  
  634.00  3.1012E-001  
  634.50  3.0661E-001  
  635.00  3.0349E-001  
  635.50  3.0055E-001  
  636.00  2.9712E-001  
  636.50  2.9390E-001  
  637.00  2.9110E-001  
  637.50  2.8853E-001  
  638.00  2.8521E-001  
  638.50  2.8170E-001  
  639.00  2.7819E-001  
  639.50  2.7543E-001  
  640.00  2.7250E-001  
  640.50  2.6985E-001  
  641.00  2.6714E-001  
  641.50  2.6475E-001  
  642.00  2.6206E-001  
  642.50  2.5905E-001  
  643.00  2.5605E-001  
  643.50  2.5254E-001  
  644.00  2.4961E-001  
  644.50  2.4644E-001  
  645.00  2.4389E-001  
  645.50  2.4125E-001  
  646.00  2.3948E-001  
  646.50  2.3739E-001  
  647.00  2.3493E-001  
  647.50  2.3144E-001  
  648.00  2.2847E-001  
  648.50  2.2609E-001  
  649.00  2.2374E-001  
  649.50  2.2141E-001  
  650.00  2.1845E-001  
  650.50  2.1583E-001  
  651.00  2.1309E-001  
  651.50  2.1024E-001  
  652.00  2.0767E-001  
  652.50  2.0508E-001  
  653.00  2.0280E-001  
  653.50  2.0008E-001  
  654.00  1.9772E-001  
  654.50  1.9578E-001  
  655.00  1.9378E-001  
  655.50  1.9146E-001  
  656.00  1.8895E-001  
  656.50  1.8664E-001  
  657.00  1.8449E-001  
  657.50  1.8223E-001  
  658.00  1.8025E-001  
  658.50  1.7794E-001  
  659.00  1.7554E-001  
  659.50  1.7319E-001  
  660.00  1.7108E-001  
  660.50  1.6954E-001  
  661.00  1.6739E-001  
  661.50  1.6530E-001  
  662.00  1.6273E-001  
  662.50  1.6062E-001  
  663.00  1.5826E-001  
  663.50  1.5607E-001  
  664.00  1.5397E-001  
  664.50  1.5196E-001  
  665.00  1.4991E-001  
  665.50  1.4772E-001  
  666.00  1.4586E-001  
  666.50  1.4406E-001  
  667.00  1.4263E-001  
  667.50  1.4137E-001  
  668.00  1.4005E-001  
  668.50  1.3826E-001  
  669.00  1.3604E-001  
  669.50  1.3413E-001  
  670.00  1.3268E-001  
  670.50  1.3129E-001  
  671.00  1.2953E-001  
  671.50  1.2783E-001  
  672.00  1.2603E-001  
  672.50  1.2424E-001  
  673.00  1.2268E-001  
  673.50  1.2128E-001  
  674.00  1.1990E-001  
  674.50  1.1803E-001  
  675.00  1.1647E-001  
  675.50  1.1486E-001  
  676.00  1.1293E-001  
  676.50  1.1114E-001  
  677.00  1.0962E-001  
  677.50  1.0868E-001  
  678.00  1.0770E-001  
  678.50  1.0660E-001  
  679.00  1.0557E-001  
  679.50  1.0458E-001  
  680.00  1.0302E-001  
  680.50  1.0092E-001  
  681.00  9.8815E-002  
  681.50  9.7264E-002  
  682.00  9.6339E-002  
  682.50  9.5532E-002  
  683.00  9.4453E-002  
  683.50  9.2931E-002  
  684.00  9.1459E-002  
  684.50  9.0429E-002  
  685.00  8.9306E-002  
  685.50  8.8330E-002  
  686.00  8.7197E-002  
  686.50  8.6611E-002  
  687.00  8.5314E-002  
  687.50  8.4038E-002  
  688.00  8.2688E-002  
  688.50  8.1781E-002  
  689.00  8.0609E-002  
  689.50  7.9093E-002  
  690.00  7.7743E-002  
  690.50  7.6818E-002  
  691.00  7.6495E-002  
  691.50  7.5543E-002  
  692.00  7.4707E-002  
  692.50  7.3455E-002  
  693.00  7.2408E-002  
  693.50  7.1362E-002  
  694.00  7.0699E-002  
  694.50  6.9391E-002  
  695.00  6.7972E-002  
  695.50  6.6820E-002  
  696.00  6.6725E-002  
  696.50  6.6494E-002  
  697.00  6.5372E-002  
  697.50  6.3821E-002  
  698.00  6.2661E-002  
  698.50  6.1629E-002  
  699.00  6.1112E-002  
  699.50  6.0289E-002  
  700.00  5.9534E-002  
  700.50  5.8667E-002  
  701.00  5.7867E-002  
  701.50  5.7435E-002  
  702.00  5.6825E-002  
  702.50  5.6384E-002  
  703.00  5.6234E-002  
  703.50  5.5561E-002  
  704.00  5.4586E-002  
  704.50  5.3596E-002  
  705.00  5.2909E-002  
  705.50  5.2147E-002  
  706.00  5.1332E-002  
  706.50  5.0397E-002  
  707.00  4.9469E-002  
  707.50  4.8314E-002  
  708.00  4.7324E-002  
  708.50  4.6686E-002  
  709.00  4.6107E-002  
  709.50  4.5896E-002  
  710.00  4.4972E-002  
  710.50  4.4099E-002  
  711.00  4.3311E-002  
  711.50  4.2833E-002  
  712.00  4.2540E-002  
  712.50  4.2305E-002  
  713.00  4.1969E-002  
  713.50  4.1073E-002  
  714.00  4.0842E-002  
  714.50  4.0768E-002  
  715.00  4.0667E-002  
  715.50  3.9492E-002  
  716.00  3.8582E-002  
  716.50  3.7932E-002  
  717.00  3.7187E-002  
  717.50  3.7015E-002  
  718.00  3.6682E-002  
  718.50  3.6268E-002  
  719.00  3.5319E-002  
  719.50  3.4878E-002  
  720.00  3.4582E-002  
  720.50  3.4340E-002  
  721.00  3.4011E-002  
  721.50  3.3556E-002  
  722.00  3.2948E-002  
  722.50  3.1929E-002  
  723.00  3.0803E-002  
  723.50  3.0181E-002  
  724.00  3.0526E-002  
  724.50  3.0628E-002  
  725.00  3.0087E-002  
  725.50  2.9256E-002  
  726.00  2.9395E-002  
  726.50  2.9084E-002  
  727.00  2.8388E-002  
  727.50  2.7367E-002  
  728.00  2.7253E-002  
  728.50  2.7451E-002  
  729.00  2.7874E-002  
  729.50  2.7380E-002  
  730.00  2.6576E-002  
  730.50  2.5901E-002  
  731.00  2.6077E-002  
  731.50  2.5707E-002  
  732.00  2.4649E-002  
  732.50  2.3649E-002  
  733.00  2.3681E-002  
  733.50  2.3943E-002  
  734.00  2.3930E-002  
  734.50  2.3320E-002  
  735.00  2.2198E-002  
  735.50  2.2172E-002  
  736.00  2.2241E-002  
  736.50  2.1861E-002  
  737.00  2.0341E-002  
  737.50  1.9422E-002  
  738.00  1.9916E-002  
  738.50  2.0489E-002  
  739.00  2.0440E-002  
  739.50  1.9527E-002  
  740.00  1.8874E-002  
  740.50  1.8664E-002  
  741.00  1.8887E-002  
  741.50  1.8516E-002  
  742.00  1.8190E-002  
  742.50  1.8492E-002  
  743.00  1.9012E-002  
  743.50  1.8880E-002  
  744.00  1.7704E-002  
  744.50  1.6817E-002  
  745.00  1.6279E-002  
  745.50  1.6507E-002  
  746.00  1.6061E-002  
  746.50  1.6007E-002  
  747.00  1.6097E-002  
  747.50  1.6205E-002  
  748.00  1.5263E-002  
  748.50  1.4331E-002  
  749.00  1.4053E-002  
  749.50  1.4397E-002  
  750.00  1.4425E-002  
  750.50  1.4517E-002  
  751.00  1.4783E-002  
  751.50  1.4365E-002  
  752.00  1.3805E-002  
  752.50  1.3283E-002  
  753.00  1.3209E-002  
  753.50  1.2758E-002  
  754.00  1.2409E-002  
  754.50  1.2078E-002  
  755.00  1.1863E-002  
  755.50  1.1905E-002  
  756.00  1.1542E-002  
  756.50  1.1353E-002  
  757.00  1.0600E-002  
  757.50  1.1160E-002  
  758.00  1.1354E-002  
  758.50  1.1361E-002  
  759.00  1.0727E-002  
  759.50  1.0679E-002  
  760.00  1.0794E-002  
  760.50  1.1008E-002  
  761.00  1.0204E-002  
  761.50  1.0024E-002  
  762.00  9.8410E-003  
  762.50  9.8465E-003  
  763.00  9.4547E-003  
  763.50  9.0257E-003  
  764.00  8.8755E-003  
  764.50  8.7755E-003  
  765.00  8.8129E-003  
  765.50  8.9334E-003  
  766.00  9.2605E-003  
  766.50  9.5384E-003  
  767.00  9.1118E-003  
  767.50  9.1437E-003  
  768.00  8.9588E-003  
  768.50  8.2829E-003  
  769.00  7.6788E-003  
  769.50  7.6221E-003  
  770.00  7.6603E-003  
  770.50  7.5586E-003  
  771.00  6.3981E-003  
  771.50  6.3096E-003  
  772.00  7.2730E-003  
  772.50  7.5004E-003  
  773.00  6.9618E-003  
  773.50  6.5773E-003  
  774.00  5.8228E-003  
  774.50  5.9603E-003  
  775.00  6.3393E-003  
  775.50  7.1576E-003  
  776.00  6.6391E-003  
  776.50  6.1938E-003  
  777.00  6.6419E-003  
  777.50  7.4857E-003  
  778.00  7.3933E-003  
  778.50  7.3714E-003  
  779.00  7.0167E-003  
  779.50  6.8962E-003  
  780.00  6.0358E-003  
  780.50  5.7023E-003  
  781.00  5.5586E-003  
  781.50  5.2063E-003  
  782.00  5.3627E-003  
  782.50  5.7192E-003  
  783.00  6.1842E-003  
  783.50  5.1329E-003  
  784.00  4.2912E-003  
  784.50  4.0585E-003  
  785.00  4.2349E-003  
  785.50  4.1590E-003  
  786.00  4.8330E-003  
  786.50  5.5000E-003  
  787.00  5.8562E-003  
  787.50  6.1486E-003  
  788.00  6.6132E-003  
  788.50  5.8873E-003  
  789.00  4.3280E-003  
  789.50  3.4755E-003  
  790.00  3.0683E-003  
  790.50  2.6295E-003  
  791.00  2.3998E-003  
  791.50  2.3569E-003  
  792.00  2.7662E-003  
  792.50  2.9878E-003  
  793.00  2.7983E-003  
  793.50  2.1886E-003  
  794.00  2.0509E-003  
  794.50  2.4778E-003  
  795.00  2.5633E-003  
  795.50  2.7856E-003  
  796.00  2.9035E-003  
  796.50  2.6641E-003  
  797.00  1.9423E-003  
  797.50  2.1202E-003  
  798.00  2.1416E-003  
  798.50  1.7809E-003  
  799.00  1.6054E-003  
  799.50  2.4232E-003  
  800.00  1.7582E-003  
  800.50  1.2555E-003  
  801.00  1.4990E-003  
  801.50  1.4778E-003  
  802.00  1.6131E-003  
  802.50  1.5817E-003  
  803.00  3.1063E-003  
  803.50  4.1852E-003  
  804.00  4.2910E-003  
  804.50  2.3099E-003  
  805.00  2.1565E-003  
  805.50  2.3326E-003  
  806.00  1.1889E-003  
  806.50  0.0000E+000  
  807.00  0.0000E+000  
  807.50  0.0000E+000  
  808.00  8.3318E-006  
  808.50  0.0000E+000  
  809.00  0.0000E+000  
  809.50  2.4397E-004  
  810.00  3.9960E-004  
  810.50  7.5135E-004  
  811.00  3.1336E-004  
  811.50  2.4118E-003  
  812.00  3.8428E-003  
  812.50  3.5136E-003  
  813.00  1.4083E-003  
  813.50  0.0000E+000  
  814.00  0.0000E+000  
  814.50  0.0000E+000  
  815.00  7.4173E-005  
  815.50  4.6360E-004  
  816.00  0.0000E+000  
  816.50  0.0000E+000  
  817.00  1.1740E-004  
  817.50  2.3717E-003  
  818.00  2.0592E-003  
  818.50  1.2281E-003  
  819.00  4.2905E-007  
  819.50  0.0000E+000  
  820.00  0.0000E+000  
  820.50  3.9157E-004  
  821.00  0.0000E+000  
  821.50  0.0000E+000  
  822.00  1.4850E-003  
  822.50  3.9831E-003  
  823.00  2.4442E-003  
  823.50  7.9539E-005  
  824.00  0.0000E+000  
  824.50  0.0000E+000  
  825.00  4.5674E-005  
  825.50  0.0000E+000  
  826.00  0.0000E+000  
  826.50  0.0000E+000  
  827.00  0.0000E+000  
  827.50  0.0000E+000  
  828.00  0.0000E+000  
  828.50  0.0000E+000  
  829.00  0.0000E+000  
  829.50  0.0000E+000  
  830.00  0.0000E+000  
  830.50  0.0000E+000  
  831.00  8.6437E-004  
  831.50  9.4815E-005  
  832.00  0.0000E+000  
  832.50  0.0000E+000  
  833.00  0.0000E+000  
  833.50  0.0000E+000  
  834.00  0.0000E+000  
  834.50  0.0000E+000  
  835.00  0.0000E+000  
  835.50  0.0000E+000  
  836.00  0.0000E+000  
  836.50  0.0000E+000  
  837.00  0.0000E+000  
  837.50  5.5389E-004  
  838.00  4.2796E-004  
  838.50  0.0000E+000  
  839.00  0.0000E+000  
  839.50  0.0000E+000  
  840.00  0.0000E+000  
  840.50  0.0000E+000  
  841.00  0.0000E+000  
  841.50  0.0000E+000  
  842.00  0.0000E+000  
  842.50  7.3757E-005  
  843.00  7.9182E-004  
  843.50  0.0000E+000  
  844.00  0.0000E+000  
  844.50  0.0000E+000  
  845.00  0.0000E+000  
  845.50  0.0000E+000  
  846.00  0.0000E+000  
  846.50  0.0000E+000  
  847.00  0.0000E+000  
  847.50  0.0000E+000  
  848.00  0.0000E+000  
  848.50  0.0000E+000  
  849.00  0.0000E+000  
  849.50  0.0000E+000  
  850.00  1.7741E-004  
  850.50  2.5463E-004  
  851.00  4.1358E-005  
  851.50  3.2003E-004  
  852.00  9.4210E-005  
  852.50  0.0000E+000  
  853.00  0.0000E+000  
  853.50  7.2665E-004  
  854.00  6.9384E-004  
  854.50  0.0000E+000  
  855.00  0.0000E+000  
  855.50  0.0000E+000  
  856.00  0.0000E+000  
  856.50  0.0000E+000  
  857.00  0.0000E+000  
  857.50  0.0000E+000  
  858.00  0.0000E+000  
  858.50  0.0000E+000  
  859.00  0.0000E+000  
  859.50  0.0000E+000  
  860.00  0.0000E+000  
  860.50  3.4579E-004  
  861.00  1.5323E-003  
  861.50  4.6959E-004  
  862.00  0.0000E+000  
  862.50  2.4049E-003  
  863.00  3.2596E-003  
  863.50  0.0000E+000  
  864.00  0.0000E+000  
  864.50  0.0000E+000  
  865.00  0.0000E+000  
  865.50  0.0000E+000  
  866.00  1.6651E-004  
  866.50  2.1970E-003  
  867.00  2.0228E-003  
  867.50  2.3620E-003  
  868.00  8.0130E-004  
  868.50  0.0000E+000  
  869.00  2.4293E-004  
  869.50  2.6437E-003  
  870.00  4.8356E-003  
  870.50  4.5674E-003  
  871.00  2.6696E-003  
  871.50  2.4238E-004  
  872.00  0.0000E+000  
  872.50  0.0000E+000  
  873.00  1.6670E-003  
  873.50  7.0489E-003  
  874.00  3.8332E-003  
  874.50  1.4202E-003  
  875.00  3.9397E-003  
  875.50  2.4649E-003  
  876.00  0.0000E+000  
  876.50  0.0000E+000  
  877.00  0.0000E+000  
  877.50  0.0000E+000  
  878.00  4.5351E-004  
  878.50  2.7293E-003  
  879.00  4.3729E-003  
  879.50  3.3657E-003  
  880.00  2.0243E-003  
  880.50  7.2171E-004  
  881.00  0.0000E+000  
  881.50  0.0000E+000  
  882.00  4.0287E-003  
  882.50  6.3933E-003  
  883.00  8.7367E-003  
  883.50  1.1146E-002  
  884.00  1.2802E-002  
  884.50  1.1217E-002  
  885.00  8.2222E-003  
  885.50  4.3307E-003  
  886.00  2.5742E-003  
  886.50  3.2471E-003  
  887.00  7.9972E-004  
  887.50  9.9233E-004  
  888.00  2.3522E-003  
  888.50  2.9362E-003  
  889.00  8.8450E-003  
  889.50  1.6830E-002  
  890.00  1.5010E-002  
  890.50  1.0152E-002  
  891.00  8.0172E-003  
  891.50  1.2298E-002  
  892.00  1.4400E-002  
  892.50  1.2774E-002  
  893.00  1.3031E-002  
  893.50  1.2603E-002  
  894.00  1.0117E-002  
  894.50  1.0117E-002  
  895.00  1.0620E-002  
  895.50  6.3562E-003  
  896.00  9.8424E-004  
  896.50  2.6161E-004  
  897.00  4.8795E-003  
  897.50  1.3123E-002  
  898.00  1.5258E-002  
  898.50  9.0371E-003  
  899.00  7.3242E-003  
  899.50  1.9657E-004  
