
# From lspdd.org
# 
# Name: DEL DALS Wall-004 Domestique
# Indice spectral Valeur 
# MSI 0.32 
# SLI 0.52 
# IPI 0.66 
# Pourcentage de bleu 20.5 
# Caractéristique Valeur 
# CCT calculée (K) 3004 
# CCT du fabricant (K) 3000 
# Tension (V) 120 
# Puissance (W) 3.5 
# Efficacité lumineuse (Lum/W) 70.0 
#
# Image: '/app/system/img_2s/2648/medium_image2.jpg?1432223015'
# Image: '/app/system/img_1s/2648/medium_image1.jpg?1432223013'
# 

  273.00  0.0000E+000  
  273.50  0.0000E+000  
  274.00  0.0000E+000  
  274.50  0.0000E+000  
  275.00  0.0000E+000  
  275.50  0.0000E+000  
  276.00  0.0000E+000  
  276.50  0.0000E+000  
  277.00  0.0000E+000  
  277.50  0.0000E+000  
  278.00  0.0000E+000  
  278.50  0.0000E+000  
  279.00  0.0000E+000  
  279.50  0.0000E+000  
  280.00  0.0000E+000  
  280.50  0.0000E+000  
  281.00  0.0000E+000  
  281.50  0.0000E+000  
  282.00  0.0000E+000  
  282.50  0.0000E+000  
  283.00  0.0000E+000  
  283.50  0.0000E+000  
  284.00  0.0000E+000  
  284.50  0.0000E+000  
  285.00  0.0000E+000  
  285.50  0.0000E+000  
  286.00  0.0000E+000  
  286.50  0.0000E+000  
  287.00  0.0000E+000  
  287.50  0.0000E+000  
  288.00  0.0000E+000  
  288.50  0.0000E+000  
  289.00  0.0000E+000  
  289.50  0.0000E+000  
  290.00  0.0000E+000  
  290.50  0.0000E+000  
  291.00  0.0000E+000  
  291.50  0.0000E+000  
  292.00  0.0000E+000  
  292.50  0.0000E+000  
  293.00  0.0000E+000  
  293.50  0.0000E+000  
  294.00  0.0000E+000  
  294.50  0.0000E+000  
  295.00  0.0000E+000  
  295.50  0.0000E+000  
  296.00  0.0000E+000  
  296.50  0.0000E+000  
  297.00  0.0000E+000  
  297.50  0.0000E+000  
  298.00  0.0000E+000  
  298.50  0.0000E+000  
  299.00  0.0000E+000  
  299.50  0.0000E+000  
  300.00  6.7333E-005  
  300.50  1.2039E-004  
  301.00  2.5830E-006  
  301.50  0.0000E+000  
  302.00  0.0000E+000  
  302.50  9.5007E-006  
  303.00  1.9606E-004  
  303.50  1.7620E-004  
  304.00  2.3724E-004  
  304.50  4.1860E-004  
  305.00  5.9497E-004  
  305.50  7.1252E-004  
  306.00  6.8983E-004  
  306.50  7.2080E-004  
  307.00  8.1387E-004  
  307.50  7.9883E-004  
  308.00  9.5938E-004  
  308.50  1.3084E-003  
  309.00  1.7113E-003  
  309.50  1.9491E-003  
  310.00  1.6754E-003  
  310.50  1.1855E-003  
  311.00  5.2227E-004  
  311.50  7.0817E-004  
  312.00  9.1008E-004  
  312.50  9.1551E-004  
  313.00  1.0459E-003  
  313.50  7.2464E-004  
  314.00  6.2504E-004  
  314.50  6.8178E-004  
  315.00  5.9595E-004  
  315.50  5.5006E-004  
  316.00  6.4975E-004  
  316.50  7.1890E-004  
  317.00  5.6190E-004  
  317.50  5.0705E-004  
  318.00  2.5603E-004  
  318.50  2.8949E-004  
  319.00  7.2028E-004  
  319.50  8.9925E-004  
  320.00  1.0849E-003  
  320.50  1.1252E-003  
  321.00  9.9071E-004  
  321.50  9.1157E-004  
  322.00  8.3726E-004  
  322.50  6.2034E-004  
  323.00  4.7360E-004  
  323.50  5.7051E-004  
  324.00  8.0966E-004  
  324.50  9.7025E-004  
  325.00  1.1859E-003  
  325.50  8.8122E-004  
  326.00  2.7946E-004  
  326.50  1.5499E-005  
  327.00  2.3750E-004  
  327.50  9.6232E-004  
  328.00  1.4810E-003  
  328.50  1.5027E-003  
  329.00  1.2403E-003  
  329.50  1.1060E-003  
  330.00  1.1585E-003  
  330.50  9.5766E-004  
  331.00  5.8858E-004  
  331.50  2.7690E-004  
  332.00  2.3589E-004  
  332.50  5.4206E-004  
  333.00  5.5048E-004  
  333.50  5.4113E-004  
  334.00  3.2727E-004  
  334.50  3.0736E-004  
  335.00  3.8930E-004  
  335.50  6.3538E-004  
  336.00  8.9019E-004  
  336.50  8.2100E-004  
  337.00  7.5840E-004  
  337.50  4.7358E-004  
  338.00  4.6531E-004  
  338.50  3.2267E-004  
  339.00  3.3827E-004  
  339.50  3.4467E-004  
  340.00  3.8935E-004  
  340.50  4.5319E-004  
  341.00  4.9074E-004  
  341.50  2.6658E-004  
  342.00  5.0617E-006  
  342.50  2.5086E-005  
  343.00  1.2206E-005  
  343.50  0.0000E+000  
  344.00  0.0000E+000  
  344.50  1.3603E-006  
  345.00  1.6348E-004  
  345.50  2.0049E-004  
  346.00  1.2614E-004  
  346.50  4.4739E-004  
  347.00  8.7800E-004  
  347.50  1.0037E-003  
  348.00  8.7992E-004  
  348.50  4.9953E-004  
  349.00  6.4901E-004  
  349.50  9.3994E-004  
  350.00  8.2747E-004  
  350.50  5.9399E-004  
  351.00  2.9979E-004  
  351.50  1.9889E-004  
  352.00  5.4456E-004  
  352.50  6.2467E-004  
  353.00  7.5158E-004  
  353.50  7.6338E-004  
  354.00  6.1686E-004  
  354.50  4.4567E-004  
  355.00  3.1187E-004  
  355.50  3.5127E-004  
  356.00  4.6690E-004  
  356.50  7.3240E-004  
  357.00  9.0190E-004  
  357.50  6.4901E-004  
  358.00  3.8014E-004  
  358.50  1.7362E-004  
  359.00  2.5058E-004  
  359.50  4.1798E-004  
  360.00  7.9915E-004  
  360.50  7.7792E-004  
  361.00  7.9284E-004  
  361.50  7.9083E-004  
  362.00  5.6689E-004  
  362.50  4.7081E-004  
  363.00  1.6960E-004  
  363.50  3.5634E-005  
  364.00  2.1260E-004  
  364.50  2.6035E-004  
  365.00  2.6857E-004  
  365.50  5.8738E-005  
  366.00  0.0000E+000  
  366.50  0.0000E+000  
  367.00  2.7053E-004  
  367.50  4.6086E-004  
  368.00  4.7775E-004  
  368.50  5.9966E-004  
  369.00  6.6052E-004  
  369.50  8.0719E-004  
  370.00  7.3449E-004  
  370.50  5.6116E-004  
  371.00  3.4791E-004  
  371.50  1.3664E-004  
  372.00  1.0134E-004  
  372.50  8.5832E-005  
  373.00  0.0000E+000  
  373.50  0.0000E+000  
  374.00  0.0000E+000  
  374.50  1.8161E-005  
  375.00  1.7870E-004  
  375.50  5.2512E-004  
  376.00  5.4322E-004  
  376.50  4.3171E-004  
  377.00  4.0270E-004  
  377.50  1.7896E-004  
  378.00  2.9617E-004  
  378.50  6.3209E-004  
  379.00  8.2230E-004  
  379.50  8.1781E-004  
  380.00  4.6606E-004  
  380.50  1.0369E-004  
  381.00  0.0000E+000  
  381.50  0.0000E+000  
  382.00  0.0000E+000  
  382.50  0.0000E+000  
  383.00  0.0000E+000  
  383.50  5.9195E-005  
  384.00  1.8898E-004  
  384.50  4.1764E-004  
  385.00  7.7033E-004  
  385.50  9.2761E-004  
  386.00  9.3699E-004  
  386.50  7.9003E-004  
  387.00  5.0262E-004  
  387.50  2.6955E-004  
  388.00  2.2043E-004  
  388.50  1.8496E-004  
  389.00  1.0002E-004  
  389.50  4.1259E-004  
  390.00  7.7314E-004  
  390.50  1.2880E-003  
  391.00  1.5413E-003  
  391.50  1.1621E-003  
  392.00  9.0040E-004  
  392.50  7.4509E-004  
  393.00  8.1230E-004  
  393.50  7.9473E-004  
  394.00  4.9630E-004  
  394.50  1.2013E-004  
  395.00  0.0000E+000  
  395.50  0.0000E+000  
  396.00  8.4422E-006  
  396.50  1.3576E-004  
  397.00  1.9721E-004  
  397.50  1.5655E-004  
  398.00  8.1530E-005  
  398.50  1.2672E-006  
  399.00  1.8940E-004  
  399.50  2.9867E-004  
  400.00  4.5509E-004  
  400.50  5.4109E-004  
  401.00  5.8400E-004  
  401.50  5.3797E-004  
  402.00  4.4772E-004  
  402.50  5.1380E-004  
  403.00  2.8625E-004  
  403.50  5.2998E-004  
  404.00  5.5178E-004  
  404.50  5.4542E-004  
  405.00  7.2036E-004  
  405.50  6.4818E-004  
  406.00  6.4624E-004  
  406.50  6.3518E-004  
  407.00  7.1761E-004  
  407.50  1.0839E-003  
  408.00  1.1777E-003  
  408.50  1.3238E-003  
  409.00  1.2016E-003  
  409.50  1.1104E-003  
  410.00  1.2850E-003  
  410.50  1.4744E-003  
  411.00  1.7739E-003  
  411.50  1.9039E-003  
  412.00  1.5202E-003  
  412.50  1.1741E-003  
  413.00  1.1082E-003  
  413.50  1.4368E-003  
  414.00  1.9265E-003  
  414.50  2.2030E-003  
  415.00  2.3728E-003  
  415.50  2.3601E-003  
  416.00  2.3768E-003  
  416.50  2.4723E-003  
  417.00  2.5661E-003  
  417.50  2.7334E-003  
  418.00  2.7447E-003  
  418.50  2.6031E-003  
  419.00  2.5975E-003  
  419.50  2.9825E-003  
  420.00  3.6761E-003  
  420.50  4.4560E-003  
  421.00  4.8068E-003  
  421.50  4.8518E-003  
  422.00  4.7971E-003  
  422.50  4.7445E-003  
  423.00  4.8894E-003  
  423.50  5.4321E-003  
  424.00  5.8806E-003  
  424.50  6.7451E-003  
  425.00  7.4071E-003  
  425.50  8.0086E-003  
  426.00  8.2872E-003  
  426.50  8.2780E-003  
  427.00  8.4428E-003  
  427.50  8.7572E-003  
  428.00  9.4744E-003  
  428.50  1.0087E-002  
  429.00  1.0686E-002  
  429.50  1.1358E-002  
  430.00  1.2525E-002  
  430.50  1.3881E-002  
  431.00  1.5011E-002  
  431.50  1.5711E-002  
  432.00  1.6063E-002  
  432.50  1.6901E-002  
  433.00  1.7798E-002  
  433.50  1.9123E-002  
  434.00  2.0002E-002  
  434.50  2.0614E-002  
  435.00  2.1485E-002  
  435.50  2.2472E-002  
  436.00  2.3823E-002  
  436.50  2.5221E-002  
  437.00  2.6330E-002  
  437.50  2.7822E-002  
  438.00  2.9345E-002  
  438.50  3.0926E-002  
  439.00  3.2680E-002  
  439.50  3.4534E-002  
  440.00  3.6673E-002  
  440.50  3.8605E-002  
  441.00  4.0445E-002  
  441.50  4.2381E-002  
  442.00  4.4563E-002  
  442.50  4.7229E-002  
  443.00  4.9842E-002  
  443.50  5.2592E-002  
  444.00  5.5408E-002  
  444.50  5.8470E-002  
  445.00  6.1177E-002  
  445.50  6.4330E-002  
  446.00  6.7232E-002  
  446.50  6.9690E-002  
  447.00  7.2417E-002  
  447.50  7.4257E-002  
  448.00  7.6444E-002  
  448.50  7.8118E-002  
  449.00  7.8970E-002  
  449.50  7.9350E-002  
  450.00  7.9385E-002  
  450.50  7.9515E-002  
  451.00  7.9342E-002  
  451.50  7.8562E-002  
  452.00  7.7201E-002  
  452.50  7.5761E-002  
  453.00  7.4599E-002  
  453.50  7.3657E-002  
  454.00  7.2148E-002  
  454.50  7.0330E-002  
  455.00  6.7980E-002  
  455.50  6.5398E-002  
  456.00  6.3061E-002  
  456.50  6.0737E-002  
  457.00  5.8907E-002  
  457.50  5.7444E-002  
  458.00  5.5748E-002  
  458.50  5.4311E-002  
  459.00  5.2503E-002  
  459.50  5.0604E-002  
  460.00  4.9005E-002  
  460.50  4.7657E-002  
  461.00  4.7126E-002  
  461.50  4.6489E-002  
  462.00  4.5674E-002  
  462.50  4.4728E-002  
  463.00  4.3734E-002  
  463.50  4.2989E-002  
  464.00  4.2112E-002  
  464.50  4.1118E-002  
  465.00  4.0154E-002  
  465.50  3.9371E-002  
  466.00  3.8850E-002  
  466.50  3.8170E-002  
  467.00  3.7281E-002  
  467.50  3.6480E-002  
  468.00  3.5749E-002  
  468.50  3.5334E-002  
  469.00  3.4803E-002  
  469.50  3.4098E-002  
  470.00  3.3100E-002  
  470.50  3.2269E-002  
  471.00  3.1130E-002  
  471.50  3.0112E-002  
  472.00  2.9182E-002  
  472.50  2.8625E-002  
  473.00  2.8387E-002  
  473.50  2.8108E-002  
  474.00  2.7742E-002  
  474.50  2.7227E-002  
  475.00  2.6881E-002  
  475.50  2.6537E-002  
  476.00  2.6131E-002  
  476.50  2.5580E-002  
  477.00  2.5120E-002  
  477.50  2.4935E-002  
  478.00  2.5151E-002  
  478.50  2.5399E-002  
  479.00  2.5651E-002  
  479.50  2.5574E-002  
  480.00  2.5548E-002  
  480.50  2.5391E-002  
  481.00  2.5289E-002  
  481.50  2.5163E-002  
  482.00  2.5167E-002  
  482.50  2.5073E-002  
  483.00  2.5058E-002  
  483.50  2.5119E-002  
  484.00  2.5261E-002  
  484.50  2.5632E-002  
  485.00  2.5915E-002  
  485.50  2.6167E-002  
  486.00  2.6285E-002  
  486.50  2.6455E-002  
  487.00  2.6635E-002  
  487.50  2.7014E-002  
  488.00  2.7485E-002  
  488.50  2.7981E-002  
  489.00  2.8553E-002  
  489.50  2.8931E-002  
  490.00  2.9315E-002  
  490.50  2.9624E-002  
  491.00  3.0101E-002  
  491.50  3.0602E-002  
  492.00  3.1234E-002  
  492.50  3.1702E-002  
  493.00  3.2081E-002  
  493.50  3.2527E-002  
  494.00  3.3150E-002  
  494.50  3.3819E-002  
  495.00  3.4446E-002  
  495.50  3.5107E-002  
  496.00  3.5824E-002  
  496.50  3.6648E-002  
  497.00  3.7382E-002  
  497.50  3.8129E-002  
  498.00  3.8645E-002  
  498.50  3.9117E-002  
  499.00  3.9721E-002  
  499.50  4.0572E-002  
  500.00  4.1506E-002  
  500.50  4.2211E-002  
  501.00  4.2824E-002  
  501.50  4.3584E-002  
  502.00  4.4465E-002  
  502.50  4.5421E-002  
  503.00  4.5989E-002  
  503.50  4.6556E-002  
  504.00  4.7144E-002  
  504.50  4.8045E-002  
  505.00  4.9015E-002  
  505.50  4.9906E-002  
  506.00  5.0671E-002  
  506.50  5.1390E-002  
  507.00  5.2119E-002  
  507.50  5.2589E-002  
  508.00  5.2907E-002  
  508.50  5.3228E-002  
  509.00  5.3746E-002  
  509.50  5.4538E-002  
  510.00  5.5283E-002  
  510.50  5.6037E-002  
  511.00  5.7003E-002  
  511.50  5.7690E-002  
  512.00  5.8280E-002  
  512.50  5.8494E-002  
  513.00  5.8925E-002  
  513.50  5.9705E-002  
  514.00  6.0630E-002  
  514.50  6.1693E-002  
  515.00  6.2525E-002  
  515.50  6.3107E-002  
  516.00  6.3482E-002  
  516.50  6.3849E-002  
  517.00  6.4499E-002  
  517.50  6.5242E-002  
  518.00  6.5977E-002  
  518.50  6.6531E-002  
  519.00  6.7025E-002  
  519.50  6.7608E-002  
  520.00  6.8103E-002  
  520.50  6.8592E-002  
  521.00  6.9106E-002  
  521.50  6.9744E-002  
  522.00  7.0395E-002  
  522.50  7.0904E-002  
  523.00  7.1323E-002  
  523.50  7.1701E-002  
  524.00  7.2334E-002  
  524.50  7.2847E-002  
  525.00  7.3035E-002  
  525.50  7.3398E-002  
  526.00  7.4048E-002  
  526.50  7.5061E-002  
  527.00  7.5760E-002  
  527.50  7.6206E-002  
  528.00  7.6519E-002  
  528.50  7.7082E-002  
  529.00  7.7654E-002  
  529.50  7.8019E-002  
  530.00  7.8469E-002  
  530.50  7.9054E-002  
  531.00  7.9545E-002  
  531.50  8.0120E-002  
  532.00  8.0590E-002  
  532.50  8.1321E-002  
  533.00  8.1962E-002  
  533.50  8.2363E-002  
  534.00  8.2872E-002  
  534.50  8.3484E-002  
  535.00  8.4253E-002  
  535.50  8.4734E-002  
  536.00  8.4872E-002  
  536.50  8.5166E-002  
  537.00  8.5676E-002  
  537.50  8.6288E-002  
  538.00  8.6788E-002  
  538.50  8.7235E-002  
  539.00  8.7888E-002  
  539.50  8.8739E-002  
  540.00  8.9530E-002  
  540.50  9.0176E-002  
  541.00  9.0581E-002  
  541.50  9.0746E-002  
  542.00  9.1250E-002  
  542.50  9.2016E-002  
  543.00  9.2915E-002  
  543.50  9.3470E-002  
  544.00  9.3661E-002  
  544.50  9.3821E-002  
  545.00  9.4495E-002  
  545.50  9.5521E-002  
  546.00  9.6468E-002  
  546.50  9.7085E-002  
  547.00  9.7535E-002  
  547.50  9.8012E-002  
  548.00  9.8630E-002  
  548.50  9.8776E-002  
  549.00  9.9384E-002  
  549.50  1.0001E-001  
  550.00  1.0068E-001  
  550.50  1.0130E-001  
  551.00  1.0187E-001  
  551.50  1.0297E-001  
  552.00  1.0389E-001  
  552.50  1.0462E-001  
  553.00  1.0490E-001  
  553.50  1.0511E-001  
  554.00  1.0547E-001  
  554.50  1.0601E-001  
  555.00  1.0682E-001  
  555.50  1.0760E-001  
  556.00  1.0841E-001  
  556.50  1.0905E-001  
  557.00  1.0964E-001  
  557.50  1.1040E-001  
  558.00  1.1126E-001  
  558.50  1.1209E-001  
  559.00  1.1281E-001  
  559.50  1.1330E-001  
  560.00  1.1380E-001  
  560.50  1.1453E-001  
  561.00  1.1539E-001  
  561.50  1.1622E-001  
  562.00  1.1682E-001  
  562.50  1.1729E-001  
  563.00  1.1774E-001  
  563.50  1.1828E-001  
  564.00  1.1886E-001  
  564.50  1.1931E-001  
  565.00  1.2000E-001  
  565.50  1.2065E-001  
  566.00  1.2145E-001  
  566.50  1.2193E-001  
  567.00  1.2225E-001  
  567.50  1.2244E-001  
  568.00  1.2296E-001  
  568.50  1.2388E-001  
  569.00  1.2499E-001  
  569.50  1.2604E-001  
  570.00  1.2645E-001  
  570.50  1.2684E-001  
  571.00  1.2710E-001  
  571.50  1.2764E-001  
  572.00  1.2812E-001  
  572.50  1.2868E-001  
  573.00  1.2946E-001  
  573.50  1.3015E-001  
  574.00  1.3073E-001  
  574.50  1.3118E-001  
  575.00  1.3164E-001  
  575.50  1.3226E-001  
  576.00  1.3251E-001  
  576.50  1.3304E-001  
  577.00  1.3374E-001  
  577.50  1.3451E-001  
  578.00  1.3503E-001  
  578.50  1.3550E-001  
  579.00  1.3591E-001  
  579.50  1.3669E-001  
  580.00  1.3724E-001  
  580.50  1.3739E-001  
  581.00  1.3754E-001  
  581.50  1.3770E-001  
  582.00  1.3798E-001  
  582.50  1.3837E-001  
  583.00  1.3876E-001  
  583.50  1.3934E-001  
  584.00  1.3993E-001  
  584.50  1.4053E-001  
  585.00  1.4114E-001  
  585.50  1.4146E-001  
  586.00  1.4150E-001  
  586.50  1.4143E-001  
  587.00  1.4146E-001  
  587.50  1.4200E-001  
  588.00  1.4287E-001  
  588.50  1.4396E-001  
  589.00  1.4464E-001  
  589.50  1.4490E-001  
  590.00  1.4519E-001  
  590.50  1.4540E-001  
  591.00  1.4576E-001  
  591.50  1.4605E-001  
  592.00  1.4620E-001  
  592.50  1.4621E-001  
  593.00  1.4623E-001  
  593.50  1.4624E-001  
  594.00  1.4639E-001  
  594.50  1.4654E-001  
  595.00  1.4672E-001  
  595.50  1.4697E-001  
  596.00  1.4765E-001  
  596.50  1.4840E-001  
  597.00  1.4853E-001  
  597.50  1.4834E-001  
  598.00  1.4811E-001  
  598.50  1.4826E-001  
  599.00  1.4830E-001  
  599.50  1.4799E-001  
  600.00  1.4763E-001  
  600.50  1.4730E-001  
  601.00  1.4709E-001  
  601.50  1.4713E-001  
  602.00  1.4751E-001  
  602.50  1.4793E-001  
  603.00  1.4814E-001  
  603.50  1.4806E-001  
  604.00  1.4787E-001  
  604.50  1.4786E-001  
  605.00  1.4781E-001  
  605.50  1.4790E-001  
  606.00  1.4772E-001  
  606.50  1.4755E-001  
  607.00  1.4720E-001  
  607.50  1.4679E-001  
  608.00  1.4658E-001  
  608.50  1.4651E-001  
  609.00  1.4662E-001  
  609.50  1.4666E-001  
  610.00  1.4656E-001  
  610.50  1.4646E-001  
  611.00  1.4645E-001  
  611.50  1.4618E-001  
  612.00  1.4565E-001  
  612.50  1.4454E-001  
  613.00  1.4387E-001  
  613.50  1.4360E-001  
  614.00  1.4374E-001  
  614.50  1.4351E-001  
  615.00  1.4287E-001  
  615.50  1.4199E-001  
  616.00  1.4169E-001  
  616.50  1.4143E-001  
  617.00  1.4148E-001  
  617.50  1.4131E-001  
  618.00  1.4119E-001  
  618.50  1.4086E-001  
  619.00  1.4017E-001  
  619.50  1.3970E-001  
  620.00  1.3943E-001  
  620.50  1.3912E-001  
  621.00  1.3842E-001  
  621.50  1.3735E-001  
  622.00  1.3680E-001  
  622.50  1.3653E-001  
  623.00  1.3660E-001  
  623.50  1.3612E-001  
  624.00  1.3545E-001  
  624.50  1.3445E-001  
  625.00  1.3399E-001  
  625.50  1.3354E-001  
  626.00  1.3323E-001  
  626.50  1.3265E-001  
  627.00  1.3186E-001  
  627.50  1.3143E-001  
  628.00  1.3076E-001  
  628.50  1.3033E-001  
  629.00  1.2957E-001  
  629.50  1.2876E-001  
  630.00  1.2803E-001  
  630.50  1.2689E-001  
  631.00  1.2615E-001  
  631.50  1.2560E-001  
  632.00  1.2484E-001  
  632.50  1.2373E-001  
  633.00  1.2286E-001  
  633.50  1.2266E-001  
  634.00  1.2275E-001  
  634.50  1.2264E-001  
  635.00  1.2188E-001  
  635.50  1.2077E-001  
  636.00  1.1930E-001  
  636.50  1.1849E-001  
  637.00  1.1797E-001  
  637.50  1.1732E-001  
  638.00  1.1645E-001  
  638.50  1.1527E-001  
  639.00  1.1468E-001  
  639.50  1.1401E-001  
  640.00  1.1403E-001  
  640.50  1.1380E-001  
  641.00  1.1317E-001  
  641.50  1.1217E-001  
  642.00  1.1070E-001  
  642.50  1.0954E-001  
  643.00  1.0858E-001  
  643.50  1.0806E-001  
  644.00  1.0735E-001  
  644.50  1.0621E-001  
  645.00  1.0508E-001  
  645.50  1.0406E-001  
  646.00  1.0345E-001  
  646.50  1.0266E-001  
  647.00  1.0232E-001  
  647.50  1.0164E-001  
  648.00  1.0075E-001  
  648.50  9.9554E-002  
  649.00  9.8649E-002  
  649.50  9.7813E-002  
  650.00  9.7033E-002  
  650.50  9.6230E-002  
  651.00  9.5640E-002  
  651.50  9.5006E-002  
  652.00  9.4226E-002  
  652.50  9.2661E-002  
  653.00  9.1475E-002  
  653.50  9.0516E-002  
  654.00  9.0132E-002  
  654.50  8.9666E-002  
  655.00  8.8729E-002  
  655.50  8.7949E-002  
  656.00  8.6959E-002  
  656.50  8.6365E-002  
  657.00  8.5623E-002  
  657.50  8.4984E-002  
  658.00  8.3896E-002  
  658.50  8.2825E-002  
  659.00  8.1491E-002  
  659.50  8.0628E-002  
  660.00  8.0369E-002  
  660.50  8.0147E-002  
  661.00  7.9415E-002  
  661.50  7.8324E-002  
  662.00  7.7035E-002  
  662.50  7.6216E-002  
  663.00  7.5364E-002  
  663.50  7.4968E-002  
  664.00  7.4251E-002  
  664.50  7.3262E-002  
  665.00  7.2305E-002  
  665.50  7.1770E-002  
  666.00  7.1533E-002  
  666.50  7.0876E-002  
  667.00  6.9949E-002  
  667.50  6.8825E-002  
  668.00  6.7807E-002  
  668.50  6.6628E-002  
  669.00  6.5786E-002  
  669.50  6.5161E-002  
  670.00  6.5172E-002  
  670.50  6.4390E-002  
  671.00  6.3498E-002  
  671.50  6.2294E-002  
  672.00  6.1502E-002  
  672.50  6.1188E-002  
  673.00  6.0378E-002  
  673.50  5.9506E-002  
  674.00  5.8344E-002  
  674.50  5.7789E-002  
  675.00  5.7457E-002  
  675.50  5.6801E-002  
  676.00  5.6063E-002  
  676.50  5.5336E-002  
  677.00  5.4644E-002  
  677.50  5.3857E-002  
  678.00  5.3030E-002  
  678.50  5.2483E-002  
  679.00  5.2147E-002  
  679.50  5.1891E-002  
  680.00  5.1433E-002  
  680.50  5.0584E-002  
  681.00  4.9606E-002  
  681.50  4.9087E-002  
  682.00  4.8899E-002  
  682.50  4.8643E-002  
  683.00  4.7952E-002  
  683.50  4.7036E-002  
  684.00  4.6134E-002  
  684.50  4.5187E-002  
  685.00  4.4483E-002  
  685.50  4.3988E-002  
  686.00  4.4186E-002  
  686.50  4.4182E-002  
  687.00  4.4135E-002  
  687.50  4.2997E-002  
  688.00  4.2022E-002  
  688.50  4.1064E-002  
  689.00  4.0890E-002  
  689.50  4.0606E-002  
  690.00  4.0023E-002  
  690.50  3.8568E-002  
  691.00  3.7890E-002  
  691.50  3.7713E-002  
  692.00  3.8065E-002  
  692.50  3.7525E-002  
  693.00  3.6736E-002  
  693.50  3.6459E-002  
  694.00  3.6164E-002  
  694.50  3.5763E-002  
  695.00  3.5112E-002  
  695.50  3.4584E-002  
  696.00  3.3914E-002  
  696.50  3.3383E-002  
  697.00  3.3330E-002  
  697.50  3.3411E-002  
  698.00  3.3064E-002  
  698.50  3.2522E-002  
  699.00  3.2379E-002  
  699.50  3.1974E-002  
  700.00  3.1193E-002  
  700.50  3.0579E-002  
  701.00  3.0517E-002  
  701.50  3.0192E-002  
  702.00  2.9399E-002  
  702.50  2.8749E-002  
  703.00  2.8887E-002  
  703.50  2.8644E-002  
  704.00  2.7904E-002  
  704.50  2.6871E-002  
  705.00  2.6240E-002  
  705.50  2.5735E-002  
  706.00  2.5441E-002  
  706.50  2.5384E-002  
  707.00  2.5332E-002  
  707.50  2.4939E-002  
  708.00  2.4378E-002  
  708.50  2.3902E-002  
  709.00  2.3163E-002  
  709.50  2.2929E-002  
  710.00  2.3200E-002  
  710.50  2.3839E-002  
  711.00  2.3724E-002  
  711.50  2.3103E-002  
  712.00  2.2118E-002  
  712.50  2.1531E-002  
  713.00  2.1638E-002  
  713.50  2.1752E-002  
  714.00  2.1341E-002  
  714.50  2.0784E-002  
  715.00  2.0661E-002  
  715.50  2.0649E-002  
  716.00  2.0340E-002  
  716.50  1.9573E-002  
  717.00  1.8904E-002  
  717.50  1.8839E-002  
  718.00  1.8595E-002  
  718.50  1.8210E-002  
  719.00  1.7964E-002  
  719.50  1.8033E-002  
  720.00  1.7677E-002  
  720.50  1.7455E-002  
  721.00  1.7319E-002  
  721.50  1.7198E-002  
  722.00  1.6719E-002  
  722.50  1.6092E-002  
  723.00  1.5695E-002  
  723.50  1.5248E-002  
  724.00  1.5188E-002  
  724.50  1.4977E-002  
  725.00  1.4718E-002  
  725.50  1.4596E-002  
  726.00  1.4451E-002  
  726.50  1.4321E-002  
  727.00  1.4134E-002  
  727.50  1.3896E-002  
  728.00  1.3838E-002  
  728.50  1.3727E-002  
  729.00  1.3633E-002  
  729.50  1.3485E-002  
  730.00  1.3734E-002  
  730.50  1.3736E-002  
  731.00  1.3871E-002  
  731.50  1.3595E-002  
  732.00  1.3232E-002  
  732.50  1.2231E-002  
  733.00  1.1631E-002  
  733.50  1.1577E-002  
  734.00  1.2209E-002  
  734.50  1.2727E-002  
  735.00  1.2795E-002  
  735.50  1.2429E-002  
  736.00  1.1457E-002  
  736.50  1.0500E-002  
  737.00  1.0100E-002  
  737.50  1.0288E-002  
  738.00  1.0026E-002  
  738.50  1.0401E-002  
  739.00  1.0552E-002  
  739.50  1.0318E-002  
  740.00  9.3944E-003  
  740.50  8.7891E-003  
  741.00  8.7077E-003  
  741.50  9.0728E-003  
  742.00  9.3924E-003  
  742.50  9.4056E-003  
  743.00  9.4399E-003  
  743.50  9.6816E-003  
  744.00  9.1853E-003  
  744.50  8.9052E-003  
  745.00  8.3312E-003  
  745.50  8.0808E-003  
  746.00  7.1439E-003  
  746.50  6.9073E-003  
  747.00  7.3323E-003  
  747.50  7.8086E-003  
  748.00  8.2457E-003  
  748.50  8.7255E-003  
  749.00  8.6859E-003  
  749.50  7.8512E-003  
  750.00  7.0713E-003  
  750.50  7.5499E-003  
  751.00  7.9898E-003  
  751.50  8.0059E-003  
  752.00  7.0940E-003  
  752.50  6.2015E-003  
  753.00  5.6745E-003  
  753.50  5.9006E-003  
  754.00  6.4056E-003  
  754.50  6.4876E-003  
  755.00  6.3532E-003  
  755.50  6.1141E-003  
  756.00  5.8197E-003  
  756.50  6.4481E-003  
  757.00  6.7725E-003  
  757.50  7.3360E-003  
  758.00  7.2438E-003  
  758.50  7.2305E-003  
  759.00  7.1357E-003  
  759.50  6.9776E-003  
  760.00  6.6741E-003  
  760.50  6.3222E-003  
  761.00  5.9207E-003  
  761.50  5.3439E-003  
  762.00  5.5556E-003  
  762.50  5.7509E-003  
  763.00  5.1742E-003  
  763.50  3.7623E-003  
  764.00  3.5277E-003  
  764.50  4.3586E-003  
  765.00  4.9855E-003  
  765.50  4.5758E-003  
  766.00  4.3710E-003  
  766.50  4.0787E-003  
  767.00  5.0411E-003  
  767.50  5.4287E-003  
  768.00  5.3518E-003  
  768.50  4.6265E-003  
  769.00  4.1709E-003  
  769.50  4.4724E-003  
  770.00  4.1816E-003  
  770.50  3.9763E-003  
  771.00  3.9051E-003  
  771.50  4.3352E-003  
  772.00  4.2224E-003  
  772.50  4.2167E-003  
  773.00  4.7798E-003  
  773.50  5.6255E-003  
  774.00  5.4476E-003  
  774.50  4.6846E-003  
  775.00  4.2804E-003  
  775.50  4.8693E-003  
  776.00  6.0532E-003  
  776.50  6.3137E-003  
  777.00  5.3709E-003  
  777.50  4.3876E-003  
  778.00  4.6572E-003  
  778.50  4.9021E-003  
  779.00  3.7661E-003  
  779.50  2.3398E-003  
  780.00  1.5802E-003  
  780.50  2.0610E-003  
  781.00  2.5680E-003  
  781.50  3.5685E-003  
  782.00  3.7381E-003  
  782.50  3.6461E-003  
  783.00  3.7539E-003  
  783.50  4.4389E-003  
  784.00  4.9242E-003  
  784.50  4.5577E-003  
  785.00  3.6489E-003  
  785.50  2.5362E-003  
  786.00  1.7229E-003  
  786.50  1.4323E-003  
  787.00  2.4488E-003  
  787.50  2.9775E-003  
  788.00  2.9577E-003  
  788.50  1.9836E-003  
  789.00  1.6393E-003  
  789.50  2.2638E-003  
  790.00  3.1892E-003  
  790.50  3.0002E-003  
  791.00  2.5137E-003  
  791.50  2.4250E-003  
  792.00  2.8667E-003  
  792.50  1.7780E-003  
  793.00  1.6360E-003  
  793.50  1.9969E-003  
  794.00  3.1264E-003  
  794.50  2.8062E-003  
  795.00  2.9897E-003  
  795.50  3.4209E-003  
  796.00  2.8821E-003  
  796.50  1.5476E-003  
  797.00  1.1581E-003  
  797.50  2.3606E-003  
  798.00  4.0154E-003  
  798.50  3.4439E-003  
  799.00  2.2528E-003  
  799.50  2.0091E-003  
  800.00  1.3777E-003  
  800.50  9.9859E-004  
  801.00  1.6757E-003  
  801.50  3.1193E-003  
  802.00  3.7501E-003  
  802.50  4.2814E-003  
  803.00  4.3110E-003  
  803.50  4.3068E-003  
  804.00  3.3982E-003  
  804.50  2.5838E-003  
  805.00  1.5996E-003  
  805.50  1.7737E-003  
  806.00  2.3308E-003  
  806.50  2.7332E-003  
  807.00  2.1797E-003  
  807.50  2.7750E-004  
  808.00  0.0000E+000  
  808.50  0.0000E+000  
  809.00  1.3248E-003  
  809.50  1.1340E-003  
  810.00  1.5521E-003  
  810.50  1.4518E-003  
  811.00  1.1414E-003  
  811.50  5.6032E-004  
  812.00  3.3900E-004  
  812.50  3.4666E-004  
  813.00  0.0000E+000  
  813.50  0.0000E+000  
  814.00  1.8987E-004  
  814.50  1.3776E-003  
  815.00  1.4553E-003  
  815.50  1.7258E-003  
  816.00  3.0784E-003  
  816.50  4.6271E-003  
  817.00  4.4524E-003  
  817.50  3.0375E-003  
  818.00  3.7459E-003  
  818.50  2.7771E-003  
  819.00  2.5552E-003  
  819.50  1.8999E-003  
  820.00  3.1731E-003  
  820.50  2.7435E-003  
  821.00  6.7840E-004  
  821.50  4.9052E-004  
  822.00  1.0219E-003  
  822.50  2.2459E-003  
  823.00  1.8841E-003  
  823.50  2.8438E-003  
  824.00  3.0885E-003  
  824.50  3.2861E-003  
  825.00  2.6878E-003  
  825.50  1.0430E-003  
  826.00  5.6289E-005  
  826.50  5.5415E-004  
  827.00  1.4784E-003  
  827.50  1.7414E-003  
  828.00  1.3519E-003  
  828.50  1.2864E-003  
  829.00  1.5836E-003  
  829.50  3.1911E-003  
  830.00  4.0989E-003  
  830.50  3.4481E-003  
  831.00  2.0945E-003  
  831.50  1.8756E-003  
  832.00  2.1638E-003  
  832.50  2.3346E-003  
  833.00  2.6231E-003  
  833.50  1.9077E-003  
  834.00  1.1253E-003  
  834.50  1.4095E-003  
  835.00  1.8443E-004  
  835.50  0.0000E+000  
  836.00  0.0000E+000  
  836.50  7.8825E-004  
  837.00  2.9210E-004  
  837.50  7.5229E-004  
  838.00  2.4547E-003  
  838.50  2.0294E-003  
  839.00  0.0000E+000  
  839.50  0.0000E+000  
  840.00  2.1432E-004  
  840.50  1.0006E-003  
  841.00  4.9948E-004  
  841.50  9.7767E-004  
  842.00  2.1411E-003  
  842.50  3.1291E-003  
  843.00  2.7589E-003  
  843.50  2.3066E-003  
  844.00  2.2118E-003  
  844.50  1.5363E-003  
  845.00  1.2335E-003  
  845.50  9.9260E-004  
  846.00  1.0152E-003  
  846.50  1.4706E-003  
  847.00  3.3592E-003  
  847.50  3.0793E-003  
  848.00  1.1975E-003  
  848.50  0.0000E+000  
  849.00  3.9712E-005  
  849.50  1.2898E-003  
  850.00  3.5974E-004  
  850.50  0.0000E+000  
  851.00  0.0000E+000  
  851.50  1.9792E-004  
  852.00  3.3039E-003  
  852.50  2.4324E-003  
  853.00  2.4477E-003  
  853.50  1.7246E-003  
  854.00  2.1236E-003  
  854.50  1.2418E-003  
  855.00  8.8037E-004  
  855.50  2.2415E-003  
  856.00  2.7604E-003  
  856.50  2.0870E-003  
  857.00  1.8144E-004  
  857.50  0.0000E+000  
  858.00  0.0000E+000  
  858.50  0.0000E+000  
  859.00  0.0000E+000  
  859.50  0.0000E+000  
  860.00  0.0000E+000  
  860.50  0.0000E+000  
  861.00  1.0098E-003  
  861.50  4.0537E-003  
  862.00  2.3146E-003  
  862.50  1.9725E-005  
  863.00  0.0000E+000  
  863.50  0.0000E+000  
  864.00  0.0000E+000  
  864.50  0.0000E+000  
  865.00  0.0000E+000  
  865.50  0.0000E+000  
  866.00  2.2202E-004  
  866.50  2.1942E-003  
  867.00  3.4234E-003  
  867.50  2.8159E-003  
  868.00  1.9240E-003  
  868.50  1.7261E-003  
  869.00  0.0000E+000  
  869.50  0.0000E+000  
  870.00  9.5067E-004  
  870.50  1.0722E-003  
  871.00  1.7274E-003  
  871.50  3.0495E-003  
  872.00  4.8912E-003  
  872.50  4.1954E-003  
  873.00  4.4812E-003  
  873.50  5.8454E-003  
  874.00  6.9954E-003  
  874.50  9.1000E-003  
  875.00  6.6853E-003  
  875.50  2.8038E-003  
  876.00  2.2329E-003  
  876.50  7.4314E-003  
  877.00  6.1394E-003  
  877.50  9.2474E-004  
  878.00  0.0000E+000  
  878.50  1.3686E-003  
  879.00  7.3323E-004  
  879.50  9.9050E-004  
  880.00  4.4678E-004  
  880.50  0.0000E+000  
  881.00  0.0000E+000  
  881.50  0.0000E+000  
  882.00  1.4140E-003  
  882.50  7.5746E-003  
  883.00  9.5034E-003  
  883.50  6.0255E-003  
  884.00  1.3840E-003  
  884.50  4.2087E-003  
  885.00  4.2713E-003  
  885.50  6.6309E-004  
  886.00  0.0000E+000  
  886.50  6.5620E-005  
  887.00  2.6555E-003  
  887.50  5.1657E-003  
  888.00  5.8617E-003  
  888.50  6.7358E-003  
  889.00  9.4058E-003  
  889.50  1.1203E-002  
  890.00  9.8692E-003  
  890.50  8.2846E-003  
  891.00  4.6439E-003  
  891.50  3.8089E-004  
  892.00  0.0000E+000  
  892.50  0.0000E+000  
  893.00  8.2005E-004  
  893.50  1.9326E-003  
  894.00  6.3879E-004  
  894.50  0.0000E+000  
  895.00  0.0000E+000  
  895.50  1.7746E-003  
  896.00  3.1951E-003  
  896.50  1.3556E-003  
  897.00  2.4360E-003  
  897.50  1.8743E-003  
  898.00  3.6843E-005  
  898.50  0.0000E+000  
  899.00  8.8211E-004  
  899.50  3.6713E-005  
