
# From lspdd.org
# 
# Name: DEL DALS Wall-003 Domestique
# Indice spectral Valeur 
# MSI 0.35 
# SLI 0.54 
# IPI 0.68 
# Pourcentage de bleu 21.8 
# Caractéristique Valeur 
# CCT calculée (K) 3084 
# CCT du fabricant (K) 3000 
# Tension (V) 120 
# Puissance (W) 3.5 
# Efficacité lumineuse (Lum/W) 70.0 
#
# Image: '/app/system/img_2s/2652/medium_image2.jpg?1432223072'
# Image: '/app/system/img_1s/2652/medium_image1.jpg?1432223069'
# 

  273.00  0.0000E+000  
  273.50  0.0000E+000  
  274.00  0.0000E+000  
  274.50  0.0000E+000  
  275.00  0.0000E+000  
  275.50  0.0000E+000  
  276.00  0.0000E+000  
  276.50  0.0000E+000  
  277.00  0.0000E+000  
  277.50  0.0000E+000  
  278.00  0.0000E+000  
  278.50  0.0000E+000  
  279.00  0.0000E+000  
  279.50  0.0000E+000  
  280.00  0.0000E+000  
  280.50  0.0000E+000  
  281.00  0.0000E+000  
  281.50  0.0000E+000  
  282.00  0.0000E+000  
  282.50  0.0000E+000  
  283.00  0.0000E+000  
  283.50  0.0000E+000  
  284.00  0.0000E+000  
  284.50  0.0000E+000  
  285.00  0.0000E+000  
  285.50  0.0000E+000  
  286.00  0.0000E+000  
  286.50  0.0000E+000  
  287.00  0.0000E+000  
  287.50  0.0000E+000  
  288.00  0.0000E+000  
  288.50  0.0000E+000  
  289.00  0.0000E+000  
  289.50  0.0000E+000  
  290.00  0.0000E+000  
  290.50  0.0000E+000  
  291.00  0.0000E+000  
  291.50  0.0000E+000  
  292.00  0.0000E+000  
  292.50  0.0000E+000  
  293.00  0.0000E+000  
  293.50  0.0000E+000  
  294.00  0.0000E+000  
  294.50  0.0000E+000  
  295.00  0.0000E+000  
  295.50  0.0000E+000  
  296.00  0.0000E+000  
  296.50  0.0000E+000  
  297.00  0.0000E+000  
  297.50  0.0000E+000  
  298.00  0.0000E+000  
  298.50  0.0000E+000  
  299.00  0.0000E+000  
  299.50  0.0000E+000  
  300.00  2.0737E-004  
  300.50  5.5694E-004  
  301.00  3.9137E-004  
  301.50  8.6426E-005  
  302.00  6.1334E-005  
  302.50  1.4964E-004  
  303.00  3.1818E-004  
  303.50  5.4662E-004  
  304.00  8.0621E-004  
  304.50  1.1117E-003  
  305.00  1.0439E-003  
  305.50  9.1911E-004  
  306.00  5.9145E-004  
  306.50  6.4991E-004  
  307.00  1.2724E-003  
  307.50  1.3185E-003  
  308.00  1.1898E-003  
  308.50  1.2140E-003  
  309.00  1.3441E-003  
  309.50  1.6657E-003  
  310.00  1.7644E-003  
  310.50  1.4822E-003  
  311.00  6.9718E-004  
  311.50  3.2702E-004  
  312.00  2.6382E-004  
  312.50  3.5085E-004  
  313.00  8.5556E-004  
  313.50  1.1581E-003  
  314.00  1.0996E-003  
  314.50  7.9539E-004  
  315.00  3.0558E-004  
  315.50  1.7734E-005  
  316.00  3.5553E-005  
  316.50  2.1127E-004  
  317.00  1.1712E-004  
  317.50  1.4138E-004  
  318.00  3.7517E-004  
  318.50  7.6293E-004  
  319.00  1.3694E-003  
  319.50  1.4770E-003  
  320.00  1.2145E-003  
  320.50  9.0817E-004  
  321.00  5.8526E-004  
  321.50  3.3400E-004  
  322.00  5.1637E-004  
  322.50  6.7682E-004  
  323.00  9.8321E-004  
  323.50  1.2958E-003  
  324.00  1.6082E-003  
  324.50  1.5913E-003  
  325.00  1.5494E-003  
  325.50  1.0844E-003  
  326.00  4.7924E-004  
  326.50  5.2842E-004  
  327.00  7.2902E-004  
  327.50  1.1108E-003  
  328.00  1.3312E-003  
  328.50  1.0713E-003  
  329.00  1.0815E-003  
  329.50  1.2541E-003  
  330.00  1.4325E-003  
  330.50  1.2645E-003  
  331.00  7.3354E-004  
  331.50  4.7824E-005  
  332.00  0.0000E+000  
  332.50  0.0000E+000  
  333.00  1.5584E-004  
  333.50  3.8924E-004  
  334.00  5.2370E-004  
  334.50  8.1248E-004  
  335.00  1.0042E-003  
  335.50  1.2498E-003  
  336.00  1.2546E-003  
  336.50  1.1804E-003  
  337.00  1.0296E-003  
  337.50  7.4877E-004  
  338.00  5.9341E-004  
  338.50  2.0131E-004  
  339.00  2.0199E-004  
  339.50  4.3224E-004  
  340.00  7.2831E-004  
  340.50  7.3855E-004  
  341.00  3.7206E-004  
  341.50  6.5715E-005  
  342.00  0.0000E+000  
  342.50  0.0000E+000  
  343.00  0.0000E+000  
  343.50  0.0000E+000  
  344.00  1.5545E-004  
  344.50  6.7449E-004  
  345.00  1.2930E-003  
  345.50  1.4870E-003  
  346.00  1.1771E-003  
  346.50  9.7365E-004  
  347.00  9.5663E-004  
  347.50  1.0390E-003  
  348.00  8.7290E-004  
  348.50  6.3163E-004  
  349.00  9.9767E-004  
  349.50  1.2297E-003  
  350.00  1.3037E-003  
  350.50  1.0045E-003  
  351.00  5.1205E-004  
  351.50  1.7239E-004  
  352.00  8.9913E-005  
  352.50  4.9838E-005  
  353.00  4.6561E-004  
  353.50  9.4661E-004  
  354.00  1.1436E-003  
  354.50  1.0440E-003  
  355.00  8.6505E-004  
  355.50  7.1249E-004  
  356.00  7.0489E-004  
  356.50  1.0135E-003  
  357.00  1.2227E-003  
  357.50  1.0928E-003  
  358.00  8.7553E-004  
  358.50  2.8768E-004  
  359.00  1.0961E-004  
  359.50  1.7420E-004  
  360.00  5.3104E-004  
  360.50  6.0877E-004  
  361.00  7.9696E-004  
  361.50  8.9532E-004  
  362.00  9.1493E-004  
  362.50  9.3004E-004  
  363.00  6.6466E-004  
  363.50  3.9769E-004  
  364.00  3.3628E-004  
  364.50  2.6306E-004  
  365.00  3.2472E-004  
  365.50  2.6369E-004  
  366.00  2.9681E-004  
  366.50  5.2070E-004  
  367.00  8.6689E-004  
  367.50  1.2929E-003  
  368.00  1.5398E-003  
  368.50  1.7076E-003  
  369.00  1.6611E-003  
  369.50  1.6564E-003  
  370.00  1.6282E-003  
  370.50  1.3546E-003  
  371.00  1.2494E-003  
  371.50  9.1478E-004  
  372.00  5.5768E-004  
  372.50  3.7772E-004  
  373.00  1.9066E-004  
  373.50  3.2445E-004  
  374.00  3.9031E-004  
  374.50  4.1633E-004  
  375.00  6.6422E-004  
  375.50  1.1136E-003  
  376.00  1.5825E-003  
  376.50  1.6527E-003  
  377.00  1.4528E-003  
  377.50  1.1503E-003  
  378.00  9.4284E-004  
  378.50  1.2333E-003  
  379.00  1.4356E-003  
  379.50  1.4670E-003  
  380.00  1.3871E-003  
  380.50  1.1431E-003  
  381.00  1.0121E-003  
  381.50  9.7597E-004  
  382.00  9.7592E-004  
  382.50  9.2848E-004  
  383.00  9.5169E-004  
  383.50  1.1287E-003  
  384.00  1.3115E-003  
  384.50  1.4909E-003  
  385.00  1.6731E-003  
  385.50  1.8693E-003  
  386.00  1.9264E-003  
  386.50  1.8564E-003  
  387.00  1.5979E-003  
  387.50  1.5206E-003  
  388.00  1.4875E-003  
  388.50  1.3435E-003  
  389.00  1.1086E-003  
  389.50  1.0481E-003  
  390.00  1.1304E-003  
  390.50  1.3723E-003  
  391.00  1.3645E-003  
  391.50  1.0638E-003  
  392.00  8.7998E-004  
  392.50  8.5247E-004  
  393.00  1.1271E-003  
  393.50  1.3205E-003  
  394.00  1.2526E-003  
  394.50  1.0490E-003  
  395.00  7.6474E-004  
  395.50  7.4330E-004  
  396.00  6.5572E-004  
  396.50  8.1577E-004  
  397.00  9.6033E-004  
  397.50  1.0462E-003  
  398.00  1.0912E-003  
  398.50  1.0240E-003  
  399.00  1.2051E-003  
  399.50  1.3538E-003  
  400.00  1.7916E-003  
  400.50  1.8816E-003  
  401.00  1.8846E-003  
  401.50  1.7732E-003  
  402.00  1.6375E-003  
  402.50  1.8491E-003  
  403.00  1.8144E-003  
  403.50  2.0056E-003  
  404.00  1.8341E-003  
  404.50  1.9086E-003  
  405.00  2.3403E-003  
  405.50  2.6756E-003  
  406.00  2.7639E-003  
  406.50  2.5346E-003  
  407.00  2.2201E-003  
  407.50  2.5327E-003  
  408.00  2.9857E-003  
  408.50  3.4439E-003  
  409.00  3.5527E-003  
  409.50  3.4775E-003  
  410.00  3.7402E-003  
  410.50  4.1834E-003  
  411.00  4.6497E-003  
  411.50  4.5522E-003  
  412.00  4.3742E-003  
  412.50  4.4874E-003  
  413.00  4.7597E-003  
  413.50  5.3267E-003  
  414.00  5.6169E-003  
  414.50  5.8125E-003  
  415.00  6.1426E-003  
  415.50  6.4863E-003  
  416.00  6.9661E-003  
  416.50  7.1866E-003  
  417.00  7.3637E-003  
  417.50  7.5369E-003  
  418.00  7.9556E-003  
  418.50  8.4323E-003  
  419.00  8.9300E-003  
  419.50  9.7262E-003  
  420.00  1.0698E-002  
  420.50  1.1909E-002  
  421.00  1.2699E-002  
  421.50  1.3496E-002  
  422.00  1.4459E-002  
  422.50  1.5376E-002  
  423.00  1.6105E-002  
  423.50  1.6731E-002  
  424.00  1.7420E-002  
  424.50  1.8736E-002  
  425.00  2.0296E-002  
  425.50  2.1973E-002  
  426.00  2.3454E-002  
  426.50  2.4582E-002  
  427.00  2.5671E-002  
  427.50  2.6961E-002  
  428.00  2.8845E-002  
  428.50  3.0991E-002  
  429.00  3.2893E-002  
  429.50  3.4502E-002  
  430.00  3.6358E-002  
  430.50  3.8641E-002  
  431.00  4.1054E-002  
  431.50  4.3021E-002  
  432.00  4.4745E-002  
  432.50  4.6919E-002  
  433.00  4.9365E-002  
  433.50  5.2475E-002  
  434.00  5.5225E-002  
  434.50  5.7543E-002  
  435.00  6.0322E-002  
  435.50  6.3171E-002  
  436.00  6.6456E-002  
  436.50  6.9439E-002  
  437.00  7.2254E-002  
  437.50  7.5651E-002  
  438.00  7.9846E-002  
  438.50  8.4773E-002  
  439.00  8.9632E-002  
  439.50  9.4592E-002  
  440.00  9.9812E-002  
  440.50  1.0499E-001  
  441.00  1.1014E-001  
  441.50  1.1534E-001  
  442.00  1.2076E-001  
  442.50  1.2631E-001  
  443.00  1.3248E-001  
  443.50  1.3856E-001  
  444.00  1.4558E-001  
  444.50  1.5241E-001  
  445.00  1.5815E-001  
  445.50  1.6414E-001  
  446.00  1.6905E-001  
  446.50  1.7376E-001  
  447.00  1.7785E-001  
  447.50  1.8116E-001  
  448.00  1.8428E-001  
  448.50  1.8652E-001  
  449.00  1.8758E-001  
  449.50  1.8657E-001  
  450.00  1.8546E-001  
  450.50  1.8404E-001  
  451.00  1.8267E-001  
  451.50  1.7964E-001  
  452.00  1.7543E-001  
  452.50  1.7076E-001  
  453.00  1.6636E-001  
  453.50  1.6249E-001  
  454.00  1.5749E-001  
  454.50  1.5276E-001  
  455.00  1.4793E-001  
  455.50  1.4308E-001  
  456.00  1.3806E-001  
  456.50  1.3238E-001  
  457.00  1.2755E-001  
  457.50  1.2388E-001  
  458.00  1.2016E-001  
  458.50  1.1727E-001  
  459.00  1.1351E-001  
  459.50  1.0978E-001  
  460.00  1.0643E-001  
  460.50  1.0334E-001  
  461.00  1.0131E-001  
  461.50  9.8679E-002  
  462.00  9.6453E-002  
  462.50  9.4012E-002  
  463.00  9.2125E-002  
  463.50  9.0585E-002  
  464.00  8.9076E-002  
  464.50  8.7506E-002  
  465.00  8.5988E-002  
  465.50  8.4077E-002  
  466.00  8.2023E-002  
  466.50  7.9819E-002  
  467.00  7.7871E-002  
  467.50  7.6305E-002  
  468.00  7.4698E-002  
  468.50  7.3235E-002  
  469.00  7.1546E-002  
  469.50  6.9919E-002  
  470.00  6.8124E-002  
  470.50  6.6331E-002  
  471.00  6.4176E-002  
  471.50  6.2197E-002  
  472.00  6.0263E-002  
  472.50  5.8803E-002  
  473.00  5.7943E-002  
  473.50  5.7600E-002  
  474.00  5.7364E-002  
  474.50  5.6863E-002  
  475.00  5.6019E-002  
  475.50  5.5056E-002  
  476.00  5.4113E-002  
  476.50  5.3385E-002  
  477.00  5.2949E-002  
  477.50  5.2681E-002  
  478.00  5.2784E-002  
  478.50  5.2727E-002  
  479.00  5.2794E-002  
  479.50  5.2617E-002  
  480.00  5.2449E-002  
  480.50  5.2109E-002  
  481.00  5.1971E-002  
  481.50  5.2011E-002  
  482.00  5.2192E-002  
  482.50  5.2340E-002  
  483.00  5.2512E-002  
  483.50  5.2843E-002  
  484.00  5.3438E-002  
  484.50  5.4124E-002  
  485.00  5.4612E-002  
  485.50  5.5090E-002  
  486.00  5.5622E-002  
  486.50  5.5969E-002  
  487.00  5.6274E-002  
  487.50  5.6541E-002  
  488.00  5.7079E-002  
  488.50  5.7770E-002  
  489.00  5.8686E-002  
  489.50  5.9620E-002  
  490.00  6.0784E-002  
  490.50  6.2035E-002  
  491.00  6.3220E-002  
  491.50  6.4201E-002  
  492.00  6.5219E-002  
  492.50  6.6102E-002  
  493.00  6.7295E-002  
  493.50  6.8719E-002  
  494.00  7.0142E-002  
  494.50  7.1614E-002  
  495.00  7.2865E-002  
  495.50  7.4315E-002  
  496.00  7.5841E-002  
  496.50  7.7328E-002  
  497.00  7.8679E-002  
  497.50  7.9991E-002  
  498.00  8.1089E-002  
  498.50  8.2356E-002  
  499.00  8.3859E-002  
  499.50  8.5959E-002  
  500.00  8.7896E-002  
  500.50  8.9596E-002  
  501.00  9.0762E-002  
  501.50  9.2117E-002  
  502.00  9.3915E-002  
  502.50  9.5630E-002  
  503.00  9.7163E-002  
  503.50  9.8562E-002  
  504.00  9.9904E-002  
  504.50  1.0130E-001  
  505.00  1.0246E-001  
  505.50  1.0375E-001  
  506.00  1.0526E-001  
  506.50  1.0708E-001  
  507.00  1.0883E-001  
  507.50  1.1027E-001  
  508.00  1.1152E-001  
  508.50  1.1281E-001  
  509.00  1.1432E-001  
  509.50  1.1592E-001  
  510.00  1.1730E-001  
  510.50  1.1848E-001  
  511.00  1.1991E-001  
  511.50  1.2139E-001  
  512.00  1.2306E-001  
  512.50  1.2448E-001  
  513.00  1.2560E-001  
  513.50  1.2665E-001  
  514.00  1.2768E-001  
  514.50  1.2916E-001  
  515.00  1.3068E-001  
  515.50  1.3213E-001  
  516.00  1.3360E-001  
  516.50  1.3479E-001  
  517.00  1.3615E-001  
  517.50  1.3742E-001  
  518.00  1.3870E-001  
  518.50  1.3990E-001  
  519.00  1.4112E-001  
  519.50  1.4221E-001  
  520.00  1.4326E-001  
  520.50  1.4421E-001  
  521.00  1.4555E-001  
  521.50  1.4681E-001  
  522.00  1.4782E-001  
  522.50  1.4848E-001  
  523.00  1.4921E-001  
  523.50  1.5049E-001  
  524.00  1.5199E-001  
  524.50  1.5318E-001  
  525.00  1.5413E-001  
  525.50  1.5512E-001  
  526.00  1.5601E-001  
  526.50  1.5711E-001  
  527.00  1.5819E-001  
  527.50  1.5946E-001  
  528.00  1.6058E-001  
  528.50  1.6175E-001  
  529.00  1.6265E-001  
  529.50  1.6339E-001  
  530.00  1.6414E-001  
  530.50  1.6505E-001  
  531.00  1.6639E-001  
  531.50  1.6786E-001  
  532.00  1.6912E-001  
  532.50  1.7034E-001  
  533.00  1.7127E-001  
  533.50  1.7192E-001  
  534.00  1.7252E-001  
  534.50  1.7346E-001  
  535.00  1.7457E-001  
  535.50  1.7578E-001  
  536.00  1.7682E-001  
  536.50  1.7789E-001  
  537.00  1.7912E-001  
  537.50  1.8032E-001  
  538.00  1.8136E-001  
  538.50  1.8247E-001  
  539.00  1.8360E-001  
  539.50  1.8470E-001  
  540.00  1.8589E-001  
  540.50  1.8709E-001  
  541.00  1.8813E-001  
  541.50  1.8916E-001  
  542.00  1.9015E-001  
  542.50  1.9140E-001  
  543.00  1.9252E-001  
  543.50  1.9359E-001  
  544.00  1.9457E-001  
  544.50  1.9548E-001  
  545.00  1.9648E-001  
  545.50  1.9727E-001  
  546.00  1.9823E-001  
  546.50  1.9927E-001  
  547.00  2.0074E-001  
  547.50  2.0249E-001  
  548.00  2.0411E-001  
  548.50  2.0513E-001  
  549.00  2.0600E-001  
  549.50  2.0692E-001  
  550.00  2.0814E-001  
  550.50  2.0944E-001  
  551.00  2.1053E-001  
  551.50  2.1183E-001  
  552.00  2.1318E-001  
  552.50  2.1494E-001  
  553.00  2.1639E-001  
  553.50  2.1762E-001  
  554.00  2.1865E-001  
  554.50  2.1988E-001  
  555.00  2.2096E-001  
  555.50  2.2221E-001  
  556.00  2.2359E-001  
  556.50  2.2516E-001  
  557.00  2.2656E-001  
  557.50  2.2798E-001  
  558.00  2.2952E-001  
  558.50  2.3086E-001  
  559.00  2.3200E-001  
  559.50  2.3267E-001  
  560.00  2.3375E-001  
  560.50  2.3502E-001  
  561.00  2.3654E-001  
  561.50  2.3816E-001  
  562.00  2.3950E-001  
  562.50  2.4117E-001  
  563.00  2.4287E-001  
  563.50  2.4435E-001  
  564.00  2.4539E-001  
  564.50  2.4606E-001  
  565.00  2.4677E-001  
  565.50  2.4777E-001  
  566.00  2.4871E-001  
  566.50  2.4994E-001  
  567.00  2.5082E-001  
  567.50  2.5173E-001  
  568.00  2.5269E-001  
  568.50  2.5428E-001  
  569.00  2.5595E-001  
  569.50  2.5716E-001  
  570.00  2.5830E-001  
  570.50  2.5948E-001  
  571.00  2.6067E-001  
  571.50  2.6160E-001  
  572.00  2.6258E-001  
  572.50  2.6363E-001  
  573.00  2.6444E-001  
  573.50  2.6526E-001  
  574.00  2.6632E-001  
  574.50  2.6784E-001  
  575.00  2.6929E-001  
  575.50  2.7047E-001  
  576.00  2.7150E-001  
  576.50  2.7244E-001  
  577.00  2.7325E-001  
  577.50  2.7395E-001  
  578.00  2.7462E-001  
  578.50  2.7558E-001  
  579.00  2.7654E-001  
  579.50  2.7765E-001  
  580.00  2.7840E-001  
  580.50  2.7950E-001  
  581.00  2.8053E-001  
  581.50  2.8209E-001  
  582.00  2.8339E-001  
  582.50  2.8437E-001  
  583.00  2.8485E-001  
  583.50  2.8531E-001  
  584.00  2.8563E-001  
  584.50  2.8623E-001  
  585.00  2.8702E-001  
  585.50  2.8743E-001  
  586.00  2.8774E-001  
  586.50  2.8775E-001  
  587.00  2.8824E-001  
  587.50  2.8941E-001  
  588.00  2.9061E-001  
  588.50  2.9155E-001  
  589.00  2.9187E-001  
  589.50  2.9230E-001  
  590.00  2.9273E-001  
  590.50  2.9357E-001  
  591.00  2.9471E-001  
  591.50  2.9595E-001  
  592.00  2.9706E-001  
  592.50  2.9788E-001  
  593.00  2.9812E-001  
  593.50  2.9759E-001  
  594.00  2.9698E-001  
  594.50  2.9712E-001  
  595.00  2.9769E-001  
  595.50  2.9786E-001  
  596.00  2.9785E-001  
  596.50  2.9852E-001  
  597.00  2.9922E-001  
  597.50  2.9952E-001  
  598.00  2.9909E-001  
  598.50  2.9912E-001  
  599.00  2.9914E-001  
  599.50  2.9924E-001  
  600.00  2.9906E-001  
  600.50  2.9899E-001  
  601.00  2.9900E-001  
  601.50  2.9902E-001  
  602.00  2.9940E-001  
  602.50  2.9957E-001  
  603.00  2.9953E-001  
  603.50  2.9911E-001  
  604.00  2.9875E-001  
  604.50  2.9870E-001  
  605.00  2.9904E-001  
  605.50  2.9917E-001  
  606.00  2.9899E-001  
  606.50  2.9811E-001  
  607.00  2.9739E-001  
  607.50  2.9671E-001  
  608.00  2.9630E-001  
  608.50  2.9576E-001  
  609.00  2.9575E-001  
  609.50  2.9603E-001  
  610.00  2.9671E-001  
  610.50  2.9641E-001  
  611.00  2.9576E-001  
  611.50  2.9474E-001  
  612.00  2.9423E-001  
  612.50  2.9387E-001  
  613.00  2.9393E-001  
  613.50  2.9352E-001  
  614.00  2.9306E-001  
  614.50  2.9176E-001  
  615.00  2.9034E-001  
  615.50  2.8902E-001  
  616.00  2.8850E-001  
  616.50  2.8808E-001  
  617.00  2.8708E-001  
  617.50  2.8555E-001  
  618.00  2.8452E-001  
  618.50  2.8409E-001  
  619.00  2.8337E-001  
  619.50  2.8254E-001  
  620.00  2.8149E-001  
  620.50  2.8097E-001  
  621.00  2.7990E-001  
  621.50  2.7806E-001  
  622.00  2.7628E-001  
  622.50  2.7501E-001  
  623.00  2.7458E-001  
  623.50  2.7390E-001  
  624.00  2.7315E-001  
  624.50  2.7258E-001  
  625.00  2.7160E-001  
  625.50  2.7046E-001  
  626.00  2.6872E-001  
  626.50  2.6763E-001  
  627.00  2.6638E-001  
  627.50  2.6543E-001  
  628.00  2.6444E-001  
  628.50  2.6321E-001  
  629.00  2.6183E-001  
  629.50  2.6035E-001  
  630.00  2.5939E-001  
  630.50  2.5819E-001  
  631.00  2.5661E-001  
  631.50  2.5474E-001  
  632.00  2.5294E-001  
  632.50  2.5147E-001  
  633.00  2.5064E-001  
  633.50  2.5021E-001  
  634.00  2.5002E-001  
  634.50  2.4858E-001  
  635.00  2.4657E-001  
  635.50  2.4440E-001  
  636.00  2.4258E-001  
  636.50  2.4150E-001  
  637.00  2.3990E-001  
  637.50  2.3862E-001  
  638.00  2.3714E-001  
  638.50  2.3580E-001  
  639.00  2.3417E-001  
  639.50  2.3246E-001  
  640.00  2.3126E-001  
  640.50  2.2971E-001  
  641.00  2.2817E-001  
  641.50  2.2644E-001  
  642.00  2.2454E-001  
  642.50  2.2286E-001  
  643.00  2.2075E-001  
  643.50  2.1924E-001  
  644.00  2.1769E-001  
  644.50  2.1604E-001  
  645.00  2.1449E-001  
  645.50  2.1275E-001  
  646.00  2.1150E-001  
  646.50  2.1017E-001  
  647.00  2.0885E-001  
  647.50  2.0726E-001  
  648.00  2.0556E-001  
  648.50  2.0334E-001  
  649.00  2.0115E-001  
  649.50  1.9954E-001  
  650.00  1.9838E-001  
  650.50  1.9733E-001  
  651.00  1.9533E-001  
  651.50  1.9337E-001  
  652.00  1.9146E-001  
  652.50  1.9000E-001  
  653.00  1.8845E-001  
  653.50  1.8617E-001  
  654.00  1.8400E-001  
  654.50  1.8222E-001  
  655.00  1.8119E-001  
  655.50  1.8007E-001  
  656.00  1.7853E-001  
  656.50  1.7663E-001  
  657.00  1.7435E-001  
  657.50  1.7220E-001  
  658.00  1.7014E-001  
  658.50  1.6906E-001  
  659.00  1.6776E-001  
  659.50  1.6608E-001  
  660.00  1.6416E-001  
  660.50  1.6270E-001  
  661.00  1.6140E-001  
  661.50  1.6011E-001  
  662.00  1.5829E-001  
  662.50  1.5706E-001  
  663.00  1.5562E-001  
  663.50  1.5381E-001  
  664.00  1.5145E-001  
  664.50  1.4924E-001  
  665.00  1.4743E-001  
  665.50  1.4584E-001  
  666.00  1.4427E-001  
  666.50  1.4289E-001  
  667.00  1.4169E-001  
  667.50  1.3987E-001  
  668.00  1.3820E-001  
  668.50  1.3631E-001  
  669.00  1.3502E-001  
  669.50  1.3395E-001  
  670.00  1.3298E-001  
  670.50  1.3184E-001  
  671.00  1.3057E-001  
  671.50  1.2913E-001  
  672.00  1.2743E-001  
  672.50  1.2591E-001  
  673.00  1.2430E-001  
  673.50  1.2308E-001  
  674.00  1.2159E-001  
  674.50  1.1993E-001  
  675.00  1.1824E-001  
  675.50  1.1658E-001  
  676.00  1.1530E-001  
  676.50  1.1441E-001  
  677.00  1.1345E-001  
  677.50  1.1198E-001  
  678.00  1.0998E-001  
  678.50  1.0837E-001  
  679.00  1.0766E-001  
  679.50  1.0709E-001  
  680.00  1.0619E-001  
  680.50  1.0478E-001  
  681.00  1.0323E-001  
  681.50  1.0179E-001  
  682.00  1.0037E-001  
  682.50  9.8948E-002  
  683.00  9.7660E-002  
  683.50  9.6822E-002  
  684.00  9.5697E-002  
  684.50  9.4481E-002  
  685.00  9.3153E-002  
  685.50  9.2361E-002  
  686.00  9.1758E-002  
  686.50  9.0846E-002  
  687.00  8.9688E-002  
  687.50  8.8017E-002  
  688.00  8.6466E-002  
  688.50  8.4823E-002  
  689.00  8.4087E-002  
  689.50  8.3705E-002  
  690.00  8.2861E-002  
  690.50  8.1354E-002  
  691.00  8.0042E-002  
  691.50  7.9540E-002  
  692.00  7.8611E-002  
  692.50  7.7186E-002  
  693.00  7.5761E-002  
  693.50  7.5398E-002  
  694.00  7.4695E-002  
  694.50  7.3495E-002  
  695.00  7.1925E-002  
  695.50  7.0635E-002  
  696.00  6.9986E-002  
  696.50  6.9222E-002  
  697.00  6.8620E-002  
  697.50  6.7730E-002  
  698.00  6.6750E-002  
  698.50  6.5807E-002  
  699.00  6.4828E-002  
  699.50  6.4582E-002  
  700.00  6.3788E-002  
  700.50  6.2892E-002  
  701.00  6.2037E-002  
  701.50  6.1273E-002  
  702.00  6.0404E-002  
  702.50  5.9338E-002  
  703.00  5.9021E-002  
  703.50  5.8155E-002  
  704.00  5.7060E-002  
  704.50  5.6327E-002  
  705.00  5.5951E-002  
  705.50  5.5376E-002  
  706.00  5.4366E-002  
  706.50  5.3672E-002  
  707.00  5.3042E-002  
  707.50  5.2490E-002  
  708.00  5.1688E-002  
  708.50  5.1032E-002  
  709.00  5.0161E-002  
  709.50  4.9249E-002  
  710.00  4.8592E-002  
  710.50  4.8222E-002  
  711.00  4.8106E-002  
  711.50  4.7101E-002  
  712.00  4.6003E-002  
  712.50  4.5382E-002  
  713.00  4.4965E-002  
  713.50  4.4301E-002  
  714.00  4.3337E-002  
  714.50  4.3158E-002  
  715.00  4.2616E-002  
  715.50  4.1942E-002  
  716.00  4.1217E-002  
  716.50  4.0823E-002  
  717.00  4.0212E-002  
  717.50  3.9261E-002  
  718.00  3.8321E-002  
  718.50  3.7514E-002  
  719.00  3.7210E-002  
  719.50  3.7176E-002  
  720.00  3.6795E-002  
  720.50  3.6362E-002  
  721.00  3.5873E-002  
  721.50  3.5855E-002  
  722.00  3.5488E-002  
  722.50  3.5180E-002  
  723.00  3.4547E-002  
  723.50  3.3752E-002  
  724.00  3.2798E-002  
  724.50  3.1915E-002  
  725.00  3.1048E-002  
  725.50  3.0585E-002  
  726.00  3.0206E-002  
  726.50  2.9942E-002  
  727.00  2.9446E-002  
  727.50  2.9265E-002  
  728.00  2.9071E-002  
  728.50  2.9154E-002  
  729.00  2.8541E-002  
  729.50  2.7806E-002  
  730.00  2.7858E-002  
  730.50  2.8523E-002  
  731.00  2.9426E-002  
  731.50  2.8666E-002  
  732.00  2.7528E-002  
  732.50  2.5972E-002  
  733.00  2.5475E-002  
  733.50  2.5200E-002  
  734.00  2.5174E-002  
  734.50  2.5119E-002  
  735.00  2.5038E-002  
  735.50  2.4611E-002  
  736.00  2.3919E-002  
  736.50  2.3546E-002  
  737.00  2.2874E-002  
  737.50  2.2366E-002  
  738.00  2.1823E-002  
  738.50  2.1847E-002  
  739.00  2.1556E-002  
  739.50  2.0749E-002  
  740.00  2.0159E-002  
  740.50  1.9527E-002  
  741.00  1.9606E-002  
  741.50  1.9925E-002  
  742.00  1.9879E-002  
  742.50  1.9431E-002  
  743.00  1.8987E-002  
  743.50  1.8749E-002  
  744.00  1.7844E-002  
  744.50  1.6952E-002  
  745.00  1.6212E-002  
  745.50  1.6433E-002  
  746.00  1.6029E-002  
  746.50  1.6303E-002  
  747.00  1.6353E-002  
  747.50  1.6385E-002  
  748.00  1.5865E-002  
  748.50  1.6035E-002  
  749.00  1.5863E-002  
  749.50  1.5508E-002  
  750.00  1.5026E-002  
  750.50  1.5434E-002  
  751.00  1.5245E-002  
  751.50  1.4912E-002  
  752.00  1.4577E-002  
  752.50  1.4373E-002  
  753.00  1.4313E-002  
  753.50  1.3874E-002  
  754.00  1.3662E-002  
  754.50  1.3012E-002  
  755.00  1.2808E-002  
  755.50  1.2808E-002  
  756.00  1.3349E-002  
  756.50  1.4111E-002  
  757.00  1.4081E-002  
  757.50  1.3866E-002  
  758.00  1.3189E-002  
  758.50  1.3322E-002  
  759.00  1.3361E-002  
  759.50  1.2999E-002  
  760.00  1.2073E-002  
  760.50  1.1631E-002  
  761.00  1.1903E-002  
  761.50  1.1346E-002  
  762.00  1.1134E-002  
  762.50  1.0966E-002  
  763.00  1.1030E-002  
  763.50  1.0617E-002  
  764.00  9.9813E-003  
  764.50  9.2661E-003  
  765.00  9.2462E-003  
  765.50  8.9706E-003  
  766.00  8.7546E-003  
  766.50  8.5881E-003  
  767.00  9.9461E-003  
  767.50  1.0654E-002  
  768.00  1.0570E-002  
  768.50  9.7611E-003  
  769.00  9.7993E-003  
  769.50  9.7724E-003  
  770.00  9.2903E-003  
  770.50  8.0548E-003  
  771.00  7.8549E-003  
  771.50  8.3687E-003  
  772.00  8.3858E-003  
  772.50  8.3094E-003  
  773.00  8.5842E-003  
  773.50  9.6212E-003  
  774.00  8.9855E-003  
  774.50  7.7201E-003  
  775.00  6.8775E-003  
  775.50  7.5490E-003  
  776.00  8.6561E-003  
  776.50  9.1568E-003  
  777.00  8.7157E-003  
  777.50  7.9576E-003  
  778.00  7.5626E-003  
  778.50  8.0281E-003  
  779.00  7.5627E-003  
  779.50  5.7762E-003  
  780.00  4.1214E-003  
  780.50  4.3258E-003  
  781.00  5.9398E-003  
  781.50  6.8432E-003  
  782.00  7.2254E-003  
  782.50  7.1015E-003  
  783.00  7.1599E-003  
  783.50  7.3972E-003  
  784.00  8.0275E-003  
  784.50  8.1665E-003  
  785.00  7.2311E-003  
  785.50  6.0372E-003  
  786.00  4.2399E-003  
  786.50  4.6652E-003  
  787.00  6.1131E-003  
  787.50  6.2523E-003  
  788.00  5.1745E-003  
  788.50  4.1423E-003  
  789.00  3.9637E-003  
  789.50  4.7324E-003  
  790.00  6.8877E-003  
  790.50  8.5741E-003  
  791.00  7.9922E-003  
  791.50  6.2411E-003  
  792.00  5.5294E-003  
  792.50  4.9790E-003  
  793.00  5.0324E-003  
  793.50  5.5972E-003  
  794.00  5.4589E-003  
  794.50  3.8539E-003  
  795.00  3.4402E-003  
  795.50  4.4232E-003  
  796.00  4.9009E-003  
  796.50  4.1218E-003  
  797.00  3.6289E-003  
  797.50  4.7430E-003  
  798.00  6.1598E-003  
  798.50  6.2877E-003  
  799.00  5.3295E-003  
  799.50  4.4169E-003  
  800.00  3.7660E-003  
  800.50  3.7143E-003  
  801.00  4.9562E-003  
  801.50  5.2080E-003  
  802.00  5.3405E-003  
  802.50  4.3668E-003  
  803.00  3.8949E-003  
  803.50  4.6085E-003  
  804.00  5.0293E-003  
  804.50  4.0637E-003  
  805.00  3.3652E-003  
  805.50  2.6966E-003  
  806.00  3.1489E-003  
  806.50  3.1154E-003  
  807.00  3.2250E-003  
  807.50  2.2809E-003  
  808.00  2.0974E-003  
  808.50  2.4038E-003  
  809.00  3.3011E-003  
  809.50  3.0569E-003  
  810.00  4.1313E-003  
  810.50  3.8812E-003  
  811.00  2.8520E-003  
  811.50  3.2436E-003  
  812.00  3.6954E-003  
  812.50  2.8504E-003  
  813.00  1.4520E-003  
  813.50  2.1137E-003  
  814.00  2.6888E-003  
  814.50  2.6274E-003  
  815.00  1.4030E-003  
  815.50  1.8948E-003  
  816.00  2.4350E-003  
  816.50  2.9650E-003  
  817.00  4.0409E-003  
  817.50  4.9422E-003  
  818.00  4.4963E-003  
  818.50  2.5719E-003  
  819.00  2.3358E-003  
  819.50  3.3711E-003  
  820.00  3.4328E-003  
  820.50  3.4225E-003  
  821.00  3.6361E-003  
  821.50  4.3608E-003  
  822.00  3.6078E-003  
  822.50  1.9303E-003  
  823.00  2.5897E-003  
  823.50  4.7946E-003  
  824.00  5.0120E-003  
  824.50  3.9458E-003  
  825.00  2.7239E-003  
  825.50  9.4500E-004  
  826.00  5.2906E-004  
  826.50  1.4797E-003  
  827.00  2.2163E-003  
  827.50  2.7834E-003  
  828.00  3.4749E-003  
  828.50  4.3391E-003  
  829.00  2.6308E-003  
  829.50  1.5100E-003  
  830.00  2.3218E-003  
  830.50  3.3568E-003  
  831.00  2.3769E-003  
  831.50  1.0189E-003  
  832.00  5.3109E-004  
  832.50  1.0591E-003  
  833.00  3.3428E-003  
  833.50  3.3223E-003  
  834.00  1.4536E-003  
  834.50  3.5167E-005  
  835.00  0.0000E+000  
  835.50  9.8017E-004  
  836.00  4.0176E-003  
  836.50  5.0758E-003  
  837.00  3.2407E-003  
  837.50  2.4878E-003  
  838.00  3.4015E-003  
  838.50  2.2538E-003  
  839.00  1.3598E-003  
  839.50  5.9868E-005  
  840.00  1.5632E-003  
  840.50  2.8195E-003  
  841.00  1.5315E-003  
  841.50  4.7606E-004  
  842.00  1.7945E-003  
  842.50  2.8343E-003  
  843.00  1.8873E-003  
  843.50  1.0447E-003  
  844.00  1.5466E-003  
  844.50  1.6042E-003  
  845.00  1.3545E-003  
  845.50  1.0281E-003  
  846.00  9.7513E-004  
  846.50  1.2697E-003  
  847.00  2.2572E-003  
  847.50  2.5063E-003  
  848.00  1.4927E-003  
  848.50  0.0000E+000  
  849.00  0.0000E+000  
  849.50  0.0000E+000  
  850.00  1.2711E-003  
  850.50  7.6837E-004  
  851.00  0.0000E+000  
  851.50  0.0000E+000  
  852.00  0.0000E+000  
  852.50  0.0000E+000  
  853.00  0.0000E+000  
  853.50  4.8161E-004  
  854.00  1.3300E-003  
  854.50  3.5286E-003  
  855.00  4.7900E-003  
  855.50  2.7812E-003  
  856.00  6.8040E-004  
  856.50  2.3762E-004  
  857.00  1.2101E-003  
  857.50  2.7217E-003  
  858.00  2.2624E-003  
  858.50  2.4464E-003  
  859.00  3.0965E-003  
  859.50  1.4995E-003  
  860.00  0.0000E+000  
  860.50  2.8386E-004  
  861.00  1.9514E-003  
  861.50  3.0966E-003  
  862.00  2.1781E-003  
  862.50  9.5950E-004  
  863.00  9.0874E-004  
  863.50  1.6507E-003  
  864.00  3.2675E-005  
  864.50  0.0000E+000  
  865.00  5.8982E-004  
  865.50  2.1930E-003  
  866.00  3.0400E-003  
  866.50  6.9575E-004  
  867.00  8.0954E-004  
  867.50  1.7281E-003  
  868.00  2.8341E-003  
  868.50  3.6649E-003  
  869.00  3.5579E-003  
  869.50  2.3586E-003  
  870.00  9.8949E-004  
  870.50  6.8499E-004  
  871.00  2.2985E-003  
  871.50  4.4166E-003  
  872.00  3.1478E-003  
  872.50  2.6629E-003  
  873.00  3.6822E-003  
  873.50  4.4799E-003  
  874.00  3.1256E-003  
  874.50  1.5066E-003  
  875.00  4.1035E-003  
  875.50  7.1775E-003  
  876.00  5.9227E-003  
  876.50  7.3794E-003  
  877.00  8.2328E-003  
  877.50  6.8310E-003  
  878.00  4.6065E-003  
  878.50  2.1319E-003  
  879.00  1.8434E-004  
  879.50  2.3785E-003  
  880.00  5.5131E-003  
  880.50  5.8194E-003  
  881.00  1.4663E-003  
  881.50  0.0000E+000  
  882.00  0.0000E+000  
  882.50  1.7682E-004  
  883.00  3.0971E-003  
  883.50  3.1279E-003  
  884.00  4.1414E-003  
  884.50  6.3934E-003  
  885.00  6.5740E-003  
  885.50  2.4786E-003  
  886.00  1.6749E-003  
  886.50  3.6244E-003  
  887.00  6.8793E-003  
  887.50  9.3507E-003  
  888.00  8.7834E-003  
  888.50  5.6854E-003  
  889.00  3.9958E-003  
  889.50  1.4929E-003  
  890.00  4.1042E-004  
  890.50  3.2169E-003  
  891.00  3.5822E-003  
  891.50  4.6986E-003  
  892.00  5.8158E-003  
  892.50  4.2319E-003  
  893.00  2.2449E-003  
  893.50  1.7776E-003  
  894.00  5.8207E-003  
  894.50  8.9439E-003  
  895.00  4.4656E-003  
  895.50  5.6928E-003  
  896.00  6.6602E-003  
  896.50  4.1401E-003  
  897.00  7.0330E-003  
  897.50  7.6946E-003  
  898.00  6.0463E-003  
  898.50  1.1541E-003  
  899.00  1.5461E-004  
  899.50  0.0000E+000  
