
# From lspdd.org
# 
# Name: DEL DALS Wall-Pack-1192 Domestique
# Indice spectral Valeur 
# MSI 0.49 
# SLI 0.69 
# IPI 0.70 
# Pourcentage de bleu 30.8 
# Caractéristique Valeur 
# CCT calculée (K) 3943 
# CCT du fabricant (K) 4000 
# Tension (V) 120 
# Puissance (W) 50.0 
# Efficacité lumineuse (Lum/W) 68.0 
#
# Image: '/app/system/img_2s/2653/medium_image2.jpg?1432223085'
# Image: '/app/system/img_1s/2653/medium_image1.jpg?1432223075'
# 

  273.00  0.0000E+000  
  273.50  0.0000E+000  
  274.00  0.0000E+000  
  274.50  0.0000E+000  
  275.00  0.0000E+000  
  275.50  0.0000E+000  
  276.00  0.0000E+000  
  276.50  0.0000E+000  
  277.00  0.0000E+000  
  277.50  0.0000E+000  
  278.00  0.0000E+000  
  278.50  0.0000E+000  
  279.00  0.0000E+000  
  279.50  0.0000E+000  
  280.00  0.0000E+000  
  280.50  0.0000E+000  
  281.00  0.0000E+000  
  281.50  0.0000E+000  
  282.00  0.0000E+000  
  282.50  0.0000E+000  
  283.00  0.0000E+000  
  283.50  0.0000E+000  
  284.00  0.0000E+000  
  284.50  0.0000E+000  
  285.00  0.0000E+000  
  285.50  0.0000E+000  
  286.00  0.0000E+000  
  286.50  0.0000E+000  
  287.00  0.0000E+000  
  287.50  0.0000E+000  
  288.00  0.0000E+000  
  288.50  0.0000E+000  
  289.00  0.0000E+000  
  289.50  0.0000E+000  
  290.00  0.0000E+000  
  290.50  0.0000E+000  
  291.00  0.0000E+000  
  291.50  0.0000E+000  
  292.00  0.0000E+000  
  292.50  0.0000E+000  
  293.00  0.0000E+000  
  293.50  0.0000E+000  
  294.00  0.0000E+000  
  294.50  0.0000E+000  
  295.00  0.0000E+000  
  295.50  0.0000E+000  
  296.00  0.0000E+000  
  296.50  0.0000E+000  
  297.00  0.0000E+000  
  297.50  0.0000E+000  
  298.00  0.0000E+000  
  298.50  0.0000E+000  
  299.00  0.0000E+000  
  299.50  0.0000E+000  
  300.00  7.8068E-005  
  300.50  2.2507E-004  
  301.00  1.1600E-004  
  301.50  1.1908E-004  
  302.00  2.5894E-004  
  302.50  4.9854E-004  
  303.00  1.1355E-003  
  303.50  1.5533E-003  
  304.00  1.7086E-003  
  304.50  1.5958E-003  
  305.00  1.0847E-003  
  305.50  7.8757E-004  
  306.00  7.4322E-004  
  306.50  1.0689E-003  
  307.00  1.3597E-003  
  307.50  1.2633E-003  
  308.00  1.2396E-003  
  308.50  1.2682E-003  
  309.00  1.4016E-003  
  309.50  1.3283E-003  
  310.00  9.6035E-004  
  310.50  5.5830E-004  
  311.00  2.0012E-006  
  311.50  1.9708E-004  
  312.00  6.6736E-004  
  312.50  1.1810E-003  
  313.00  1.9530E-003  
  313.50  2.1363E-003  
  314.00  1.8640E-003  
  314.50  1.2361E-003  
  315.00  6.1823E-004  
  315.50  3.4396E-004  
  316.00  3.8185E-004  
  316.50  7.8358E-004  
  317.00  7.2998E-004  
  317.50  3.4432E-004  
  318.00  2.5924E-004  
  318.50  3.5523E-004  
  319.00  7.3812E-004  
  319.50  9.3317E-004  
  320.00  1.0578E-003  
  320.50  9.7233E-004  
  321.00  8.1985E-004  
  321.50  6.5279E-004  
  322.00  2.7922E-004  
  322.50  1.3011E-005  
  323.00  0.0000E+000  
  323.50  0.0000E+000  
  324.00  5.3723E-004  
  324.50  9.1603E-004  
  325.00  1.0344E-003  
  325.50  6.7626E-004  
  326.00  1.0738E-004  
  326.50  2.5231E-006  
  327.00  5.4486E-005  
  327.50  5.1156E-004  
  328.00  6.7832E-004  
  328.50  5.0450E-004  
  329.00  5.3588E-004  
  329.50  6.9104E-004  
  330.00  9.8871E-004  
  330.50  1.1519E-003  
  331.00  1.1351E-003  
  331.50  7.3397E-004  
  332.00  5.0826E-004  
  332.50  4.4015E-004  
  333.00  3.0834E-004  
  333.50  2.7688E-004  
  334.00  1.4293E-004  
  334.50  3.7184E-004  
  335.00  3.9388E-004  
  335.50  8.4588E-004  
  336.00  1.3003E-003  
  336.50  1.0076E-003  
  337.00  7.1160E-004  
  337.50  1.5999E-004  
  338.00  0.0000E+000  
  338.50  0.0000E+000  
  339.00  2.5464E-004  
  339.50  5.3466E-004  
  340.00  8.4236E-004  
  340.50  9.2459E-004  
  341.00  8.7107E-004  
  341.50  8.7180E-004  
  342.00  4.9960E-004  
  342.50  2.6682E-004  
  343.00  6.2656E-005  
  343.50  0.0000E+000  
  344.00  2.8734E-004  
  344.50  6.4772E-004  
  345.00  7.3350E-004  
  345.50  5.6084E-004  
  346.00  7.7824E-005  
  346.50  0.0000E+000  
  347.00  1.5957E-004  
  347.50  4.8683E-004  
  348.00  8.1486E-004  
  348.50  8.1009E-004  
  349.00  1.0046E-003  
  349.50  9.0285E-004  
  350.00  7.6420E-004  
  350.50  3.8429E-004  
  351.00  1.7304E-004  
  351.50  2.3663E-004  
  352.00  4.0974E-004  
  352.50  5.6650E-004  
  353.00  9.2202E-004  
  353.50  1.0522E-003  
  354.00  9.8071E-004  
  354.50  8.4693E-004  
  355.00  6.2354E-004  
  355.50  7.3799E-004  
  356.00  8.0243E-004  
  356.50  1.0973E-003  
  357.00  1.0721E-003  
  357.50  7.9397E-004  
  358.00  5.1251E-004  
  358.50  1.2214E-004  
  359.00  3.2093E-004  
  359.50  4.1183E-004  
  360.00  6.9215E-004  
  360.50  6.2877E-004  
  361.00  4.4468E-004  
  361.50  6.1588E-004  
  362.00  5.8027E-004  
  362.50  8.3124E-004  
  363.00  5.6377E-004  
  363.50  2.6309E-004  
  364.00  2.5722E-005  
  364.50  0.0000E+000  
  365.00  0.0000E+000  
  365.50  0.0000E+000  
  366.00  5.2197E-005  
  366.50  1.7890E-004  
  367.00  3.2169E-004  
  367.50  5.7440E-004  
  368.00  7.2495E-004  
  368.50  9.0359E-004  
  369.00  7.9774E-004  
  369.50  5.8895E-004  
  370.00  4.5646E-004  
  370.50  1.9047E-004  
  371.00  3.5557E-004  
  371.50  4.6532E-004  
  372.00  5.4731E-004  
  372.50  6.9816E-004  
  373.00  4.1810E-004  
  373.50  1.3981E-004  
  374.00  8.6320E-005  
  374.50  7.0375E-005  
  375.00  4.2691E-004  
  375.50  7.9597E-004  
  376.00  7.9721E-004  
  376.50  7.2183E-004  
  377.00  6.0203E-004  
  377.50  4.4994E-004  
  378.00  5.0379E-004  
  378.50  7.4684E-004  
  379.00  9.2425E-004  
  379.50  8.3310E-004  
  380.00  6.4217E-004  
  380.50  2.7525E-004  
  381.00  2.1270E-004  
  381.50  3.1146E-004  
  382.00  6.3111E-004  
  382.50  8.8443E-004  
  383.00  1.0010E-003  
  383.50  1.0500E-003  
  384.00  8.8342E-004  
  384.50  6.7352E-004  
  385.00  6.7026E-004  
  385.50  8.2955E-004  
  386.00  9.1940E-004  
  386.50  8.3723E-004  
  387.00  5.8699E-004  
  387.50  2.1496E-004  
  388.00  3.0075E-005  
  388.50  0.0000E+000  
  389.00  0.0000E+000  
  389.50  3.0910E-005  
  390.00  3.4987E-004  
  390.50  8.3670E-004  
  391.00  1.0408E-003  
  391.50  6.4437E-004  
  392.00  3.1068E-004  
  392.50  3.2367E-004  
  393.00  6.5106E-004  
  393.50  8.4009E-004  
  394.00  6.8395E-004  
  394.50  3.4780E-004  
  395.00  5.9802E-005  
  395.50  1.5293E-005  
  396.00  0.0000E+000  
  396.50  0.0000E+000  
  397.00  7.6472E-005  
  397.50  3.5883E-004  
  398.00  5.8369E-004  
  398.50  6.7781E-004  
  399.00  8.1790E-004  
  399.50  1.0125E-003  
  400.00  1.3112E-003  
  400.50  1.4081E-003  
  401.00  1.2241E-003  
  401.50  9.8974E-004  
  402.00  7.8083E-004  
  402.50  7.4224E-004  
  403.00  6.5920E-004  
  403.50  7.6957E-004  
  404.00  7.8214E-004  
  404.50  1.0209E-003  
  405.00  1.3599E-003  
  405.50  1.6942E-003  
  406.00  1.9308E-003  
  406.50  1.7256E-003  
  407.00  1.5038E-003  
  407.50  1.5005E-003  
  408.00  1.5296E-003  
  408.50  1.6091E-003  
  409.00  1.5658E-003  
  409.50  1.4933E-003  
  410.00  1.6715E-003  
  410.50  1.8187E-003  
  411.00  2.0431E-003  
  411.50  2.0519E-003  
  412.00  1.9060E-003  
  412.50  1.8691E-003  
  413.00  2.0223E-003  
  413.50  2.6081E-003  
  414.00  3.1388E-003  
  414.50  3.5932E-003  
  415.00  3.7396E-003  
  415.50  3.5634E-003  
  416.00  3.7212E-003  
  416.50  3.8416E-003  
  417.00  4.1149E-003  
  417.50  4.4813E-003  
  418.00  4.7490E-003  
  418.50  4.8716E-003  
  419.00  4.9462E-003  
  419.50  5.3270E-003  
  420.00  5.9324E-003  
  420.50  6.7019E-003  
  421.00  7.1949E-003  
  421.50  7.3676E-003  
  422.00  7.6901E-003  
  422.50  8.1774E-003  
  423.00  8.5815E-003  
  423.50  9.3172E-003  
  424.00  9.8699E-003  
  424.50  1.0557E-002  
  425.00  1.1171E-002  
  425.50  1.2105E-002  
  426.00  1.3105E-002  
  426.50  1.3989E-002  
  427.00  1.4995E-002  
  427.50  1.5645E-002  
  428.00  1.6607E-002  
  428.50  1.7728E-002  
  429.00  1.8712E-002  
  429.50  1.9518E-002  
  430.00  2.0568E-002  
  430.50  2.1885E-002  
  431.00  2.3421E-002  
  431.50  2.4919E-002  
  432.00  2.6096E-002  
  432.50  2.7309E-002  
  433.00  2.8470E-002  
  433.50  2.9968E-002  
  434.00  3.1590E-002  
  434.50  3.3284E-002  
  435.00  3.4983E-002  
  435.50  3.6764E-002  
  436.00  3.8546E-002  
  436.50  4.0632E-002  
  437.00  4.2694E-002  
  437.50  4.5038E-002  
  438.00  4.7282E-002  
  438.50  4.9591E-002  
  439.00  5.2255E-002  
  439.50  5.5263E-002  
  440.00  5.8507E-002  
  440.50  6.1641E-002  
  441.00  6.4275E-002  
  441.50  6.7292E-002  
  442.00  7.0183E-002  
  442.50  7.3542E-002  
  443.00  7.6655E-002  
  443.50  7.9890E-002  
  444.00  8.3282E-002  
  444.50  8.6269E-002  
  445.00  8.9123E-002  
  445.50  9.2402E-002  
  446.00  9.5398E-002  
  446.50  9.7766E-002  
  447.00  9.9600E-002  
  447.50  1.0074E-001  
  448.00  1.0258E-001  
  448.50  1.0373E-001  
  449.00  1.0427E-001  
  449.50  1.0414E-001  
  450.00  1.0339E-001  
  450.50  1.0289E-001  
  451.00  1.0202E-001  
  451.50  1.0055E-001  
  452.00  9.8802E-002  
  452.50  9.6826E-002  
  453.00  9.5081E-002  
  453.50  9.3708E-002  
  454.00  9.1551E-002  
  454.50  8.9062E-002  
  455.00  8.6055E-002  
  455.50  8.2668E-002  
  456.00  7.9764E-002  
  456.50  7.7117E-002  
  457.00  7.4541E-002  
  457.50  7.2380E-002  
  458.00  6.9913E-002  
  458.50  6.8033E-002  
  459.00  6.6327E-002  
  459.50  6.4412E-002  
  460.00  6.2674E-002  
  460.50  6.1266E-002  
  461.00  6.0348E-002  
  461.50  5.9229E-002  
  462.00  5.7660E-002  
  462.50  5.5986E-002  
  463.00  5.4591E-002  
  463.50  5.3659E-002  
  464.00  5.2965E-002  
  464.50  5.1981E-002  
  465.00  5.1260E-002  
  465.50  5.0304E-002  
  466.00  4.9387E-002  
  466.50  4.8497E-002  
  467.00  4.7385E-002  
  467.50  4.6781E-002  
  468.00  4.6241E-002  
  468.50  4.5573E-002  
  469.00  4.4909E-002  
  469.50  4.3849E-002  
  470.00  4.2869E-002  
  470.50  4.1983E-002  
  471.00  4.0785E-002  
  471.50  3.9678E-002  
  472.00  3.8657E-002  
  472.50  3.7982E-002  
  473.00  3.7723E-002  
  473.50  3.7597E-002  
  474.00  3.7287E-002  
  474.50  3.6997E-002  
  475.00  3.6410E-002  
  475.50  3.5930E-002  
  476.00  3.5322E-002  
  476.50  3.4698E-002  
  477.00  3.4443E-002  
  477.50  3.4185E-002  
  478.00  3.4263E-002  
  478.50  3.4312E-002  
  479.00  3.4166E-002  
  479.50  3.3807E-002  
  480.00  3.3629E-002  
  480.50  3.3563E-002  
  481.00  3.3831E-002  
  481.50  3.4010E-002  
  482.00  3.4238E-002  
  482.50  3.4283E-002  
  483.00  3.4193E-002  
  483.50  3.4233E-002  
  484.00  3.4355E-002  
  484.50  3.4853E-002  
  485.00  3.5075E-002  
  485.50  3.5185E-002  
  486.00  3.5242E-002  
  486.50  3.5393E-002  
  487.00  3.5707E-002  
  487.50  3.6065E-002  
  488.00  3.6351E-002  
  488.50  3.6623E-002  
  489.00  3.6824E-002  
  489.50  3.7071E-002  
  490.00  3.7411E-002  
  490.50  3.7972E-002  
  491.00  3.8626E-002  
  491.50  3.9292E-002  
  492.00  3.9872E-002  
  492.50  4.0342E-002  
  493.00  4.0758E-002  
  493.50  4.1287E-002  
  494.00  4.2042E-002  
  494.50  4.2870E-002  
  495.00  4.3611E-002  
  495.50  4.4313E-002  
  496.00  4.4956E-002  
  496.50  4.5653E-002  
  497.00  4.6325E-002  
  497.50  4.7212E-002  
  498.00  4.8047E-002  
  498.50  4.8895E-002  
  499.00  4.9526E-002  
  499.50  5.0132E-002  
  500.00  5.0846E-002  
  500.50  5.1717E-002  
  501.00  5.2416E-002  
  501.50  5.3049E-002  
  502.00  5.3606E-002  
  502.50  5.4077E-002  
  503.00  5.4699E-002  
  503.50  5.5511E-002  
  504.00  5.6377E-002  
  504.50  5.7227E-002  
  505.00  5.7764E-002  
  505.50  5.8394E-002  
  506.00  5.8826E-002  
  506.50  5.9447E-002  
  507.00  6.0126E-002  
  507.50  6.0839E-002  
  508.00  6.1554E-002  
  508.50  6.2106E-002  
  509.00  6.2555E-002  
  509.50  6.3191E-002  
  510.00  6.3798E-002  
  510.50  6.4574E-002  
  511.00  6.5089E-002  
  511.50  6.5437E-002  
  512.00  6.5724E-002  
  512.50  6.5995E-002  
  513.00  6.6587E-002  
  513.50  6.7196E-002  
  514.00  6.7622E-002  
  514.50  6.7947E-002  
  515.00  6.8376E-002  
  515.50  6.8781E-002  
  516.00  6.9248E-002  
  516.50  6.9575E-002  
  517.00  7.0052E-002  
  517.50  7.0604E-002  
  518.00  7.1198E-002  
  518.50  7.1808E-002  
  519.00  7.2105E-002  
  519.50  7.2381E-002  
  520.00  7.2517E-002  
  520.50  7.2685E-002  
  521.00  7.3043E-002  
  521.50  7.3295E-002  
  522.00  7.3447E-002  
  522.50  7.3603E-002  
  523.00  7.3907E-002  
  523.50  7.4333E-002  
  524.00  7.4684E-002  
  524.50  7.5049E-002  
  525.00  7.5129E-002  
  525.50  7.5626E-002  
  526.00  7.5984E-002  
  526.50  7.6393E-002  
  527.00  7.6779E-002  
  527.50  7.7225E-002  
  528.00  7.7783E-002  
  528.50  7.8034E-002  
  529.00  7.7972E-002  
  529.50  7.7835E-002  
  530.00  7.7850E-002  
  530.50  7.8287E-002  
  531.00  7.8676E-002  
  531.50  7.9028E-002  
  532.00  7.9446E-002  
  532.50  7.9743E-002  
  533.00  8.0046E-002  
  533.50  8.0163E-002  
  534.00  8.0185E-002  
  534.50  8.0217E-002  
  535.00  8.0459E-002  
  535.50  8.0812E-002  
  536.00  8.1161E-002  
  536.50  8.1355E-002  
  537.00  8.1799E-002  
  537.50  8.2053E-002  
  538.00  8.2337E-002  
  538.50  8.2240E-002  
  539.00  8.2330E-002  
  539.50  8.2650E-002  
  540.00  8.3147E-002  
  540.50  8.3637E-002  
  541.00  8.3834E-002  
  541.50  8.3923E-002  
  542.00  8.4059E-002  
  542.50  8.4217E-002  
  543.00  8.4580E-002  
  543.50  8.4782E-002  
  544.00  8.4999E-002  
  544.50  8.5190E-002  
  545.00  8.5501E-002  
  545.50  8.5992E-002  
  546.00  8.6281E-002  
  546.50  8.6144E-002  
  547.00  8.6137E-002  
  547.50  8.6317E-002  
  548.00  8.6840E-002  
  548.50  8.7034E-002  
  549.00  8.7197E-002  
  549.50  8.7199E-002  
  550.00  8.7463E-002  
  550.50  8.7802E-002  
  551.00  8.8118E-002  
  551.50  8.8342E-002  
  552.00  8.8432E-002  
  552.50  8.8592E-002  
  553.00  8.8746E-002  
  553.50  8.8901E-002  
  554.00  8.9050E-002  
  554.50  8.9379E-002  
  555.00  8.9530E-002  
  555.50  8.9734E-002  
  556.00  9.0073E-002  
  556.50  9.0562E-002  
  557.00  9.0891E-002  
  557.50  9.0961E-002  
  558.00  9.1056E-002  
  558.50  9.1318E-002  
  559.00  9.1580E-002  
  559.50  9.1571E-002  
  560.00  9.1500E-002  
  560.50  9.1544E-002  
  561.00  9.1807E-002  
  561.50  9.2203E-002  
  562.00  9.2452E-002  
  562.50  9.2524E-002  
  563.00  9.2337E-002  
  563.50  9.2519E-002  
  564.00  9.2754E-002  
  564.50  9.2968E-002  
  565.00  9.3163E-002  
  565.50  9.3437E-002  
  566.00  9.3909E-002  
  566.50  9.4080E-002  
  567.00  9.3820E-002  
  567.50  9.3586E-002  
  568.00  9.3383E-002  
  568.50  9.3613E-002  
  569.00  9.3898E-002  
  569.50  9.4306E-002  
  570.00  9.4579E-002  
  570.50  9.4786E-002  
  571.00  9.4610E-002  
  571.50  9.4465E-002  
  572.00  9.4446E-002  
  572.50  9.4629E-002  
  573.00  9.5013E-002  
  573.50  9.5410E-002  
  574.00  9.5732E-002  
  574.50  9.6002E-002  
  575.00  9.6153E-002  
  575.50  9.6402E-002  
  576.00  9.6573E-002  
  576.50  9.6584E-002  
  577.00  9.6591E-002  
  577.50  9.6635E-002  
  578.00  9.6785E-002  
  578.50  9.6877E-002  
  579.00  9.6783E-002  
  579.50  9.6927E-002  
  580.00  9.7016E-002  
  580.50  9.7211E-002  
  581.00  9.7369E-002  
  581.50  9.7576E-002  
  582.00  9.7866E-002  
  582.50  9.7842E-002  
  583.00  9.7781E-002  
  583.50  9.7769E-002  
  584.00  9.8020E-002  
  584.50  9.8039E-002  
  585.00  9.8008E-002  
  585.50  9.8057E-002  
  586.00  9.8322E-002  
  586.50  9.8487E-002  
  587.00  9.8464E-002  
  587.50  9.8600E-002  
  588.00  9.8616E-002  
  588.50  9.8915E-002  
  589.00  9.9099E-002  
  589.50  9.9382E-002  
  590.00  9.9650E-002  
  590.50  9.9536E-002  
  591.00  9.9691E-002  
  591.50  9.9886E-002  
  592.00  9.9938E-002  
  592.50  1.0017E-001  
  593.00  1.0019E-001  
  593.50  1.0045E-001  
  594.00  1.0039E-001  
  594.50  1.0039E-001  
  595.00  1.0022E-001  
  595.50  1.0009E-001  
  596.00  9.9931E-002  
  596.50  9.9910E-002  
  597.00  1.0000E-001  
  597.50  1.0000E-001  
  598.00  9.9992E-002  
  598.50  9.9665E-002  
  599.00  9.9405E-002  
  599.50  9.9192E-002  
  600.00  9.9218E-002  
  600.50  9.9188E-002  
  601.00  9.8860E-002  
  601.50  9.8406E-002  
  602.00  9.8518E-002  
  602.50  9.8765E-002  
  603.00  9.9246E-002  
  603.50  9.9400E-002  
  604.00  9.9308E-002  
  604.50  9.9154E-002  
  605.00  9.8928E-002  
  605.50  9.9067E-002  
  606.00  9.9031E-002  
  606.50  9.9225E-002  
  607.00  9.9144E-002  
  607.50  9.9188E-002  
  608.00  9.8803E-002  
  608.50  9.8351E-002  
  609.00  9.8248E-002  
  609.50  9.8527E-002  
  610.00  9.9039E-002  
  610.50  9.9329E-002  
  611.00  9.9260E-002  
  611.50  9.9327E-002  
  612.00  9.9422E-002  
  612.50  9.9387E-002  
  613.00  9.9130E-002  
  613.50  9.8821E-002  
  614.00  9.8937E-002  
  614.50  9.9170E-002  
  615.00  9.9152E-002  
  615.50  9.8654E-002  
  616.00  9.8266E-002  
  616.50  9.7721E-002  
  617.00  9.7538E-002  
  617.50  9.7449E-002  
  618.00  9.7669E-002  
  618.50  9.7866E-002  
  619.00  9.7569E-002  
  619.50  9.7537E-002  
  620.00  9.7299E-002  
  620.50  9.7627E-002  
  621.00  9.7284E-002  
  621.50  9.6595E-002  
  622.00  9.5692E-002  
  622.50  9.5310E-002  
  623.00  9.5718E-002  
  623.50  9.5698E-002  
  624.00  9.5517E-002  
  624.50  9.5246E-002  
  625.00  9.5234E-002  
  625.50  9.4756E-002  
  626.00  9.4207E-002  
  626.50  9.3806E-002  
  627.00  9.3670E-002  
  627.50  9.3297E-002  
  628.00  9.2678E-002  
  628.50  9.2311E-002  
  629.00  9.1911E-002  
  629.50  9.1766E-002  
  630.00  9.1594E-002  
  630.50  9.1250E-002  
  631.00  9.0715E-002  
  631.50  9.0148E-002  
  632.00  8.9752E-002  
  632.50  8.9328E-002  
  633.00  8.8863E-002  
  633.50  8.8485E-002  
  634.00  8.8109E-002  
  634.50  8.7563E-002  
  635.00  8.7011E-002  
  635.50  8.6322E-002  
  636.00  8.5689E-002  
  636.50  8.5285E-002  
  637.00  8.4777E-002  
  637.50  8.4406E-002  
  638.00  8.3690E-002  
  638.50  8.3430E-002  
  639.00  8.2839E-002  
  639.50  8.1886E-002  
  640.00  8.1289E-002  
  640.50  8.0825E-002  
  641.00  8.0874E-002  
  641.50  8.0247E-002  
  642.00  7.9728E-002  
  642.50  7.8710E-002  
  643.00  7.7929E-002  
  643.50  7.7254E-002  
  644.00  7.7063E-002  
  644.50  7.6369E-002  
  645.00  7.5582E-002  
  645.50  7.4351E-002  
  646.00  7.3639E-002  
  646.50  7.2931E-002  
  647.00  7.2635E-002  
  647.50  7.2142E-002  
  648.00  7.1549E-002  
  648.50  7.0797E-002  
  649.00  7.0255E-002  
  649.50  6.9601E-002  
  650.00  6.8722E-002  
  650.50  6.7813E-002  
  651.00  6.7229E-002  
  651.50  6.7083E-002  
  652.00  6.6769E-002  
  652.50  6.5776E-002  
  653.00  6.4494E-002  
  653.50  6.3264E-002  
  654.00  6.2518E-002  
  654.50  6.2185E-002  
  655.00  6.1598E-002  
  655.50  6.1076E-002  
  656.00  6.0194E-002  
  656.50  5.9477E-002  
  657.00  5.8650E-002  
  657.50  5.8116E-002  
  658.00  5.7732E-002  
  658.50  5.7306E-002  
  659.00  5.6458E-002  
  659.50  5.5472E-002  
  660.00  5.4871E-002  
  660.50  5.4368E-002  
  661.00  5.3642E-002  
  661.50  5.2683E-002  
  662.00  5.1851E-002  
  662.50  5.1425E-002  
  663.00  5.1083E-002  
  663.50  5.0706E-002  
  664.00  5.0025E-002  
  664.50  4.9114E-002  
  665.00  4.8242E-002  
  665.50  4.7726E-002  
  666.00  4.7163E-002  
  666.50  4.6505E-002  
  667.00  4.5858E-002  
  667.50  4.5379E-002  
  668.00  4.4941E-002  
  668.50  4.4446E-002  
  669.00  4.3921E-002  
  669.50  4.3555E-002  
  670.00  4.3152E-002  
  670.50  4.2651E-002  
  671.00  4.2111E-002  
  671.50  4.1239E-002  
  672.00  4.0357E-002  
  672.50  3.9626E-002  
  673.00  3.9113E-002  
  673.50  3.8682E-002  
  674.00  3.8207E-002  
  674.50  3.7745E-002  
  675.00  3.7383E-002  
  675.50  3.7045E-002  
  676.00  3.6488E-002  
  676.50  3.6023E-002  
  677.00  3.5275E-002  
  677.50  3.4771E-002  
  678.00  3.4065E-002  
  678.50  3.3504E-002  
  679.00  3.3151E-002  
  679.50  3.2759E-002  
  680.00  3.2386E-002  
  680.50  3.1826E-002  
  681.00  3.1259E-002  
  681.50  3.0579E-002  
  682.00  3.0218E-002  
  682.50  2.9689E-002  
  683.00  2.9326E-002  
  683.50  2.9155E-002  
  684.00  2.9152E-002  
  684.50  2.8622E-002  
  685.00  2.7826E-002  
  685.50  2.7339E-002  
  686.00  2.7636E-002  
  686.50  2.7606E-002  
  687.00  2.7158E-002  
  687.50  2.6436E-002  
  688.00  2.5768E-002  
  688.50  2.5255E-002  
  689.00  2.4902E-002  
  689.50  2.4653E-002  
  690.00  2.4294E-002  
  690.50  2.3568E-002  
  691.00  2.3186E-002  
  691.50  2.3145E-002  
  692.00  2.2923E-002  
  692.50  2.2544E-002  
  693.00  2.2156E-002  
  693.50  2.2182E-002  
  694.00  2.2090E-002  
  694.50  2.1801E-002  
  695.00  2.1276E-002  
  695.50  2.1118E-002  
  696.00  2.0605E-002  
  696.50  2.0301E-002  
  697.00  1.9948E-002  
  697.50  1.9878E-002  
  698.00  1.9361E-002  
  698.50  1.8834E-002  
  699.00  1.8481E-002  
  699.50  1.8137E-002  
  700.00  1.7627E-002  
  700.50  1.7397E-002  
  701.00  1.7736E-002  
  701.50  1.8000E-002  
  702.00  1.7782E-002  
  702.50  1.7119E-002  
  703.00  1.6669E-002  
  703.50  1.6244E-002  
  704.00  1.5619E-002  
  704.50  1.5040E-002  
  705.00  1.4769E-002  
  705.50  1.4963E-002  
  706.00  1.4908E-002  
  706.50  1.4941E-002  
  707.00  1.4942E-002  
  707.50  1.5276E-002  
  708.00  1.5067E-002  
  708.50  1.4304E-002  
  709.00  1.3114E-002  
  709.50  1.2837E-002  
  710.00  1.3271E-002  
  710.50  1.4031E-002  
  711.00  1.4161E-002  
  711.50  1.3920E-002  
  712.00  1.3064E-002  
  712.50  1.2532E-002  
  713.00  1.2127E-002  
  713.50  1.1986E-002  
  714.00  1.1786E-002  
  714.50  1.1974E-002  
  715.00  1.1900E-002  
  715.50  1.1425E-002  
  716.00  1.0844E-002  
  716.50  1.0537E-002  
  717.00  1.0613E-002  
  717.50  1.0618E-002  
  718.00  1.0563E-002  
  718.50  1.0239E-002  
  719.00  9.7972E-003  
  719.50  9.6213E-003  
  720.00  9.9669E-003  
  720.50  1.0440E-002  
  721.00  1.0770E-002  
  721.50  1.0754E-002  
  722.00  1.0756E-002  
  722.50  1.0518E-002  
  723.00  9.8442E-003  
  723.50  8.8566E-003  
  724.00  8.5572E-003  
  724.50  8.4319E-003  
  725.00  8.5937E-003  
  725.50  8.6850E-003  
  726.00  8.5894E-003  
  726.50  7.8150E-003  
  727.00  7.2551E-003  
  727.50  7.3636E-003  
  728.00  7.9632E-003  
  728.50  8.0529E-003  
  729.00  7.4619E-003  
  729.50  7.1635E-003  
  730.00  7.7727E-003  
  730.50  8.6021E-003  
  731.00  9.2557E-003  
  731.50  8.9389E-003  
  732.00  8.0147E-003  
  732.50  6.9221E-003  
  733.00  6.3559E-003  
  733.50  6.3623E-003  
  734.00  6.7597E-003  
  734.50  7.1111E-003  
  735.00  7.5990E-003  
  735.50  7.5021E-003  
  736.00  6.9498E-003  
  736.50  6.5299E-003  
  737.00  6.7302E-003  
  737.50  7.0885E-003  
  738.00  6.8943E-003  
  738.50  6.5326E-003  
  739.00  6.0130E-003  
  739.50  5.5736E-003  
  740.00  5.3120E-003  
  740.50  5.0436E-003  
  741.00  5.6121E-003  
  741.50  6.3549E-003  
  742.00  6.5729E-003  
  742.50  6.1078E-003  
  743.00  5.9894E-003  
  743.50  5.9533E-003  
  744.00  5.2145E-003  
  744.50  4.2552E-003  
  745.00  3.1800E-003  
  745.50  3.2568E-003  
  746.00  3.5694E-003  
  746.50  4.4334E-003  
  747.00  4.8115E-003  
  747.50  5.0067E-003  
  748.00  5.1540E-003  
  748.50  5.1079E-003  
  749.00  4.6858E-003  
  749.50  4.2811E-003  
  750.00  4.4962E-003  
  750.50  4.9197E-003  
  751.00  4.6225E-003  
  751.50  4.2079E-003  
  752.00  3.7788E-003  
  752.50  3.6675E-003  
  753.00  3.4200E-003  
  753.50  3.1935E-003  
  754.00  3.3997E-003  
  754.50  3.4092E-003  
  755.00  3.7176E-003  
  755.50  3.8028E-003  
  756.00  4.7345E-003  
  756.50  5.9644E-003  
  757.00  5.4256E-003  
  757.50  4.8943E-003  
  758.00  4.6855E-003  
  758.50  5.2744E-003  
  759.00  5.4377E-003  
  759.50  4.8931E-003  
  760.00  4.1884E-003  
  760.50  3.5042E-003  
  761.00  3.8537E-003  
  761.50  4.0548E-003  
  762.00  4.4548E-003  
  762.50  4.2867E-003  
  763.00  4.1845E-003  
  763.50  4.0914E-003  
  764.00  4.1493E-003  
  764.50  4.1989E-003  
  765.00  4.4386E-003  
  765.50  4.0163E-003  
  766.00  3.6009E-003  
  766.50  3.1656E-003  
  767.00  3.9044E-003  
  767.50  4.4168E-003  
  768.00  4.1668E-003  
  768.50  3.1373E-003  
  769.00  2.3195E-003  
  769.50  2.3171E-003  
  770.00  2.2412E-003  
  770.50  1.9634E-003  
  771.00  2.0279E-003  
  771.50  3.0125E-003  
  772.00  3.7935E-003  
  772.50  4.0731E-003  
  773.00  4.3378E-003  
  773.50  4.9514E-003  
  774.00  4.3288E-003  
  774.50  3.0755E-003  
  775.00  2.4742E-003  
  775.50  3.5521E-003  
  776.00  4.7398E-003  
  776.50  5.3513E-003  
  777.00  4.9297E-003  
  777.50  4.2553E-003  
  778.00  3.7464E-003  
  778.50  3.6678E-003  
  779.00  3.3530E-003  
  779.50  2.4778E-003  
  780.00  1.6530E-003  
  780.50  1.5723E-003  
  781.00  2.1958E-003  
  781.50  2.4106E-003  
  782.00  2.1428E-003  
  782.50  1.7696E-003  
  783.00  2.0228E-003  
  783.50  2.4169E-003  
  784.00  3.3504E-003  
  784.50  3.6058E-003  
  785.00  3.5183E-003  
  785.50  2.4785E-003  
  786.00  1.8379E-003  
  786.50  1.7498E-003  
  787.00  3.0791E-003  
  787.50  2.7497E-003  
  788.00  1.6521E-003  
  788.50  2.7568E-004  
  789.00  8.7916E-004  
  789.50  1.8480E-003  
  790.00  3.7797E-003  
  790.50  4.5520E-003  
  791.00  4.2645E-003  
  791.50  3.0392E-003  
  792.00  2.4431E-003  
  792.50  2.0605E-003  
  793.00  2.2374E-003  
  793.50  2.5562E-003  
  794.00  2.2316E-003  
  794.50  1.3439E-003  
  795.00  5.2970E-004  
  795.50  9.5301E-004  
  796.00  1.0690E-003  
  796.50  6.0168E-004  
  797.00  0.0000E+000  
  797.50  9.1273E-004  
  798.00  2.7572E-003  
  798.50  3.1750E-003  
  799.00  2.3527E-003  
  799.50  1.6448E-003  
  800.00  1.6558E-003  
  800.50  2.0532E-003  
  801.00  3.1006E-003  
  801.50  3.2818E-003  
  802.00  3.4159E-003  
  802.50  3.1844E-003  
  803.00  2.5197E-003  
  803.50  3.2119E-003  
  804.00  3.2697E-003  
  804.50  3.5140E-003  
  805.00  2.4698E-003  
  805.50  1.6589E-003  
  806.00  1.1456E-003  
  806.50  1.6462E-003  
  807.00  2.1244E-003  
  807.50  2.2568E-003  
  808.00  1.2271E-003  
  808.50  7.5164E-004  
  809.00  1.0167E-003  
  809.50  5.3377E-004  
  810.00  1.3640E-003  
  810.50  1.1018E-003  
  811.00  4.1281E-004  
  811.50  9.7663E-004  
  812.00  2.4100E-003  
  812.50  2.5869E-003  
  813.00  1.5979E-003  
  813.50  1.8517E-003  
  814.00  1.7222E-003  
  814.50  1.8909E-003  
  815.00  1.8335E-003  
  815.50  2.4631E-003  
  816.00  1.5050E-003  
  816.50  1.6353E-003  
  817.00  2.7961E-003  
  817.50  3.7104E-003  
  818.00  5.0226E-003  
  818.50  4.7088E-003  
  819.00  5.4389E-003  
  819.50  5.0138E-003  
  820.00  4.4964E-003  
  820.50  3.0939E-003  
  821.00  2.4439E-003  
  821.50  2.7965E-003  
  822.00  2.5404E-003  
  822.50  3.0357E-003  
  823.00  2.1076E-003  
  823.50  2.2314E-003  
  824.00  3.7004E-003  
  824.50  4.7282E-003  
  825.00  5.0255E-003  
  825.50  3.7693E-003  
  826.00  3.9014E-003  
  826.50  2.9532E-003  
  827.00  2.4179E-003  
  827.50  1.3570E-003  
  828.00  1.4682E-004  
  828.50  0.0000E+000  
  829.00  4.3935E-005  
  829.50  1.5345E-003  
  830.00  3.2532E-003  
  830.50  3.7303E-003  
  831.00  2.9363E-003  
  831.50  1.1919E-003  
  832.00  3.3464E-004  
  832.50  5.6367E-004  
  833.00  2.4425E-003  
  833.50  2.2713E-003  
  834.00  1.4080E-003  
  834.50  1.6073E-003  
  835.00  1.8342E-003  
  835.50  1.0493E-003  
  836.00  9.8749E-004  
  836.50  1.5335E-003  
  837.00  1.4209E-003  
  837.50  1.1815E-003  
  838.00  1.6686E-003  
  838.50  1.0821E-003  
  839.00  0.0000E+000  
  839.50  4.3804E-006  
  840.00  1.6654E-003  
  840.50  4.7425E-003  
  841.00  4.8874E-003  
  841.50  2.8688E-003  
  842.00  2.8040E-003  
  842.50  3.7126E-003  
  843.00  4.6514E-003  
  843.50  3.2158E-003  
  844.00  7.4575E-004  
  844.50  0.0000E+000  
  845.00  1.1596E-003  
  845.50  1.4323E-003  
  846.00  3.9114E-004  
  846.50  1.5334E-003  
  847.00  1.9478E-003  
  847.50  3.4044E-004  
  848.00  5.4110E-005  
  848.50  1.0187E-003  
  849.00  7.3133E-004  
  849.50  1.5903E-004  
  850.00  5.1506E-004  
  850.50  0.0000E+000  
  851.00  2.8477E-005  
  851.50  1.2517E-003  
  852.00  3.2263E-003  
  852.50  1.7471E-003  
  853.00  1.1922E-003  
  853.50  9.9869E-004  
  854.00  2.1141E-003  
  854.50  2.2245E-003  
  855.00  5.6023E-004  
  855.50  4.8482E-004  
  856.00  1.0389E-003  
  856.50  0.0000E+000  
  857.00  0.0000E+000  
  857.50  0.0000E+000  
  858.00  0.0000E+000  
  858.50  3.7516E-005  
  859.00  3.5104E-004  
  859.50  1.8346E-004  
  860.00  0.0000E+000  
  860.50  0.0000E+000  
  861.00  4.5080E-004  
  861.50  1.9124E-003  
  862.00  1.3367E-003  
  862.50  3.1562E-005  
  863.00  0.0000E+000  
  863.50  0.0000E+000  
  864.00  1.0848E-004  
  864.50  6.2408E-004  
  865.00  9.0050E-004  
  865.50  1.8049E-003  
  866.00  2.9490E-003  
  866.50  4.0315E-003  
  867.00  4.3058E-003  
  867.50  2.8998E-003  
  868.00  1.5018E-003  
  868.50  2.7382E-003  
  869.00  2.9987E-003  
  869.50  2.4674E-003  
  870.00  2.7793E-003  
  870.50  3.6808E-003  
  871.00  6.6310E-003  
  871.50  8.2960E-003  
  872.00  7.7544E-003  
  872.50  4.8110E-003  
  873.00  3.1717E-003  
  873.50  4.8239E-003  
  874.00  6.2437E-003  
  874.50  7.1688E-003  
  875.00  5.9749E-003  
  875.50  5.4190E-003  
  876.00  3.9719E-003  
  876.50  7.4369E-003  
  877.00  6.0008E-003  
  877.50  4.3361E-003  
  878.00  3.3276E-003  
  878.50  2.7170E-003  
  879.00  2.8834E-004  
  879.50  0.0000E+000  
  880.00  3.4090E-004  
  880.50  6.3291E-005  
  881.00  0.0000E+000  
  881.50  9.7126E-004  
  882.00  2.0641E-003  
  882.50  4.6472E-003  
  883.00  7.9913E-003  
  883.50  5.8493E-003  
  884.00  3.7339E-003  
  884.50  7.8046E-003  
  885.00  7.6682E-003  
  885.50  3.7037E-003  
  886.00  2.4824E-003  
  886.50  1.0669E-003  
  887.00  5.0943E-005  
  887.50  1.0668E-003  
  888.00  3.3604E-003  
  888.50  2.1946E-003  
  889.00  2.1376E-003  
  889.50  5.5039E-003  
  890.00  5.0423E-003  
  890.50  1.6345E-003  
  891.00  0.0000E+000  
  891.50  0.0000E+000  
  892.00  8.3565E-004  
  892.50  1.8340E-003  
  893.00  6.2110E-003  
  893.50  8.7057E-003  
  894.00  7.5834E-003  
  894.50  5.6905E-003  
  895.00  9.6547E-004  
  895.50  3.5765E-003  
  896.00  5.5123E-003  
  896.50  5.8505E-003  
  897.00  5.0606E-003  
  897.50  7.9006E-004  
  898.00  1.0558E-003  
  898.50  3.0882E-003  
  899.00  7.4003E-003  
  899.50  1.3155E-004  
