
# From lspdd.org
# 
# Name: DEL DALS Wall-002 Domestique
# Indice spectral Valeur 
# MSI 0.35 
# SLI 0.55 
# IPI 0.64 
# Pourcentage de bleu 23.8 
# Caractéristique Valeur 
# CCT calculée (K) 3105 
# CCT du fabricant (K) 3000 
# Tension (V) 120 
# Puissance (W) 7.5 
# Efficacité lumineuse (Lum/W) 80.0 
#
# Image: '/app/system/img_2s/2655/medium_image2.jpg?1432223117'
# Image: '/app/system/img_1s/2655/medium_image1.jpg?1432223111'
# 

  273.00  0.0000E+000  
  273.50  0.0000E+000  
  274.00  0.0000E+000  
  274.50  0.0000E+000  
  275.00  0.0000E+000  
  275.50  0.0000E+000  
  276.00  0.0000E+000  
  276.50  0.0000E+000  
  277.00  0.0000E+000  
  277.50  0.0000E+000  
  278.00  0.0000E+000  
  278.50  0.0000E+000  
  279.00  0.0000E+000  
  279.50  0.0000E+000  
  280.00  0.0000E+000  
  280.50  0.0000E+000  
  281.00  0.0000E+000  
  281.50  0.0000E+000  
  282.00  0.0000E+000  
  282.50  0.0000E+000  
  283.00  0.0000E+000  
  283.50  0.0000E+000  
  284.00  0.0000E+000  
  284.50  0.0000E+000  
  285.00  0.0000E+000  
  285.50  0.0000E+000  
  286.00  0.0000E+000  
  286.50  0.0000E+000  
  287.00  0.0000E+000  
  287.50  0.0000E+000  
  288.00  0.0000E+000  
  288.50  0.0000E+000  
  289.00  0.0000E+000  
  289.50  0.0000E+000  
  290.00  0.0000E+000  
  290.50  0.0000E+000  
  291.00  0.0000E+000  
  291.50  0.0000E+000  
  292.00  0.0000E+000  
  292.50  0.0000E+000  
  293.00  0.0000E+000  
  293.50  0.0000E+000  
  294.00  0.0000E+000  
  294.50  0.0000E+000  
  295.00  0.0000E+000  
  295.50  0.0000E+000  
  296.00  0.0000E+000  
  296.50  0.0000E+000  
  297.00  0.0000E+000  
  297.50  0.0000E+000  
  298.00  0.0000E+000  
  298.50  0.0000E+000  
  299.00  0.0000E+000  
  299.50  0.0000E+000  
  300.00  0.0000E+000  
  300.50  0.0000E+000  
  301.00  0.0000E+000  
  301.50  0.0000E+000  
  302.00  0.0000E+000  
  302.50  0.0000E+000  
  303.00  0.0000E+000  
  303.50  0.0000E+000  
  304.00  0.0000E+000  
  304.50  0.0000E+000  
  305.00  0.0000E+000  
  305.50  0.0000E+000  
  306.00  0.0000E+000  
  306.50  0.0000E+000  
  307.00  0.0000E+000  
  307.50  0.0000E+000  
  308.00  0.0000E+000  
  308.50  0.0000E+000  
  309.00  0.0000E+000  
  309.50  0.0000E+000  
  310.00  0.0000E+000  
  310.50  0.0000E+000  
  311.00  0.0000E+000  
  311.50  0.0000E+000  
  312.00  0.0000E+000  
  312.50  0.0000E+000  
  313.00  0.0000E+000  
  313.50  0.0000E+000  
  314.00  0.0000E+000  
  314.50  0.0000E+000  
  315.00  0.0000E+000  
  315.50  0.0000E+000  
  316.00  0.0000E+000  
  316.50  0.0000E+000  
  317.00  0.0000E+000  
  317.50  0.0000E+000  
  318.00  0.0000E+000  
  318.50  0.0000E+000  
  319.00  0.0000E+000  
  319.50  0.0000E+000  
  320.00  0.0000E+000  
  320.50  0.0000E+000  
  321.00  0.0000E+000  
  321.50  0.0000E+000  
  322.00  0.0000E+000  
  322.50  0.0000E+000  
  323.00  0.0000E+000  
  323.50  0.0000E+000  
  324.00  0.0000E+000  
  324.50  0.0000E+000  
  325.00  0.0000E+000  
  325.50  0.0000E+000  
  326.00  0.0000E+000  
  326.50  0.0000E+000  
  327.00  0.0000E+000  
  327.50  0.0000E+000  
  328.00  0.0000E+000  
  328.50  0.0000E+000  
  329.00  0.0000E+000  
  329.50  0.0000E+000  
  330.00  0.0000E+000  
  330.50  0.0000E+000  
  331.00  0.0000E+000  
  331.50  0.0000E+000  
  332.00  0.0000E+000  
  332.50  0.0000E+000  
  333.00  0.0000E+000  
  333.50  0.0000E+000  
  334.00  0.0000E+000  
  334.50  0.0000E+000  
  335.00  0.0000E+000  
  335.50  0.0000E+000  
  336.00  0.0000E+000  
  336.50  0.0000E+000  
  337.00  0.0000E+000  
  337.50  0.0000E+000  
  338.00  0.0000E+000  
  338.50  0.0000E+000  
  339.00  0.0000E+000  
  339.50  0.0000E+000  
  340.00  0.0000E+000  
  340.50  0.0000E+000  
  341.00  0.0000E+000  
  341.50  0.0000E+000  
  342.00  0.0000E+000  
  342.50  0.0000E+000  
  343.00  0.0000E+000  
  343.50  0.0000E+000  
  344.00  0.0000E+000  
  344.50  0.0000E+000  
  345.00  0.0000E+000  
  345.50  0.0000E+000  
  346.00  0.0000E+000  
  346.50  0.0000E+000  
  347.00  0.0000E+000  
  347.50  0.0000E+000  
  348.00  0.0000E+000  
  348.50  0.0000E+000  
  349.00  0.0000E+000  
  349.50  0.0000E+000  
  350.00  0.0000E+000  
  350.50  0.0000E+000  
  351.00  0.0000E+000  
  351.50  0.0000E+000  
  352.00  0.0000E+000  
  352.50  0.0000E+000  
  353.00  0.0000E+000  
  353.50  0.0000E+000  
  354.00  0.0000E+000  
  354.50  0.0000E+000  
  355.00  0.0000E+000  
  355.50  0.0000E+000  
  356.00  0.0000E+000  
  356.50  0.0000E+000  
  357.00  0.0000E+000  
  357.50  0.0000E+000  
  358.00  0.0000E+000  
  358.50  0.0000E+000  
  359.00  0.0000E+000  
  359.50  0.0000E+000  
  360.00  0.0000E+000  
  360.50  0.0000E+000  
  361.00  0.0000E+000  
  361.50  0.0000E+000  
  362.00  0.0000E+000  
  362.50  0.0000E+000  
  363.00  0.0000E+000  
  363.50  0.0000E+000  
  364.00  0.0000E+000  
  364.50  0.0000E+000  
  365.00  0.0000E+000  
  365.50  0.0000E+000  
  366.00  0.0000E+000  
  366.50  0.0000E+000  
  367.00  0.0000E+000  
  367.50  0.0000E+000  
  368.00  0.0000E+000  
  368.50  0.0000E+000  
  369.00  0.0000E+000  
  369.50  0.0000E+000  
  370.00  0.0000E+000  
  370.50  0.0000E+000  
  371.00  0.0000E+000  
  371.50  0.0000E+000  
  372.00  0.0000E+000  
  372.50  0.0000E+000  
  373.00  0.0000E+000  
  373.50  0.0000E+000  
  374.00  0.0000E+000  
  374.50  0.0000E+000  
  375.00  0.0000E+000  
  375.50  0.0000E+000  
  376.00  0.0000E+000  
  376.50  0.0000E+000  
  377.00  0.0000E+000  
  377.50  0.0000E+000  
  378.00  0.0000E+000  
  378.50  0.0000E+000  
  379.00  0.0000E+000  
  379.50  0.0000E+000  
  380.00  0.0000E+000  
  380.50  0.0000E+000  
  381.00  0.0000E+000  
  381.50  0.0000E+000  
  382.00  0.0000E+000  
  382.50  0.0000E+000  
  383.00  0.0000E+000  
  383.50  0.0000E+000  
  384.00  0.0000E+000  
  384.50  0.0000E+000  
  385.00  0.0000E+000  
  385.50  0.0000E+000  
  386.00  0.0000E+000  
  386.50  0.0000E+000  
  387.00  0.0000E+000  
  387.50  0.0000E+000  
  388.00  0.0000E+000  
  388.50  0.0000E+000  
  389.00  0.0000E+000  
  389.50  0.0000E+000  
  390.00  0.0000E+000  
  390.50  0.0000E+000  
  391.00  0.0000E+000  
  391.50  0.0000E+000  
  392.00  0.0000E+000  
  392.50  0.0000E+000  
  393.00  0.0000E+000  
  393.50  0.0000E+000  
  394.00  0.0000E+000  
  394.50  0.0000E+000  
  395.00  0.0000E+000  
  395.50  0.0000E+000  
  396.00  0.0000E+000  
  396.50  0.0000E+000  
  397.00  0.0000E+000  
  397.50  0.0000E+000  
  398.00  0.0000E+000  
  398.50  0.0000E+000  
  399.00  0.0000E+000  
  399.50  0.0000E+000  
  400.00  0.0000E+000  
  400.50  0.0000E+000  
  401.00  0.0000E+000  
  401.50  0.0000E+000  
  402.00  0.0000E+000  
  402.50  0.0000E+000  
  403.00  0.0000E+000  
  403.50  0.0000E+000  
  404.00  0.0000E+000  
  404.50  0.0000E+000  
  405.00  0.0000E+000  
  405.50  0.0000E+000  
  406.00  0.0000E+000  
  406.50  0.0000E+000  
  407.00  0.0000E+000  
  407.50  0.0000E+000  
  408.00  0.0000E+000  
  408.50  0.0000E+000  
  409.00  0.0000E+000  
  409.50  0.0000E+000  
  410.00  0.0000E+000  
  410.50  0.0000E+000  
  411.00  0.0000E+000  
  411.50  0.0000E+000  
  412.00  0.0000E+000  
  412.50  0.0000E+000  
  413.00  2.1311E-005  
  413.50  2.6520E-004  
  414.00  2.5287E-004  
  414.50  8.7418E-005  
  415.00  1.1502E-005  
  415.50  0.0000E+000  
  416.00  0.0000E+000  
  416.50  0.0000E+000  
  417.00  0.0000E+000  
  417.50  4.1017E-005  
  418.00  4.8928E-004  
  418.50  9.6425E-004  
  419.00  1.3674E-003  
  419.50  1.6683E-003  
  420.00  2.0264E-003  
  420.50  2.6394E-003  
  421.00  3.1269E-003  
  421.50  3.2089E-003  
  422.00  2.9976E-003  
  422.50  2.9494E-003  
  423.00  3.2311E-003  
  423.50  3.5957E-003  
  424.00  3.9558E-003  
  424.50  4.0251E-003  
  425.00  4.3764E-003  
  425.50  5.0465E-003  
  426.00  5.7275E-003  
  426.50  6.6176E-003  
  427.00  7.1704E-003  
  427.50  7.8494E-003  
  428.00  8.7166E-003  
  428.50  9.5852E-003  
  429.00  1.0493E-002  
  429.50  1.1434E-002  
  430.00  1.2190E-002  
  430.50  1.2949E-002  
  431.00  1.3982E-002  
  431.50  1.4871E-002  
  432.00  1.6182E-002  
  432.50  1.7325E-002  
  433.00  1.8286E-002  
  433.50  1.9456E-002  
  434.00  2.0431E-002  
  434.50  2.1721E-002  
  435.00  2.3003E-002  
  435.50  2.4622E-002  
  436.00  2.6409E-002  
  436.50  2.8173E-002  
  437.00  3.0212E-002  
  437.50  3.2060E-002  
  438.00  3.4234E-002  
  438.50  3.6534E-002  
  439.00  3.8886E-002  
  439.50  4.1407E-002  
  440.00  4.3906E-002  
  440.50  4.6689E-002  
  441.00  4.9715E-002  
  441.50  5.2796E-002  
  442.00  5.6115E-002  
  442.50  5.9379E-002  
  443.00  6.2828E-002  
  443.50  6.6422E-002  
  444.00  6.9830E-002  
  444.50  7.3438E-002  
  445.00  7.6976E-002  
  445.50  8.0758E-002  
  446.00  8.4102E-002  
  446.50  8.6887E-002  
  447.00  8.9456E-002  
  447.50  9.1868E-002  
  448.00  9.4663E-002  
  448.50  9.6616E-002  
  449.00  9.8301E-002  
  449.50  9.9037E-002  
  450.00  9.9175E-002  
  450.50  9.9382E-002  
  451.00  9.8824E-002  
  451.50  9.7646E-002  
  452.00  9.5658E-002  
  452.50  9.3532E-002  
  453.00  9.1203E-002  
  453.50  8.9014E-002  
  454.00  8.6027E-002  
  454.50  8.2972E-002  
  455.00  7.9733E-002  
  455.50  7.6677E-002  
  456.00  7.3833E-002  
  456.50  7.1105E-002  
  457.00  6.8354E-002  
  457.50  6.5856E-002  
  458.00  6.2924E-002  
  458.50  6.0572E-002  
  459.00  5.8053E-002  
  459.50  5.5751E-002  
  460.00  5.3218E-002  
  460.50  5.0912E-002  
  461.00  4.9058E-002  
  461.50  4.7489E-002  
  462.00  4.6365E-002  
  462.50  4.5189E-002  
  463.00  4.3971E-002  
  463.50  4.2780E-002  
  464.00  4.1636E-002  
  464.50  4.0608E-002  
  465.00  3.9795E-002  
  465.50  3.8874E-002  
  466.00  3.8059E-002  
  466.50  3.7163E-002  
  467.00  3.6339E-002  
  467.50  3.5723E-002  
  468.00  3.4949E-002  
  468.50  3.4199E-002  
  469.00  3.3393E-002  
  469.50  3.2132E-002  
  470.00  3.0955E-002  
  470.50  2.9744E-002  
  471.00  2.8912E-002  
  471.50  2.8284E-002  
  472.00  2.7391E-002  
  472.50  2.6265E-002  
  473.00  2.5298E-002  
  473.50  2.4934E-002  
  474.00  2.4665E-002  
  474.50  2.4174E-002  
  475.00  2.3314E-002  
  475.50  2.2777E-002  
  476.00  2.2552E-002  
  476.50  2.2542E-002  
  477.00  2.2383E-002  
  477.50  2.2068E-002  
  478.00  2.1923E-002  
  478.50  2.1830E-002  
  479.00  2.1640E-002  
  479.50  2.1754E-002  
  480.00  2.1976E-002  
  480.50  2.2407E-002  
  481.00  2.2899E-002  
  481.50  2.3095E-002  
  482.00  2.3159E-002  
  482.50  2.2953E-002  
  483.00  2.2815E-002  
  483.50  2.2975E-002  
  484.00  2.3296E-002  
  484.50  2.3870E-002  
  485.00  2.4246E-002  
  485.50  2.4489E-002  
  486.00  2.4814E-002  
  486.50  2.4927E-002  
  487.00  2.5460E-002  
  487.50  2.5892E-002  
  488.00  2.6314E-002  
  488.50  2.6985E-002  
  489.00  2.7554E-002  
  489.50  2.8177E-002  
  490.00  2.8733E-002  
  490.50  2.9084E-002  
  491.00  2.9528E-002  
  491.50  3.0262E-002  
  492.00  3.1003E-002  
  492.50  3.1763E-002  
  493.00  3.2592E-002  
  493.50  3.3300E-002  
  494.00  3.4155E-002  
  494.50  3.4963E-002  
  495.00  3.5774E-002  
  495.50  3.6699E-002  
  496.00  3.7644E-002  
  496.50  3.8712E-002  
  497.00  3.9877E-002  
  497.50  4.0721E-002  
  498.00  4.1457E-002  
  498.50  4.2234E-002  
  499.00  4.3140E-002  
  499.50  4.4389E-002  
  500.00  4.5536E-002  
  500.50  4.6304E-002  
  501.00  4.7148E-002  
  501.50  4.7973E-002  
  502.00  4.8959E-002  
  502.50  4.9973E-002  
  503.00  5.0912E-002  
  503.50  5.1726E-002  
  504.00  5.2636E-002  
  504.50  5.3505E-002  
  505.00  5.4496E-002  
  505.50  5.5441E-002  
  506.00  5.6237E-002  
  506.50  5.7224E-002  
  507.00  5.8179E-002  
  507.50  5.9183E-002  
  508.00  6.0148E-002  
  508.50  6.0780E-002  
  509.00  6.1536E-002  
  509.50  6.2293E-002  
  510.00  6.3203E-002  
  510.50  6.4196E-002  
  511.00  6.5085E-002  
  511.50  6.5914E-002  
  512.00  6.6810E-002  
  512.50  6.7742E-002  
  513.00  6.8627E-002  
  513.50  6.9558E-002  
  514.00  7.0066E-002  
  514.50  7.0741E-002  
  515.00  7.1050E-002  
  515.50  7.1610E-002  
  516.00  7.2250E-002  
  516.50  7.3036E-002  
  517.00  7.3913E-002  
  517.50  7.4486E-002  
  518.00  7.4773E-002  
  518.50  7.4952E-002  
  519.00  7.5394E-002  
  519.50  7.6202E-002  
  520.00  7.7078E-002  
  520.50  7.7615E-002  
  521.00  7.7865E-002  
  521.50  7.8126E-002  
  522.00  7.8471E-002  
  522.50  7.8892E-002  
  523.00  7.9484E-002  
  523.50  7.9952E-002  
  524.00  8.0505E-002  
  524.50  8.0814E-002  
  525.00  8.1001E-002  
  525.50  8.1195E-002  
  526.00  8.1408E-002  
  526.50  8.1629E-002  
  527.00  8.1947E-002  
  527.50  8.2344E-002  
  528.00  8.2766E-002  
  528.50  8.3264E-002  
  529.00  8.3656E-002  
  529.50  8.4057E-002  
  530.00  8.4248E-002  
  530.50  8.4404E-002  
  531.00  8.4641E-002  
  531.50  8.4858E-002  
  532.00  8.5245E-002  
  532.50  8.5451E-002  
  533.00  8.5455E-002  
  533.50  8.5659E-002  
  534.00  8.5652E-002  
  534.50  8.5980E-002  
  535.00  8.6267E-002  
  535.50  8.6468E-002  
  536.00  8.6644E-002  
  536.50  8.6707E-002  
  537.00  8.7092E-002  
  537.50  8.7483E-002  
  538.00  8.7884E-002  
  538.50  8.8207E-002  
  539.00  8.8231E-002  
  539.50  8.8339E-002  
  540.00  8.8389E-002  
  540.50  8.8462E-002  
  541.00  8.8636E-002  
  541.50  8.8869E-002  
  542.00  8.9181E-002  
  542.50  8.9541E-002  
  543.00  8.9865E-002  
  543.50  8.9909E-002  
  544.00  9.0056E-002  
  544.50  9.0148E-002  
  545.00  9.0702E-002  
  545.50  9.1243E-002  
  546.00  9.1678E-002  
  546.50  9.1938E-002  
  547.00  9.1917E-002  
  547.50  9.2051E-002  
  548.00  9.1992E-002  
  548.50  9.2226E-002  
  549.00  9.2569E-002  
  549.50  9.2935E-002  
  550.00  9.3186E-002  
  550.50  9.3562E-002  
  551.00  9.3744E-002  
  551.50  9.3967E-002  
  552.00  9.4110E-002  
  552.50  9.4444E-002  
  553.00  9.4944E-002  
  553.50  9.5605E-002  
  554.00  9.6206E-002  
  554.50  9.6733E-002  
  555.00  9.7121E-002  
  555.50  9.7548E-002  
  556.00  9.8167E-002  
  556.50  9.8590E-002  
  557.00  9.8876E-002  
  557.50  9.9077E-002  
  558.00  9.9539E-002  
  558.50  1.0033E-001  
  559.00  1.0100E-001  
  559.50  1.0135E-001  
  560.00  1.0166E-001  
  560.50  1.0218E-001  
  561.00  1.0295E-001  
  561.50  1.0393E-001  
  562.00  1.0446E-001  
  562.50  1.0502E-001  
  563.00  1.0571E-001  
  563.50  1.0647E-001  
  564.00  1.0718E-001  
  564.50  1.0778E-001  
  565.00  1.0821E-001  
  565.50  1.0872E-001  
  566.00  1.0919E-001  
  566.50  1.0978E-001  
  567.00  1.1032E-001  
  567.50  1.1084E-001  
  568.00  1.1168E-001  
  568.50  1.1265E-001  
  569.00  1.1369E-001  
  569.50  1.1427E-001  
  570.00  1.1499E-001  
  570.50  1.1606E-001  
  571.00  1.1706E-001  
  571.50  1.1791E-001  
  572.00  1.1835E-001  
  572.50  1.1927E-001  
  573.00  1.2024E-001  
  573.50  1.2114E-001  
  574.00  1.2187E-001  
  574.50  1.2236E-001  
  575.00  1.2307E-001  
  575.50  1.2387E-001  
  576.00  1.2461E-001  
  576.50  1.2539E-001  
  577.00  1.2635E-001  
  577.50  1.2752E-001  
  578.00  1.2881E-001  
  578.50  1.2935E-001  
  579.00  1.2977E-001  
  579.50  1.3014E-001  
  580.00  1.3109E-001  
  580.50  1.3220E-001  
  581.00  1.3322E-001  
  581.50  1.3409E-001  
  582.00  1.3495E-001  
  582.50  1.3588E-001  
  583.00  1.3677E-001  
  583.50  1.3728E-001  
  584.00  1.3787E-001  
  584.50  1.3880E-001  
  585.00  1.3967E-001  
  585.50  1.4020E-001  
  586.00  1.4029E-001  
  586.50  1.4074E-001  
  587.00  1.4140E-001  
  587.50  1.4283E-001  
  588.00  1.4400E-001  
  588.50  1.4506E-001  
  589.00  1.4522E-001  
  589.50  1.4512E-001  
  590.00  1.4528E-001  
  590.50  1.4620E-001  
  591.00  1.4715E-001  
  591.50  1.4830E-001  
  592.00  1.4910E-001  
  592.50  1.4977E-001  
  593.00  1.5019E-001  
  593.50  1.5043E-001  
  594.00  1.5118E-001  
  594.50  1.5166E-001  
  595.00  1.5172E-001  
  595.50  1.5153E-001  
  596.00  1.5165E-001  
  596.50  1.5210E-001  
  597.00  1.5251E-001  
  597.50  1.5274E-001  
  598.00  1.5317E-001  
  598.50  1.5332E-001  
  599.00  1.5361E-001  
  599.50  1.5348E-001  
  600.00  1.5351E-001  
  600.50  1.5344E-001  
  601.00  1.5366E-001  
  601.50  1.5389E-001  
  602.00  1.5429E-001  
  602.50  1.5457E-001  
  603.00  1.5434E-001  
  603.50  1.5390E-001  
  604.00  1.5369E-001  
  604.50  1.5336E-001  
  605.00  1.5292E-001  
  605.50  1.5233E-001  
  606.00  1.5206E-001  
  606.50  1.5223E-001  
  607.00  1.5236E-001  
  607.50  1.5206E-001  
  608.00  1.5183E-001  
  608.50  1.5143E-001  
  609.00  1.5143E-001  
  609.50  1.5090E-001  
  610.00  1.5005E-001  
  610.50  1.4914E-001  
  611.00  1.4867E-001  
  611.50  1.4871E-001  
  612.00  1.4858E-001  
  612.50  1.4818E-001  
  613.00  1.4751E-001  
  613.50  1.4710E-001  
  614.00  1.4709E-001  
  614.50  1.4694E-001  
  615.00  1.4651E-001  
  615.50  1.4551E-001  
  616.00  1.4444E-001  
  616.50  1.4337E-001  
  617.00  1.4243E-001  
  617.50  1.4160E-001  
  618.00  1.4085E-001  
  618.50  1.4024E-001  
  619.00  1.3955E-001  
  619.50  1.3908E-001  
  620.00  1.3819E-001  
  620.50  1.3747E-001  
  621.00  1.3629E-001  
  621.50  1.3568E-001  
  622.00  1.3482E-001  
  622.50  1.3422E-001  
  623.00  1.3308E-001  
  623.50  1.3218E-001  
  624.00  1.3138E-001  
  624.50  1.3049E-001  
  625.00  1.2912E-001  
  625.50  1.2759E-001  
  626.00  1.2669E-001  
  626.50  1.2633E-001  
  627.00  1.2612E-001  
  627.50  1.2545E-001  
  628.00  1.2418E-001  
  628.50  1.2282E-001  
  629.00  1.2186E-001  
  629.50  1.2128E-001  
  630.00  1.2069E-001  
  630.50  1.1971E-001  
  631.00  1.1873E-001  
  631.50  1.1744E-001  
  632.00  1.1622E-001  
  632.50  1.1518E-001  
  633.00  1.1450E-001  
  633.50  1.1367E-001  
  634.00  1.1241E-001  
  634.50  1.1095E-001  
  635.00  1.0992E-001  
  635.50  1.0901E-001  
  636.00  1.0794E-001  
  636.50  1.0675E-001  
  637.00  1.0541E-001  
  637.50  1.0421E-001  
  638.00  1.0317E-001  
  638.50  1.0246E-001  
  639.00  1.0153E-001  
  639.50  1.0021E-001  
  640.00  9.8659E-002  
  640.50  9.7710E-002  
  641.00  9.6854E-002  
  641.50  9.6065E-002  
  642.00  9.4642E-002  
  642.50  9.3310E-002  
  643.00  9.2381E-002  
  643.50  9.1944E-002  
  644.00  9.1596E-002  
  644.50  9.0642E-002  
  645.00  8.8996E-002  
  645.50  8.7445E-002  
  646.00  8.6399E-002  
  646.50  8.5371E-002  
  647.00  8.4218E-002  
  647.50  8.2940E-002  
  648.00  8.2366E-002  
  648.50  8.1654E-002  
  649.00  8.0890E-002  
  649.50  7.9856E-002  
  650.00  7.9068E-002  
  650.50  7.8171E-002  
  651.00  7.7047E-002  
  651.50  7.5807E-002  
  652.00  7.4652E-002  
  652.50  7.3688E-002  
  653.00  7.2837E-002  
  653.50  7.1548E-002  
  654.00  7.0313E-002  
  654.50  6.9324E-002  
  655.00  6.8689E-002  
  655.50  6.8124E-002  
  656.00  6.6942E-002  
  656.50  6.5904E-002  
  657.00  6.5197E-002  
  657.50  6.4350E-002  
  658.00  6.3246E-002  
  658.50  6.1886E-002  
  659.00  6.1061E-002  
  659.50  6.0184E-002  
  660.00  5.9166E-002  
  660.50  5.8448E-002  
  661.00  5.8186E-002  
  661.50  5.7950E-002  
  662.00  5.7015E-002  
  662.50  5.6062E-002  
  663.00  5.5109E-002  
  663.50  5.4645E-002  
  664.00  5.3997E-002  
  664.50  5.3137E-002  
  665.00  5.1962E-002  
  665.50  5.0770E-002  
  666.00  5.0002E-002  
  666.50  4.9564E-002  
  667.00  4.9027E-002  
  667.50  4.8351E-002  
  668.00  4.7630E-002  
  668.50  4.7012E-002  
  669.00  4.6337E-002  
  669.50  4.4957E-002  
  670.00  4.3766E-002  
  670.50  4.2838E-002  
  671.00  4.2540E-002  
  671.50  4.1979E-002  
  672.00  4.1315E-002  
  672.50  4.0439E-002  
  673.00  4.0043E-002  
  673.50  3.9607E-002  
  674.00  3.9526E-002  
  674.50  3.9163E-002  
  675.00  3.8581E-002  
  675.50  3.7765E-002  
  676.00  3.7041E-002  
  676.50  3.6345E-002  
  677.00  3.5707E-002  
  677.50  3.5254E-002  
  678.00  3.4835E-002  
  678.50  3.4233E-002  
  679.00  3.3698E-002  
  679.50  3.3435E-002  
  680.00  3.3005E-002  
  680.50  3.2081E-002  
  681.00  3.1256E-002  
  681.50  3.0840E-002  
  682.00  3.0507E-002  
  682.50  2.9859E-002  
  683.00  2.9089E-002  
  683.50  2.8566E-002  
  684.00  2.8049E-002  
  684.50  2.7569E-002  
  685.00  2.6821E-002  
  685.50  2.6239E-002  
  686.00  2.5564E-002  
  686.50  2.5276E-002  
  687.00  2.4901E-002  
  687.50  2.4265E-002  
  688.00  2.3851E-002  
  688.50  2.3565E-002  
  689.00  2.3234E-002  
  689.50  2.2621E-002  
  690.00  2.2390E-002  
  690.50  2.2288E-002  
  691.00  2.2281E-002  
  691.50  2.1725E-002  
  692.00  2.1669E-002  
  692.50  2.1070E-002  
  693.00  2.0773E-002  
  693.50  2.0207E-002  
  694.00  1.9972E-002  
  694.50  1.8938E-002  
  695.00  1.8250E-002  
  695.50  1.7735E-002  
  696.00  1.8414E-002  
  696.50  1.8625E-002  
  697.00  1.8519E-002  
  697.50  1.7924E-002  
  698.00  1.7581E-002  
  698.50  1.7168E-002  
  699.00  1.6942E-002  
  699.50  1.6667E-002  
  700.00  1.6123E-002  
  700.50  1.5269E-002  
  701.00  1.4230E-002  
  701.50  1.3828E-002  
  702.00  1.3639E-002  
  702.50  1.3462E-002  
  703.00  1.3238E-002  
  703.50  1.3323E-002  
  704.00  1.3647E-002  
  704.50  1.4029E-002  
  705.00  1.3868E-002  
  705.50  1.3578E-002  
  706.00  1.2746E-002  
  706.50  1.2070E-002  
  707.00  1.1263E-002  
  707.50  1.0952E-002  
  708.00  1.0694E-002  
  708.50  1.1174E-002  
  709.00  1.1805E-002  
  709.50  1.2265E-002  
  710.00  1.1846E-002  
  710.50  1.0865E-002  
  711.00  9.6715E-003  
  711.50  9.0294E-003  
  712.00  8.8243E-003  
  712.50  8.9623E-003  
  713.00  9.1584E-003  
  713.50  8.9732E-003  
  714.00  8.7275E-003  
  714.50  8.6224E-003  
  715.00  8.4464E-003  
  715.50  8.0145E-003  
  716.00  7.7708E-003  
  716.50  8.0179E-003  
  717.00  7.9300E-003  
  717.50  7.7210E-003  
  718.00  7.4370E-003  
  718.50  7.1921E-003  
  719.00  6.5731E-003  
  719.50  6.6314E-003  
  720.00  6.5322E-003  
  720.50  6.4458E-003  
  721.00  6.0588E-003  
  721.50  6.2580E-003  
  722.00  6.4591E-003  
  722.50  6.2772E-003  
  723.00  5.9261E-003  
  723.50  5.3360E-003  
  724.00  5.0151E-003  
  724.50  4.6735E-003  
  725.00  4.5998E-003  
  725.50  4.7419E-003  
  726.00  5.1926E-003  
  726.50  5.3129E-003  
  727.00  5.1577E-003  
  727.50  4.7011E-003  
  728.00  4.1720E-003  
  728.50  3.9201E-003  
  729.00  4.5987E-003  
  729.50  5.3707E-003  
  730.00  6.1670E-003  
  730.50  5.6156E-003  
  731.00  4.9477E-003  
  731.50  4.0098E-003  
  732.00  3.5123E-003  
  732.50  3.3043E-003  
  733.00  3.5134E-003  
  733.50  3.8525E-003  
  734.00  3.9758E-003  
  734.50  3.5551E-003  
  735.00  2.7994E-003  
  735.50  3.0795E-003  
  736.00  3.0844E-003  
  736.50  2.6535E-003  
  737.00  1.4670E-003  
  737.50  8.5365E-004  
  738.00  9.3032E-004  
  738.50  1.6728E-003  
  739.00  2.3461E-003  
  739.50  2.4385E-003  
  740.00  2.0957E-003  
  740.50  2.1219E-003  
  741.00  2.0118E-003  
  741.50  1.5193E-003  
  742.00  1.3583E-003  
  742.50  2.0149E-003  
  743.00  2.1703E-003  
  743.50  1.9575E-003  
  744.00  1.3094E-003  
  744.50  1.0047E-003  
  745.00  7.4521E-004  
  745.50  9.7500E-004  
  746.00  1.4244E-003  
  746.50  1.3481E-003  
  747.00  1.3887E-003  
  747.50  1.6286E-003  
  748.00  1.2723E-003  
  748.50  3.4853E-004  
  749.00  0.0000E+000  
  749.50  0.0000E+000  
  750.00  1.1123E-004  
  750.50  1.0956E-003  
  751.00  1.6439E-003  
  751.50  1.6353E-003  
  752.00  6.4806E-004  
  752.50  9.0838E-005  
  753.00  0.0000E+000  
  753.50  8.6136E-006  
  754.00  0.0000E+000  
  754.50  0.0000E+000  
  755.00  0.0000E+000  
  755.50  0.0000E+000  
  756.00  0.0000E+000  
  756.50  0.0000E+000  
  757.00  0.0000E+000  
  757.50  0.0000E+000  
  758.00  0.0000E+000  
  758.50  0.0000E+000  
  759.00  0.0000E+000  
  759.50  0.0000E+000  
  760.00  0.0000E+000  
  760.50  0.0000E+000  
  761.00  0.0000E+000  
  761.50  0.0000E+000  
  762.00  0.0000E+000  
  762.50  0.0000E+000  
  763.00  0.0000E+000  
  763.50  0.0000E+000  
  764.00  0.0000E+000  
  764.50  0.0000E+000  
  765.00  0.0000E+000  
  765.50  0.0000E+000  
  766.00  0.0000E+000  
  766.50  0.0000E+000  
  767.00  0.0000E+000  
  767.50  0.0000E+000  
  768.00  0.0000E+000  
  768.50  0.0000E+000  
  769.00  0.0000E+000  
  769.50  0.0000E+000  
  770.00  0.0000E+000  
  770.50  0.0000E+000  
  771.00  0.0000E+000  
  771.50  0.0000E+000  
  772.00  0.0000E+000  
  772.50  0.0000E+000  
  773.00  0.0000E+000  
  773.50  0.0000E+000  
  774.00  0.0000E+000  
  774.50  0.0000E+000  
  775.00  0.0000E+000  
  775.50  0.0000E+000  
  776.00  0.0000E+000  
  776.50  0.0000E+000  
  777.00  0.0000E+000  
  777.50  0.0000E+000  
  778.00  0.0000E+000  
  778.50  0.0000E+000  
  779.00  0.0000E+000  
  779.50  0.0000E+000  
  780.00  0.0000E+000  
  780.50  0.0000E+000  
  781.00  0.0000E+000  
  781.50  0.0000E+000  
  782.00  0.0000E+000  
  782.50  0.0000E+000  
  783.00  0.0000E+000  
  783.50  0.0000E+000  
  784.00  0.0000E+000  
  784.50  0.0000E+000  
  785.00  0.0000E+000  
  785.50  0.0000E+000  
  786.00  0.0000E+000  
  786.50  0.0000E+000  
  787.00  0.0000E+000  
  787.50  0.0000E+000  
  788.00  0.0000E+000  
  788.50  0.0000E+000  
  789.00  0.0000E+000  
  789.50  0.0000E+000  
  790.00  0.0000E+000  
  790.50  0.0000E+000  
  791.00  0.0000E+000  
  791.50  0.0000E+000  
  792.00  0.0000E+000  
  792.50  0.0000E+000  
  793.00  0.0000E+000  
  793.50  0.0000E+000  
  794.00  0.0000E+000  
  794.50  0.0000E+000  
  795.00  0.0000E+000  
  795.50  0.0000E+000  
  796.00  0.0000E+000  
  796.50  0.0000E+000  
  797.00  0.0000E+000  
  797.50  0.0000E+000  
  798.00  0.0000E+000  
  798.50  0.0000E+000  
  799.00  0.0000E+000  
  799.50  0.0000E+000  
  800.00  0.0000E+000  
  800.50  0.0000E+000  
  801.00  0.0000E+000  
  801.50  0.0000E+000  
  802.00  0.0000E+000  
  802.50  0.0000E+000  
  803.00  0.0000E+000  
  803.50  0.0000E+000  
  804.00  0.0000E+000  
  804.50  0.0000E+000  
  805.00  0.0000E+000  
  805.50  0.0000E+000  
  806.00  0.0000E+000  
  806.50  0.0000E+000  
  807.00  0.0000E+000  
  807.50  0.0000E+000  
  808.00  0.0000E+000  
  808.50  0.0000E+000  
  809.00  0.0000E+000  
  809.50  0.0000E+000  
  810.00  0.0000E+000  
  810.50  0.0000E+000  
  811.00  0.0000E+000  
  811.50  0.0000E+000  
  812.00  0.0000E+000  
  812.50  0.0000E+000  
  813.00  0.0000E+000  
  813.50  0.0000E+000  
  814.00  0.0000E+000  
  814.50  0.0000E+000  
  815.00  0.0000E+000  
  815.50  0.0000E+000  
  816.00  0.0000E+000  
  816.50  0.0000E+000  
  817.00  0.0000E+000  
  817.50  0.0000E+000  
  818.00  0.0000E+000  
  818.50  0.0000E+000  
  819.00  0.0000E+000  
  819.50  0.0000E+000  
  820.00  0.0000E+000  
  820.50  0.0000E+000  
  821.00  0.0000E+000  
  821.50  0.0000E+000  
  822.00  0.0000E+000  
  822.50  0.0000E+000  
  823.00  0.0000E+000  
  823.50  0.0000E+000  
  824.00  0.0000E+000  
  824.50  0.0000E+000  
  825.00  0.0000E+000  
  825.50  0.0000E+000  
  826.00  0.0000E+000  
  826.50  0.0000E+000  
  827.00  0.0000E+000  
  827.50  0.0000E+000  
  828.00  0.0000E+000  
  828.50  0.0000E+000  
  829.00  0.0000E+000  
  829.50  0.0000E+000  
  830.00  0.0000E+000  
  830.50  0.0000E+000  
  831.00  0.0000E+000  
  831.50  0.0000E+000  
  832.00  0.0000E+000  
  832.50  0.0000E+000  
  833.00  0.0000E+000  
  833.50  0.0000E+000  
  834.00  0.0000E+000  
  834.50  0.0000E+000  
  835.00  0.0000E+000  
  835.50  0.0000E+000  
  836.00  0.0000E+000  
  836.50  0.0000E+000  
  837.00  0.0000E+000  
  837.50  0.0000E+000  
  838.00  0.0000E+000  
  838.50  0.0000E+000  
  839.00  0.0000E+000  
  839.50  0.0000E+000  
  840.00  0.0000E+000  
  840.50  0.0000E+000  
  841.00  0.0000E+000  
  841.50  0.0000E+000  
  842.00  0.0000E+000  
  842.50  0.0000E+000  
  843.00  0.0000E+000  
  843.50  0.0000E+000  
  844.00  0.0000E+000  
  844.50  0.0000E+000  
  845.00  0.0000E+000  
  845.50  0.0000E+000  
  846.00  0.0000E+000  
  846.50  0.0000E+000  
  847.00  0.0000E+000  
  847.50  0.0000E+000  
  848.00  0.0000E+000  
  848.50  0.0000E+000  
  849.00  0.0000E+000  
  849.50  0.0000E+000  
  850.00  0.0000E+000  
  850.50  0.0000E+000  
  851.00  0.0000E+000  
  851.50  0.0000E+000  
  852.00  0.0000E+000  
  852.50  0.0000E+000  
  853.00  0.0000E+000  
  853.50  0.0000E+000  
  854.00  0.0000E+000  
  854.50  0.0000E+000  
  855.00  0.0000E+000  
  855.50  0.0000E+000  
  856.00  0.0000E+000  
  856.50  0.0000E+000  
  857.00  0.0000E+000  
  857.50  0.0000E+000  
  858.00  0.0000E+000  
  858.50  0.0000E+000  
  859.00  0.0000E+000  
  859.50  0.0000E+000  
  860.00  0.0000E+000  
  860.50  0.0000E+000  
  861.00  0.0000E+000  
  861.50  0.0000E+000  
  862.00  0.0000E+000  
  862.50  0.0000E+000  
  863.00  0.0000E+000  
  863.50  0.0000E+000  
  864.00  0.0000E+000  
  864.50  0.0000E+000  
  865.00  0.0000E+000  
  865.50  0.0000E+000  
  866.00  0.0000E+000  
  866.50  0.0000E+000  
  867.00  0.0000E+000  
  867.50  0.0000E+000  
  868.00  0.0000E+000  
  868.50  0.0000E+000  
  869.00  0.0000E+000  
  869.50  0.0000E+000  
  870.00  0.0000E+000  
  870.50  0.0000E+000  
  871.00  0.0000E+000  
  871.50  0.0000E+000  
  872.00  0.0000E+000  
  872.50  0.0000E+000  
  873.00  0.0000E+000  
  873.50  0.0000E+000  
  874.00  0.0000E+000  
  874.50  0.0000E+000  
  875.00  0.0000E+000  
  875.50  0.0000E+000  
  876.00  0.0000E+000  
  876.50  0.0000E+000  
  877.00  0.0000E+000  
  877.50  0.0000E+000  
  878.00  0.0000E+000  
  878.50  0.0000E+000  
  879.00  0.0000E+000  
  879.50  0.0000E+000  
  880.00  0.0000E+000  
  880.50  0.0000E+000  
  881.00  0.0000E+000  
  881.50  0.0000E+000  
  882.00  0.0000E+000  
  882.50  0.0000E+000  
  883.00  0.0000E+000  
  883.50  0.0000E+000  
  884.00  0.0000E+000  
  884.50  0.0000E+000  
  885.00  0.0000E+000  
  885.50  0.0000E+000  
  886.00  0.0000E+000  
  886.50  0.0000E+000  
  887.00  0.0000E+000  
  887.50  0.0000E+000  
  888.00  0.0000E+000  
  888.50  0.0000E+000  
  889.00  0.0000E+000  
  889.50  0.0000E+000  
  890.00  0.0000E+000  
  890.50  0.0000E+000  
  891.00  0.0000E+000  
  891.50  0.0000E+000  
  892.00  0.0000E+000  
  892.50  0.0000E+000  
  893.00  0.0000E+000  
  893.50  0.0000E+000  
  894.00  0.0000E+000  
  894.50  0.0000E+000  
  895.00  0.0000E+000  
  895.50  0.0000E+000  
  896.00  0.0000E+000  
  896.50  0.0000E+000  
  897.00  0.0000E+000  
  897.50  0.0000E+000  
  898.00  0.0000E+000  
  898.50  0.0000E+000  
  899.00  0.0000E+000  
  899.50  0.0000E+000  
