
# From lspdd.org
# 
# Name: DELKEELytePro32Philips KEELytePro32Extérieur
# Indice spectral Valeur 
# MSI 0.54 
# SLI 0.63 
# IPI 0.78 
# Pourcentage de bleu 29.7 
# Caractéristique Valeur 
# CCT calculée (K) 3523 
# CCT du fabricant (K) 4000 
# Tension (V) 120 
# Puissance (W) 71.0 
# Efficacité lumineuse (Lum/W) 80.0 
#
# Image: '/app/system/img_2s/2702/medium_image2.jpg?1464613317'
# Image: '/app/system/img_1s/2702/medium_image1.JPG?1464613300'
# 

  273.00  0.0000E+000  
  273.50  0.0000E+000  
  274.00  0.0000E+000  
  274.50  0.0000E+000  
  275.00  0.0000E+000  
  275.50  0.0000E+000  
  276.00  0.0000E+000  
  276.50  0.0000E+000  
  277.00  0.0000E+000  
  277.50  0.0000E+000  
  278.00  0.0000E+000  
  278.50  0.0000E+000  
  279.00  0.0000E+000  
  279.50  0.0000E+000  
  280.00  0.0000E+000  
  280.50  0.0000E+000  
  281.00  0.0000E+000  
  281.50  0.0000E+000  
  282.00  0.0000E+000  
  282.50  0.0000E+000  
  283.00  0.0000E+000  
  283.50  0.0000E+000  
  284.00  0.0000E+000  
  284.50  0.0000E+000  
  285.00  0.0000E+000  
  285.50  0.0000E+000  
  286.00  0.0000E+000  
  286.50  0.0000E+000  
  287.00  0.0000E+000  
  287.50  0.0000E+000  
  288.00  0.0000E+000  
  288.50  0.0000E+000  
  289.00  0.0000E+000  
  289.50  0.0000E+000  
  290.00  0.0000E+000  
  290.50  0.0000E+000  
  291.00  0.0000E+000  
  291.50  0.0000E+000  
  292.00  0.0000E+000  
  292.50  0.0000E+000  
  293.00  0.0000E+000  
  293.50  0.0000E+000  
  294.00  0.0000E+000  
  294.50  0.0000E+000  
  295.00  0.0000E+000  
  295.50  0.0000E+000  
  296.00  0.0000E+000  
  296.50  0.0000E+000  
  297.00  0.0000E+000  
  297.50  0.0000E+000  
  298.00  0.0000E+000  
  298.50  0.0000E+000  
  299.00  0.0000E+000  
  299.50  0.0000E+000  
  300.00  5.9289E-005  
  300.50  1.7035E-004  
  301.00  1.9001E-004  
  301.50  1.9882E-004  
  302.00  3.0017E-004  
  302.50  3.6974E-004  
  303.00  4.1194E-004  
  303.50  4.3652E-004  
  304.00  3.5456E-004  
  304.50  3.0031E-004  
  305.00  3.0172E-004  
  305.50  3.0807E-004  
  306.00  3.4339E-004  
  306.50  3.8835E-004  
  307.00  3.7560E-004  
  307.50  3.1284E-004  
  308.00  2.5029E-004  
  308.50  2.0043E-004  
  309.00  2.1087E-004  
  309.50  2.9830E-004  
  310.00  3.6030E-004  
  310.50  4.0735E-004  
  311.00  4.3958E-004  
  311.50  6.4712E-004  
  312.00  7.7376E-004  
  312.50  7.6498E-004  
  313.00  6.5907E-004  
  313.50  3.6272E-004  
  314.00  2.8757E-004  
  314.50  3.2466E-004  
  315.00  3.4279E-004  
  315.50  3.6355E-004  
  316.00  3.8695E-004  
  316.50  4.1256E-004  
  317.00  4.5142E-004  
  317.50  5.2088E-004  
  318.00  5.9095E-004  
  318.50  6.3538E-004  
  319.00  7.0513E-004  
  319.50  6.6322E-004  
  320.00  5.4070E-004  
  320.50  4.7789E-004  
  321.00  4.2691E-004  
  321.50  5.0372E-004  
  322.00  5.7710E-004  
  322.50  5.5325E-004  
  323.00  4.8029E-004  
  323.50  3.8010E-004  
  324.00  3.4234E-004  
  324.50  3.4517E-004  
  325.00  3.9527E-004  
  325.50  3.9487E-004  
  326.00  3.9388E-004  
  326.50  3.5425E-004  
  327.00  3.8090E-004  
  327.50  4.6907E-004  
  328.00  5.3258E-004  
  328.50  6.5588E-004  
  329.00  6.0661E-004  
  329.50  5.8355E-004  
  330.00  5.9705E-004  
  330.50  5.9047E-004  
  331.00  6.0525E-004  
  331.50  6.1351E-004  
  332.00  5.9075E-004  
  332.50  5.9798E-004  
  333.00  6.6501E-004  
  333.50  6.3952E-004  
  334.00  6.5015E-004  
  334.50  6.8552E-004  
  335.00  7.1174E-004  
  335.50  7.8167E-004  
  336.00  7.7163E-004  
  336.50  7.3683E-004  
  337.00  7.1747E-004  
  337.50  7.0869E-004  
  338.00  6.9798E-004  
  338.50  6.3470E-004  
  339.00  5.7428E-004  
  339.50  5.1245E-004  
  340.00  5.1556E-004  
  340.50  5.2378E-004  
  341.00  5.2738E-004  
  341.50  5.8976E-004  
  342.00  6.5899E-004  
  342.50  6.6479E-004  
  343.00  6.3164E-004  
  343.50  5.5827E-004  
  344.00  5.5180E-004  
  344.50  5.8703E-004  
  345.00  6.0105E-004  
  345.50  6.2921E-004  
  346.00  5.8473E-004  
  346.50  5.9712E-004  
  347.00  6.2071E-004  
  347.50  6.0766E-004  
  348.00  6.1851E-004  
  348.50  5.9602E-004  
  349.00  6.8103E-004  
  349.50  7.3315E-004  
  350.00  8.5784E-004  
  350.50  9.1415E-004  
  351.00  9.0537E-004  
  351.50  9.0161E-004  
  352.00  8.6464E-004  
  352.50  7.9292E-004  
  353.00  7.0302E-004  
  353.50  5.8699E-004  
  354.00  5.0866E-004  
  354.50  5.8429E-004  
  355.00  6.7573E-004  
  355.50  7.5453E-004  
  356.00  7.8739E-004  
  356.50  7.5100E-004  
  357.00  6.7420E-004  
  357.50  5.9436E-004  
  358.00  5.4757E-004  
  358.50  5.6481E-004  
  359.00  6.5958E-004  
  359.50  7.1244E-004  
  360.00  7.7052E-004  
  360.50  7.4973E-004  
  361.00  7.3982E-004  
  361.50  7.6037E-004  
  362.00  7.5952E-004  
  362.50  7.7334E-004  
  363.00  8.4562E-004  
  363.50  9.2701E-004  
  364.00  1.0046E-003  
  364.50  9.8267E-004  
  365.00  9.5628E-004  
  365.50  8.6061E-004  
  366.00  8.0861E-004  
  366.50  7.7318E-004  
  367.00  7.7361E-004  
  367.50  8.3920E-004  
  368.00  8.8569E-004  
  368.50  9.2337E-004  
  369.00  8.8179E-004  
  369.50  8.5355E-004  
  370.00  8.4175E-004  
  370.50  8.9302E-004  
  371.00  9.1786E-004  
  371.50  9.3281E-004  
  372.00  9.4614E-004  
  372.50  8.6801E-004  
  373.00  8.3905E-004  
  373.50  8.2627E-004  
  374.00  7.7811E-004  
  374.50  8.0441E-004  
  375.00  8.2776E-004  
  375.50  8.8583E-004  
  376.00  9.3428E-004  
  376.50  1.0326E-003  
  377.00  1.0691E-003  
  377.50  1.0689E-003  
  378.00  1.0706E-003  
  378.50  1.0271E-003  
  379.00  1.0434E-003  
  379.50  1.0870E-003  
  380.00  1.0850E-003  
  380.50  1.0737E-003  
  381.00  1.0551E-003  
  381.50  1.0081E-003  
  382.00  9.8937E-004  
  382.50  9.5303E-004  
  383.00  1.0445E-003  
  383.50  1.0433E-003  
  384.00  1.0863E-003  
  384.50  1.0641E-003  
  385.00  1.0222E-003  
  385.50  1.0975E-003  
  386.00  1.0891E-003  
  386.50  1.1048E-003  
  387.00  1.1065E-003  
  387.50  1.1022E-003  
  388.00  1.2420E-003  
  388.50  1.2832E-003  
  389.00  1.3216E-003  
  389.50  1.3377E-003  
  390.00  1.3029E-003  
  390.50  1.3032E-003  
  391.00  1.3177E-003  
  391.50  1.2712E-003  
  392.00  1.2476E-003  
  392.50  1.2559E-003  
  393.00  1.2946E-003  
  393.50  1.4465E-003  
  394.00  1.5385E-003  
  394.50  1.6029E-003  
  395.00  1.5918E-003  
  395.50  1.6058E-003  
  396.00  1.6419E-003  
  396.50  1.6982E-003  
  397.00  1.7390E-003  
  397.50  1.7809E-003  
  398.00  1.8392E-003  
  398.50  1.9004E-003  
  399.00  1.9280E-003  
  399.50  1.9474E-003  
  400.00  2.0196E-003  
  400.50  2.1270E-003  
  401.00  2.2100E-003  
  401.50  2.2816E-003  
  402.00  2.3522E-003  
  402.50  2.4587E-003  
  403.00  2.5533E-003  
  403.50  2.6629E-003  
  404.00  2.7497E-003  
  404.50  2.8354E-003  
  405.00  2.9810E-003  
  405.50  3.1480E-003  
  406.00  3.3071E-003  
  406.50  3.4461E-003  
  407.00  3.5110E-003  
  407.50  3.6009E-003  
  408.00  3.7887E-003  
  408.50  4.0777E-003  
  409.00  4.3756E-003  
  409.50  4.7048E-003  
  410.00  5.0070E-003  
  410.50  5.3277E-003  
  411.00  5.6959E-003  
  411.50  6.1206E-003  
  412.00  6.6647E-003  
  412.50  7.1968E-003  
  413.00  7.8122E-003  
  413.50  8.4353E-003  
  414.00  9.1215E-003  
  414.50  9.9276E-003  
  415.00  1.0803E-002  
  415.50  1.1764E-002  
  416.00  1.2854E-002  
  416.50  1.3972E-002  
  417.00  1.5184E-002  
  417.50  1.6549E-002  
  418.00  1.8132E-002  
  418.50  1.9855E-002  
  419.00  2.1888E-002  
  419.50  2.3957E-002  
  420.00  2.6197E-002  
  420.50  2.8548E-002  
  421.00  3.1060E-002  
  421.50  3.3901E-002  
  422.00  3.7033E-002  
  422.50  4.0226E-002  
  423.00  4.3670E-002  
  423.50  4.7328E-002  
  424.00  5.1362E-002  
  424.50  5.5873E-002  
  425.00  6.0192E-002  
  425.50  6.4605E-002  
  426.00  6.9198E-002  
  426.50  7.4009E-002  
  427.00  7.9213E-002  
  427.50  8.4588E-002  
  428.00  9.0095E-002  
  428.50  9.6030E-002  
  429.00  1.0233E-001  
  429.50  1.0873E-001  
  430.00  1.1516E-001  
  430.50  1.2143E-001  
  431.00  1.2790E-001  
  431.50  1.3449E-001  
  432.00  1.4102E-001  
  432.50  1.4748E-001  
  433.00  1.5358E-001  
  433.50  1.6010E-001  
  434.00  1.6667E-001  
  434.50  1.7302E-001  
  435.00  1.7873E-001  
  435.50  1.8391E-001  
  436.00  1.8923E-001  
  436.50  1.9449E-001  
  437.00  1.9931E-001  
  437.50  2.0456E-001  
  438.00  2.0951E-001  
  438.50  2.1518E-001  
  439.00  2.2058E-001  
  439.50  2.2559E-001  
  440.00  2.3048E-001  
  440.50  2.3522E-001  
  441.00  2.3985E-001  
  441.50  2.4395E-001  
  442.00  2.4896E-001  
  442.50  2.5366E-001  
  443.00  2.5808E-001  
  443.50  2.6160E-001  
  444.00  2.6415E-001  
  444.50  2.6660E-001  
  445.00  2.6853E-001  
  445.50  2.7029E-001  
  446.00  2.7026E-001  
  446.50  2.6944E-001  
  447.00  2.6820E-001  
  447.50  2.6671E-001  
  448.00  2.6432E-001  
  448.50  2.6056E-001  
  449.00  2.5544E-001  
  449.50  2.4992E-001  
  450.00  2.4251E-001  
  450.50  2.3434E-001  
  451.00  2.2493E-001  
  451.50  2.1527E-001  
  452.00  2.0595E-001  
  452.50  1.9660E-001  
  453.00  1.8748E-001  
  453.50  1.7775E-001  
  454.00  1.6777E-001  
  454.50  1.5757E-001  
  455.00  1.4794E-001  
  455.50  1.3950E-001  
  456.00  1.3193E-001  
  456.50  1.2511E-001  
  457.00  1.1891E-001  
  457.50  1.1269E-001  
  458.00  1.0707E-001  
  458.50  1.0196E-001  
  459.00  9.7429E-002  
  459.50  9.3275E-002  
  460.00  8.9463E-002  
  460.50  8.5749E-002  
  461.00  8.2464E-002  
  461.50  7.9573E-002  
  462.00  7.6767E-002  
  462.50  7.4249E-002  
  463.00  7.1962E-002  
  463.50  6.9619E-002  
  464.00  6.7596E-002  
  464.50  6.5293E-002  
  465.00  6.3051E-002  
  465.50  6.0802E-002  
  466.00  5.8582E-002  
  466.50  5.6482E-002  
  467.00  5.4472E-002  
  467.50  5.2621E-002  
  468.00  5.0928E-002  
  468.50  4.9188E-002  
  469.00  4.7494E-002  
  469.50  4.5843E-002  
  470.00  4.4384E-002  
  470.50  4.3110E-002  
  471.00  4.1767E-002  
  471.50  4.0429E-002  
  472.00  3.9096E-002  
  472.50  3.7927E-002  
  473.00  3.6908E-002  
  473.50  3.6028E-002  
  474.00  3.5241E-002  
  474.50  3.4667E-002  
  475.00  3.4131E-002  
  475.50  3.3634E-002  
  476.00  3.3181E-002  
  476.50  3.2734E-002  
  477.00  3.2396E-002  
  477.50  3.2082E-002  
  478.00  3.1896E-002  
  478.50  3.1798E-002  
  479.00  3.1737E-002  
  479.50  3.1692E-002  
  480.00  3.1605E-002  
  480.50  3.1622E-002  
  481.00  3.1702E-002  
  481.50  3.1823E-002  
  482.00  3.1939E-002  
  482.50  3.2085E-002  
  483.00  3.2264E-002  
  483.50  3.2493E-002  
  484.00  3.2746E-002  
  484.50  3.3084E-002  
  485.00  3.3495E-002  
  485.50  3.3973E-002  
  486.00  3.4517E-002  
  486.50  3.5212E-002  
  487.00  3.5905E-002  
  487.50  3.6665E-002  
  488.00  3.7377E-002  
  488.50  3.8215E-002  
  489.00  3.9281E-002  
  489.50  4.0397E-002  
  490.00  4.1542E-002  
  490.50  4.2661E-002  
  491.00  4.3861E-002  
  491.50  4.5158E-002  
  492.00  4.6647E-002  
  492.50  4.8158E-002  
  493.00  4.9709E-002  
  493.50  5.1322E-002  
  494.00  5.2950E-002  
  494.50  5.4701E-002  
  495.00  5.6494E-002  
  495.50  5.8373E-002  
  496.00  6.0370E-002  
  496.50  6.2352E-002  
  497.00  6.4379E-002  
  497.50  6.6458E-002  
  498.00  6.8622E-002  
  498.50  7.0916E-002  
  499.00  7.3128E-002  
  499.50  7.5337E-002  
  500.00  7.7478E-002  
  500.50  7.9651E-002  
  501.00  8.1958E-002  
  501.50  8.4416E-002  
  502.00  8.6930E-002  
  502.50  8.9461E-002  
  503.00  9.1997E-002  
  503.50  9.4353E-002  
  504.00  9.6692E-002  
  504.50  9.8995E-002  
  505.00  1.0123E-001  
  505.50  1.0337E-001  
  506.00  1.0534E-001  
  506.50  1.0746E-001  
  507.00  1.0970E-001  
  507.50  1.1193E-001  
  508.00  1.1416E-001  
  508.50  1.1614E-001  
  509.00  1.1796E-001  
  509.50  1.1945E-001  
  510.00  1.2088E-001  
  510.50  1.2223E-001  
  511.00  1.2380E-001  
  511.50  1.2523E-001  
  512.00  1.2667E-001  
  512.50  1.2790E-001  
  513.00  1.2894E-001  
  513.50  1.2983E-001  
  514.00  1.3066E-001  
  514.50  1.3161E-001  
  515.00  1.3245E-001  
  515.50  1.3322E-001  
  516.00  1.3391E-001  
  516.50  1.3461E-001  
  517.00  1.3536E-001  
  517.50  1.3599E-001  
  518.00  1.3664E-001  
  518.50  1.3738E-001  
  519.00  1.3807E-001  
  519.50  1.3886E-001  
  520.00  1.3946E-001  
  520.50  1.4007E-001  
  521.00  1.4065E-001  
  521.50  1.4116E-001  
  522.00  1.4165E-001  
  522.50  1.4204E-001  
  523.00  1.4257E-001  
  523.50  1.4318E-001  
  524.00  1.4378E-001  
  524.50  1.4431E-001  
  525.00  1.4487E-001  
  525.50  1.4546E-001  
  526.00  1.4600E-001  
  526.50  1.4644E-001  
  527.00  1.4681E-001  
  527.50  1.4716E-001  
  528.00  1.4745E-001  
  528.50  1.4771E-001  
  529.00  1.4790E-001  
  529.50  1.4809E-001  
  530.00  1.4825E-001  
  530.50  1.4844E-001  
  531.00  1.4864E-001  
  531.50  1.4896E-001  
  532.00  1.4947E-001  
  532.50  1.4995E-001  
  533.00  1.5039E-001  
  533.50  1.5065E-001  
  534.00  1.5103E-001  
  534.50  1.5138E-001  
  535.00  1.5174E-001  
  535.50  1.5203E-001  
  536.00  1.5240E-001  
  536.50  1.5277E-001  
  537.00  1.5310E-001  
  537.50  1.5343E-001  
  538.00  1.5385E-001  
  538.50  1.5425E-001  
  539.00  1.5462E-001  
  539.50  1.5491E-001  
  540.00  1.5532E-001  
  540.50  1.5571E-001  
  541.00  1.5617E-001  
  541.50  1.5660E-001  
  542.00  1.5698E-001  
  542.50  1.5741E-001  
  543.00  1.5769E-001  
  543.50  1.5801E-001  
  544.00  1.5825E-001  
  544.50  1.5857E-001  
  545.00  1.5894E-001  
  545.50  1.5938E-001  
  546.00  1.5979E-001  
  546.50  1.6019E-001  
  547.00  1.6067E-001  
  547.50  1.6122E-001  
  548.00  1.6163E-001  
  548.50  1.6201E-001  
  549.00  1.6230E-001  
  549.50  1.6273E-001  
  550.00  1.6308E-001  
  550.50  1.6351E-001  
  551.00  1.6400E-001  
  551.50  1.6453E-001  
  552.00  1.6506E-001  
  552.50  1.6545E-001  
  553.00  1.6592E-001  
  553.50  1.6639E-001  
  554.00  1.6690E-001  
  554.50  1.6738E-001  
  555.00  1.6784E-001  
  555.50  1.6836E-001  
  556.00  1.6885E-001  
  556.50  1.6949E-001  
  557.00  1.6997E-001  
  557.50  1.7050E-001  
  558.00  1.7100E-001  
  558.50  1.7155E-001  
  559.00  1.7201E-001  
  559.50  1.7257E-001  
  560.00  1.7312E-001  
  560.50  1.7374E-001  
  561.00  1.7442E-001  
  561.50  1.7503E-001  
  562.00  1.7566E-001  
  562.50  1.7607E-001  
  563.00  1.7653E-001  
  563.50  1.7704E-001  
  564.00  1.7775E-001  
  564.50  1.7838E-001  
  565.00  1.7897E-001  
  565.50  1.7947E-001  
  566.00  1.7998E-001  
  566.50  1.8048E-001  
  567.00  1.8111E-001  
  567.50  1.8161E-001  
  568.00  1.8213E-001  
  568.50  1.8263E-001  
  569.00  1.8320E-001  
  569.50  1.8390E-001  
  570.00  1.8446E-001  
  570.50  1.8506E-001  
  571.00  1.8564E-001  
  571.50  1.8630E-001  
  572.00  1.8698E-001  
  572.50  1.8753E-001  
  573.00  1.8811E-001  
  573.50  1.8862E-001  
  574.00  1.8932E-001  
  574.50  1.8995E-001  
  575.00  1.9060E-001  
  575.50  1.9117E-001  
  576.00  1.9171E-001  
  576.50  1.9227E-001  
  577.00  1.9286E-001  
  577.50  1.9355E-001  
  578.00  1.9433E-001  
  578.50  1.9492E-001  
  579.00  1.9546E-001  
  579.50  1.9591E-001  
  580.00  1.9645E-001  
  580.50  1.9703E-001  
  581.00  1.9765E-001  
  581.50  1.9827E-001  
  582.00  1.9882E-001  
  582.50  1.9927E-001  
  583.00  1.9971E-001  
  583.50  2.0024E-001  
  584.00  2.0087E-001  
  584.50  2.0156E-001  
  585.00  2.0226E-001  
  585.50  2.0288E-001  
  586.00  2.0343E-001  
  586.50  2.0396E-001  
  587.00  2.0460E-001  
  587.50  2.0517E-001  
  588.00  2.0594E-001  
  588.50  2.0665E-001  
  589.00  2.0749E-001  
  589.50  2.0812E-001  
  590.00  2.0874E-001  
  590.50  2.0925E-001  
  591.00  2.0996E-001  
  591.50  2.1065E-001  
  592.00  2.1144E-001  
  592.50  2.1218E-001  
  593.00  2.1289E-001  
  593.50  2.1350E-001  
  594.00  2.1401E-001  
  594.50  2.1467E-001  
  595.00  2.1526E-001  
  595.50  2.1597E-001  
  596.00  2.1661E-001  
  596.50  2.1730E-001  
  597.00  2.1797E-001  
  597.50  2.1866E-001  
  598.00  2.1933E-001  
  598.50  2.1992E-001  
  599.00  2.2050E-001  
  599.50  2.2114E-001  
  600.00  2.2182E-001  
  600.50  2.2251E-001  
  601.00  2.2306E-001  
  601.50  2.2370E-001  
  602.00  2.2422E-001  
  602.50  2.2478E-001  
  603.00  2.2522E-001  
  603.50  2.2558E-001  
  604.00  2.2596E-001  
  604.50  2.2623E-001  
  605.00  2.2643E-001  
  605.50  2.2653E-001  
  606.00  2.2670E-001  
  606.50  2.2702E-001  
  607.00  2.2732E-001  
  607.50  2.2763E-001  
  608.00  2.2786E-001  
  608.50  2.2806E-001  
  609.00  2.2814E-001  
  609.50  2.2820E-001  
  610.00  2.2836E-001  
  610.50  2.2850E-001  
  611.00  2.2873E-001  
  611.50  2.2903E-001  
  612.00  2.2930E-001  
  612.50  2.2940E-001  
  613.00  2.2930E-001  
  613.50  2.2926E-001  
  614.00  2.2923E-001  
  614.50  2.2929E-001  
  615.00  2.2923E-001  
  615.50  2.2932E-001  
  616.00  2.2918E-001  
  616.50  2.2908E-001  
  617.00  2.2882E-001  
  617.50  2.2880E-001  
  618.00  2.2881E-001  
  618.50  2.2876E-001  
  619.00  2.2856E-001  
  619.50  2.2820E-001  
  620.00  2.2796E-001  
  620.50  2.2779E-001  
  621.00  2.2773E-001  
  621.50  2.2755E-001  
  622.00  2.2727E-001  
  622.50  2.2692E-001  
  623.00  2.2650E-001  
  623.50  2.2619E-001  
  624.00  2.2586E-001  
  624.50  2.2562E-001  
  625.00  2.2525E-001  
  625.50  2.2470E-001  
  626.00  2.2398E-001  
  626.50  2.2331E-001  
  627.00  2.2273E-001  
  627.50  2.2232E-001  
  628.00  2.2185E-001  
  628.50  2.2124E-001  
  629.00  2.2053E-001  
  629.50  2.1981E-001  
  630.00  2.1936E-001  
  630.50  2.1862E-001  
  631.00  2.1775E-001  
  631.50  2.1685E-001  
  632.00  2.1592E-001  
  632.50  2.1477E-001  
  633.00  2.1357E-001  
  633.50  2.1252E-001  
  634.00  2.1177E-001  
  634.50  2.1095E-001  
  635.00  2.0993E-001  
  635.50  2.0870E-001  
  636.00  2.0725E-001  
  636.50  2.0605E-001  
  637.00  2.0479E-001  
  637.50  2.0340E-001  
  638.00  2.0180E-001  
  638.50  2.0041E-001  
  639.00  1.9912E-001  
  639.50  1.9785E-001  
  640.00  1.9644E-001  
  640.50  1.9497E-001  
  641.00  1.9374E-001  
  641.50  1.9238E-001  
  642.00  1.9094E-001  
  642.50  1.8941E-001  
  643.00  1.8770E-001  
  643.50  1.8638E-001  
  644.00  1.8511E-001  
  644.50  1.8387E-001  
  645.00  1.8223E-001  
  645.50  1.8046E-001  
  646.00  1.7872E-001  
  646.50  1.7725E-001  
  647.00  1.7572E-001  
  647.50  1.7415E-001  
  648.00  1.7254E-001  
  648.50  1.7097E-001  
  649.00  1.6956E-001  
  649.50  1.6815E-001  
  650.00  1.6673E-001  
  650.50  1.6517E-001  
  651.00  1.6357E-001  
  651.50  1.6177E-001  
  652.00  1.6013E-001  
  652.50  1.5822E-001  
  653.00  1.5655E-001  
  653.50  1.5486E-001  
  654.00  1.5356E-001  
  654.50  1.5216E-001  
  655.00  1.5067E-001  
  655.50  1.4908E-001  
  656.00  1.4754E-001  
  656.50  1.4608E-001  
  657.00  1.4439E-001  
  657.50  1.4282E-001  
  658.00  1.4123E-001  
  658.50  1.3991E-001  
  659.00  1.3843E-001  
  659.50  1.3684E-001  
  660.00  1.3519E-001  
  660.50  1.3356E-001  
  661.00  1.3211E-001  
  661.50  1.3070E-001  
  662.00  1.2917E-001  
  662.50  1.2770E-001  
  663.00  1.2617E-001  
  663.50  1.2474E-001  
  664.00  1.2319E-001  
  664.50  1.2163E-001  
  665.00  1.2005E-001  
  665.50  1.1834E-001  
  666.00  1.1689E-001  
  666.50  1.1535E-001  
  667.00  1.1405E-001  
  667.50  1.1292E-001  
  668.00  1.1177E-001  
  668.50  1.1051E-001  
  669.00  1.0886E-001  
  669.50  1.0742E-001  
  670.00  1.0603E-001  
  670.50  1.0479E-001  
  671.00  1.0358E-001  
  671.50  1.0248E-001  
  672.00  1.0115E-001  
  672.50  9.9822E-002  
  673.00  9.8359E-002  
  673.50  9.6965E-002  
  674.00  9.5576E-002  
  674.50  9.4315E-002  
  675.00  9.3228E-002  
  675.50  9.2187E-002  
  676.00  9.1053E-002  
  676.50  8.9652E-002  
  677.00  8.8273E-002  
  677.50  8.6874E-002  
  678.00  8.5680E-002  
  678.50  8.4446E-002  
  679.00  8.3310E-002  
  679.50  8.2093E-002  
  680.00  8.1172E-002  
  680.50  8.0148E-002  
  681.00  7.9083E-002  
  681.50  7.7668E-002  
  682.00  7.6430E-002  
  682.50  7.5517E-002  
  683.00  7.4668E-002  
  683.50  7.3594E-002  
  684.00  7.2536E-002  
  684.50  7.1520E-002  
  685.00  7.0582E-002  
  685.50  6.9479E-002  
  686.00  6.8506E-002  
  686.50  6.7735E-002  
  687.00  6.7045E-002  
  687.50  6.6321E-002  
  688.00  6.5490E-002  
  688.50  6.4504E-002  
  689.00  6.3469E-002  
  689.50  6.2449E-002  
  690.00  6.1571E-002  
  690.50  6.0740E-002  
  691.00  5.9911E-002  
  691.50  5.9016E-002  
  692.00  5.8198E-002  
  692.50  5.7282E-002  
  693.00  5.6426E-002  
  693.50  5.5627E-002  
  694.00  5.4910E-002  
  694.50  5.4115E-002  
  695.00  5.3413E-002  
  695.50  5.2754E-002  
  696.00  5.2061E-002  
  696.50  5.1246E-002  
  697.00  5.0367E-002  
  697.50  4.9672E-002  
  698.00  4.9133E-002  
  698.50  4.8651E-002  
  699.00  4.8112E-002  
  699.50  4.7235E-002  
  700.00  4.6319E-002  
  700.50  4.5553E-002  
  701.00  4.5074E-002  
  701.50  4.4628E-002  
  702.00  4.3955E-002  
  702.50  4.3296E-002  
  703.00  4.2805E-002  
  703.50  4.2254E-002  
  704.00  4.1624E-002  
  704.50  4.0915E-002  
  705.00  4.0295E-002  
  705.50  3.9838E-002  
  706.00  3.9314E-002  
  706.50  3.8791E-002  
  707.00  3.8054E-002  
  707.50  3.7547E-002  
  708.00  3.7125E-002  
  708.50  3.6606E-002  
  709.00  3.5956E-002  
  709.50  3.5270E-002  
  710.00  3.4726E-002  
  710.50  3.4356E-002  
  711.00  3.4017E-002  
  711.50  3.3631E-002  
  712.00  3.3040E-002  
  712.50  3.2534E-002  
  713.00  3.1977E-002  
  713.50  3.1680E-002  
  714.00  3.1288E-002  
  714.50  3.0889E-002  
  715.00  3.0169E-002  
  715.50  2.9717E-002  
  716.00  2.9325E-002  
  716.50  2.9032E-002  
  717.00  2.8639E-002  
  717.50  2.8257E-002  
  718.00  2.7756E-002  
  718.50  2.7338E-002  
  719.00  2.7028E-002  
  719.50  2.6807E-002  
  720.00  2.6394E-002  
  720.50  2.5934E-002  
  721.00  2.5539E-002  
  721.50  2.5149E-002  
  722.00  2.4744E-002  
  722.50  2.4332E-002  
  723.00  2.4014E-002  
  723.50  2.3768E-002  
  724.00  2.3580E-002  
  724.50  2.3348E-002  
  725.00  2.2896E-002  
  725.50  2.2477E-002  
  726.00  2.2167E-002  
  726.50  2.1838E-002  
  727.00  2.1385E-002  
  727.50  2.1078E-002  
  728.00  2.0962E-002  
  728.50  2.0867E-002  
  729.00  2.0528E-002  
  729.50  2.0054E-002  
  730.00  1.9672E-002  
  730.50  1.9482E-002  
  731.00  1.9364E-002  
  731.50  1.9273E-002  
  732.00  1.9072E-002  
  732.50  1.8813E-002  
  733.00  1.8496E-002  
  733.50  1.8221E-002  
  734.00  1.7970E-002  
  734.50  1.7739E-002  
  735.00  1.7547E-002  
  735.50  1.7280E-002  
  736.00  1.6941E-002  
  736.50  1.6681E-002  
  737.00  1.6431E-002  
  737.50  1.6109E-002  
  738.00  1.5898E-002  
  738.50  1.5735E-002  
  739.00  1.5522E-002  
  739.50  1.5365E-002  
  740.00  1.5354E-002  
  740.50  1.5205E-002  
  741.00  1.4886E-002  
  741.50  1.4646E-002  
  742.00  1.4556E-002  
  742.50  1.4327E-002  
  743.00  1.4204E-002  
  743.50  1.4036E-002  
  744.00  1.3889E-002  
  744.50  1.3580E-002  
  745.00  1.3444E-002  
  745.50  1.3361E-002  
  746.00  1.3159E-002  
  746.50  1.2901E-002  
  747.00  1.2783E-002  
  747.50  1.2821E-002  
  748.00  1.2697E-002  
  748.50  1.2559E-002  
  749.00  1.2233E-002  
  749.50  1.2110E-002  
  750.00  1.2031E-002  
  750.50  1.1993E-002  
  751.00  1.1931E-002  
  751.50  1.1860E-002  
  752.00  1.1550E-002  
  752.50  1.1162E-002  
  753.00  1.1039E-002  
  753.50  1.1123E-002  
  754.00  1.0923E-002  
  754.50  1.0586E-002  
  755.00  1.0340E-002  
  755.50  1.0271E-002  
  756.00  1.0352E-002  
  756.50  1.0504E-002  
  757.00  1.0436E-002  
  757.50  1.0295E-002  
  758.00  1.0078E-002  
  758.50  9.9601E-003  
  759.00  9.8344E-003  
  759.50  9.6545E-003  
  760.00  9.4993E-003  
  760.50  9.4005E-003  
  761.00  9.3095E-003  
  761.50  9.1406E-003  
  762.00  9.0029E-003  
  762.50  9.0175E-003  
  763.00  9.1495E-003  
  763.50  9.0992E-003  
  764.00  8.9298E-003  
  764.50  8.6169E-003  
  765.00  8.4087E-003  
  765.50  8.2884E-003  
  766.00  8.3518E-003  
  766.50  8.2259E-003  
  767.00  8.0791E-003  
  767.50  8.0253E-003  
  768.00  8.0993E-003  
  768.50  7.9321E-003  
  769.00  7.6695E-003  
  769.50  7.4488E-003  
  770.00  7.3312E-003  
  770.50  7.2568E-003  
  771.00  7.2385E-003  
  771.50  7.3016E-003  
  772.00  7.3145E-003  
  772.50  7.2075E-003  
  773.00  7.0905E-003  
  773.50  7.0363E-003  
  774.00  6.8395E-003  
  774.50  6.5706E-003  
  775.00  6.4787E-003  
  775.50  6.5409E-003  
  776.00  6.5181E-003  
  776.50  6.3818E-003  
  777.00  6.2156E-003  
  777.50  6.1887E-003  
  778.00  6.2771E-003  
  778.50  6.1890E-003  
  779.00  6.0579E-003  
  779.50  5.8348E-003  
  780.00  5.7240E-003  
  780.50  5.7649E-003  
  781.00  6.0207E-003  
  781.50  6.0753E-003  
  782.00  5.8087E-003  
  782.50  5.5507E-003  
  783.00  5.4484E-003  
  783.50  5.3307E-003  
  784.00  5.2038E-003  
  784.50  5.1431E-003  
  785.00  5.3285E-003  
  785.50  5.4072E-003  
  786.00  5.0638E-003  
  786.50  4.7014E-003  
  787.00  4.6458E-003  
  787.50  4.5660E-003  
  788.00  4.5120E-003  
  788.50  4.5715E-003  
  789.00  4.6616E-003  
  789.50  4.6567E-003  
  790.00  4.6312E-003  
  790.50  4.5716E-003  
  791.00  4.5929E-003  
  791.50  4.6409E-003  
  792.00  4.4941E-003  
  792.50  4.2166E-003  
  793.00  4.0748E-003  
  793.50  4.0440E-003  
  794.00  4.0498E-003  
  794.50  3.9648E-003  
  795.00  3.8984E-003  
  795.50  3.6938E-003  
  796.00  3.7955E-003  
  796.50  3.8660E-003  
  797.00  4.0040E-003  
  797.50  3.9483E-003  
  798.00  3.6533E-003  
  798.50  3.6127E-003  
  799.00  3.6089E-003  
  799.50  3.6742E-003  
  800.00  3.6215E-003  
  800.50  3.4646E-003  
  801.00  3.2849E-003  
  801.50  3.1886E-003  
  802.00  3.1625E-003  
  802.50  3.1183E-003  
  803.00  2.9697E-003  
  803.50  3.0056E-003  
  804.00  3.1394E-003  
  804.50  3.1512E-003  
  805.00  3.0184E-003  
  805.50  2.8105E-003  
  806.00  2.8231E-003  
  806.50  3.0134E-003  
  807.00  3.2016E-003  
  807.50  3.2680E-003  
  808.00  3.1980E-003  
  808.50  2.9601E-003  
  809.00  2.5781E-003  
  809.50  2.1884E-003  
  810.00  2.4684E-003  
  810.50  2.9126E-003  
  811.00  2.9139E-003  
  811.50  2.7255E-003  
  812.00  2.6782E-003  
  812.50  2.7159E-003  
  813.00  2.6026E-003  
  813.50  2.4504E-003  
  814.00  2.2543E-003  
  814.50  2.1982E-003  
  815.00  2.4144E-003  
  815.50  2.6346E-003  
  816.00  2.6346E-003  
  816.50  2.3403E-003  
  817.00  2.3042E-003  
  817.50  2.5073E-003  
  818.00  2.2260E-003  
  818.50  1.8626E-003  
  819.00  1.7128E-003  
  819.50  1.7810E-003  
  820.00  1.9228E-003  
  820.50  1.8531E-003  
  821.00  1.8129E-003  
  821.50  1.7917E-003  
  822.00  1.7552E-003  
  822.50  1.8767E-003  
  823.00  1.9755E-003  
  823.50  1.7892E-003  
  824.00  1.7034E-003  
  824.50  1.8315E-003  
  825.00  1.5602E-003  
  825.50  1.4451E-003  
  826.00  1.3540E-003  
  826.50  1.5847E-003  
  827.00  1.7637E-003  
  827.50  1.8852E-003  
  828.00  1.8237E-003  
  828.50  1.6702E-003  
  829.00  1.7814E-003  
  829.50  1.7936E-003  
  830.00  1.6607E-003  
  830.50  1.6796E-003  
  831.00  1.7334E-003  
  831.50  1.6244E-003  
  832.00  1.6739E-003  
  832.50  1.8041E-003  
  833.00  1.5125E-003  
  833.50  1.3976E-003  
  834.00  1.5745E-003  
  834.50  1.5343E-003  
  835.00  1.3234E-003  
  835.50  1.4451E-003  
  836.00  1.7479E-003  
  836.50  1.7605E-003  
  837.00  1.6915E-003  
  837.50  1.3649E-003  
  838.00  1.1949E-003  
  838.50  9.6753E-004  
  839.00  8.3999E-004  
  839.50  9.1554E-004  
  840.00  1.4596E-003  
  840.50  1.5578E-003  
  841.00  1.1563E-003  
  841.50  1.2072E-003  
  842.00  1.7354E-003  
  842.50  1.7373E-003  
  843.00  1.4136E-003  
  843.50  1.6164E-003  
  844.00  1.9049E-003  
  844.50  1.3144E-003  
  845.00  1.2646E-003  
  845.50  1.6183E-003  
  846.00  1.9714E-003  
  846.50  1.8800E-003  
  847.00  1.6726E-003  
  847.50  1.6500E-003  
  848.00  1.5323E-003  
  848.50  1.4314E-003  
  849.00  1.2187E-003  
  849.50  1.1059E-003  
  850.00  1.2321E-003  
  850.50  1.6576E-003  
  851.00  1.5687E-003  
  851.50  1.4346E-003  
  852.00  1.6749E-003  
  852.50  1.6178E-003  
  853.00  1.3220E-003  
  853.50  8.9375E-004  
  854.00  9.0445E-004  
  854.50  1.4324E-003  
  855.00  2.2950E-003  
  855.50  2.8455E-003  
  856.00  2.6608E-003  
  856.50  2.0133E-003  
  857.00  2.0378E-003  
  857.50  2.3411E-003  
  858.00  2.1715E-003  
  858.50  1.6256E-003  
  859.00  1.8921E-003  
  859.50  2.3250E-003  
  860.00  2.4579E-003  
  860.50  2.1500E-003  
  861.00  1.8065E-003  
  861.50  1.7775E-003  
  862.00  1.7762E-003  
  862.50  1.8475E-003  
  863.00  2.1874E-003  
  863.50  2.3065E-003  
  864.00  2.0641E-003  
  864.50  1.6951E-003  
  865.00  1.7485E-003  
  865.50  1.9010E-003  
  866.00  1.9497E-003  
  866.50  2.4177E-003  
  867.00  2.9398E-003  
  867.50  3.3825E-003  
  868.00  3.5979E-003  
  868.50  3.6630E-003  
  869.00  2.8400E-003  
  869.50  2.9079E-003  
  870.00  3.2905E-003  
  870.50  3.2771E-003  
  871.00  2.9835E-003  
  871.50  3.4171E-003  
  872.00  3.7083E-003  
  872.50  3.4240E-003  
  873.00  3.0144E-003  
  873.50  3.2002E-003  
  874.00  3.8605E-003  
  874.50  3.7739E-003  
  875.00  3.6650E-003  
  875.50  4.2635E-003  
  876.00  4.1809E-003  
  876.50  3.7725E-003  
  877.00  4.0287E-003  
  877.50  4.9461E-003  
  878.00  5.3429E-003  
  878.50  4.9506E-003  
  879.00  4.0910E-003  
  879.50  3.1559E-003  
  880.00  3.3024E-003  
  880.50  3.9002E-003  
  881.00  4.0884E-003  
  881.50  4.4833E-003  
  882.00  4.8237E-003  
  882.50  4.8440E-003  
  883.00  5.4305E-003  
  883.50  4.8967E-003  
  884.00  4.0669E-003  
  884.50  4.1300E-003  
  885.00  4.2573E-003  
  885.50  4.0643E-003  
  886.00  3.4894E-003  
  886.50  3.2644E-003  
  887.00  4.2971E-003  
  887.50  4.8107E-003  
  888.00  4.6088E-003  
  888.50  4.1526E-003  
  889.00  4.3518E-003  
  889.50  5.1001E-003  
  890.00  5.7316E-003  
  890.50  5.0133E-003  
  891.00  4.5782E-003  
  891.50  4.8129E-003  
  892.00  5.1033E-003  
  892.50  5.1738E-003  
  893.00  5.0042E-003  
  893.50  5.2939E-003  
  894.00  5.3630E-003  
  894.50  5.2892E-003  
  895.00  4.5011E-003  
  895.50  3.8864E-003  
  896.00  3.9226E-003  
  896.50  4.2449E-003  
  897.00  4.4192E-003  
  897.50  4.6979E-003  
  898.00  5.0009E-003  
  898.50  4.1153E-003  
  899.00  4.3122E-003  
  899.50  9.0602E-005  
