
# From lspdd.org
# 
# Name: DEL Dals 4001HP Domestique
# Indice spectral Valeur 
# MSI 0.29 
# SLI 0.50 
# IPI 0.68 
# Pourcentage de bleu 18.3 
# Caractéristique Valeur 
# CCT calculée (K) 2730 
# CCT du fabricant (K) 3000 
# Tension (V) 120 
# Puissance (W) 3.5 
# Efficacité lumineuse (Lum/W) 87.0 
#
# Image: '/app/system/img_1s/2719/medium_image1.JPG?1464613514'
# 

  273.00  0.0000E+000  
  273.50  0.0000E+000  
  274.00  0.0000E+000  
  274.50  0.0000E+000  
  275.00  0.0000E+000  
  275.50  0.0000E+000  
  276.00  0.0000E+000  
  276.50  0.0000E+000  
  277.00  0.0000E+000  
  277.50  0.0000E+000  
  278.00  0.0000E+000  
  278.50  0.0000E+000  
  279.00  0.0000E+000  
  279.50  0.0000E+000  
  280.00  0.0000E+000  
  280.50  0.0000E+000  
  281.00  0.0000E+000  
  281.50  0.0000E+000  
  282.00  0.0000E+000  
  282.50  0.0000E+000  
  283.00  0.0000E+000  
  283.50  0.0000E+000  
  284.00  0.0000E+000  
  284.50  0.0000E+000  
  285.00  0.0000E+000  
  285.50  0.0000E+000  
  286.00  0.0000E+000  
  286.50  0.0000E+000  
  287.00  0.0000E+000  
  287.50  0.0000E+000  
  288.00  0.0000E+000  
  288.50  0.0000E+000  
  289.00  0.0000E+000  
  289.50  0.0000E+000  
  290.00  0.0000E+000  
  290.50  0.0000E+000  
  291.00  0.0000E+000  
  291.50  0.0000E+000  
  292.00  0.0000E+000  
  292.50  0.0000E+000  
  293.00  0.0000E+000  
  293.50  0.0000E+000  
  294.00  0.0000E+000  
  294.50  0.0000E+000  
  295.00  0.0000E+000  
  295.50  0.0000E+000  
  296.00  0.0000E+000  
  296.50  0.0000E+000  
  297.00  0.0000E+000  
  297.50  0.0000E+000  
  298.00  0.0000E+000  
  298.50  0.0000E+000  
  299.00  0.0000E+000  
  299.50  0.0000E+000  
  300.00  0.0000E+000  
  300.50  0.0000E+000  
  301.00  0.0000E+000  
  301.50  0.0000E+000  
  302.00  0.0000E+000  
  302.50  0.0000E+000  
  303.00  0.0000E+000  
  303.50  0.0000E+000  
  304.00  0.0000E+000  
  304.50  0.0000E+000  
  305.00  0.0000E+000  
  305.50  0.0000E+000  
  306.00  0.0000E+000  
  306.50  0.0000E+000  
  307.00  2.6729E-005  
  307.50  5.4025E-005  
  308.00  8.1235E-005  
  308.50  3.5802E-005  
  309.00  1.6863E-006  
  309.50  0.0000E+000  
  310.00  0.0000E+000  
  310.50  0.0000E+000  
  311.00  0.0000E+000  
  311.50  0.0000E+000  
  312.00  0.0000E+000  
  312.50  5.0969E-006  
  313.00  5.1979E-005  
  313.50  8.2113E-006  
  314.00  0.0000E+000  
  314.50  3.6068E-005  
  315.00  2.5173E-005  
  315.50  3.6014E-005  
  316.00  0.0000E+000  
  316.50  0.0000E+000  
  317.00  0.0000E+000  
  317.50  8.3522E-006  
  318.00  1.0626E-004  
  318.50  2.5394E-004  
  319.00  3.7056E-004  
  319.50  4.0104E-004  
  320.00  3.6054E-004  
  320.50  2.7947E-004  
  321.00  2.0400E-004  
  321.50  1.6888E-004  
  322.00  1.6236E-004  
  322.50  1.0719E-004  
  323.00  3.0376E-005  
  323.50  0.0000E+000  
  324.00  0.0000E+000  
  324.50  0.0000E+000  
  325.00  0.0000E+000  
  325.50  0.0000E+000  
  326.00  3.1761E-005  
  326.50  8.0020E-005  
  327.00  1.3880E-004  
  327.50  2.0109E-004  
  328.00  2.1104E-004  
  328.50  1.8735E-004  
  329.00  1.2093E-004  
  329.50  6.1112E-005  
  330.00  2.2415E-005  
  330.50  4.1901E-005  
  331.00  1.3835E-005  
  331.50  2.5337E-005  
  332.00  2.1707E-005  
  332.50  0.0000E+000  
  333.00  0.0000E+000  
  333.50  2.4621E-006  
  334.00  6.1648E-005  
  334.50  1.8864E-004  
  335.00  2.2784E-004  
  335.50  2.2631E-004  
  336.00  1.8510E-004  
  336.50  1.0412E-004  
  337.00  5.9975E-005  
  337.50  5.8218E-005  
  338.00  9.1541E-005  
  338.50  1.1060E-004  
  339.00  7.0352E-005  
  339.50  2.8346E-005  
  340.00  5.6127E-006  
  340.50  0.0000E+000  
  341.00  2.4899E-006  
  341.50  3.2285E-005  
  342.00  7.3949E-005  
  342.50  9.0074E-005  
  343.00  4.8960E-005  
  343.50  1.1229E-006  
  344.00  0.0000E+000  
  344.50  4.3664E-005  
  345.00  1.3371E-004  
  345.50  2.1914E-004  
  346.00  2.4090E-004  
  346.50  2.7254E-004  
  347.00  2.4459E-004  
  347.50  1.3708E-004  
  348.00  2.4223E-005  
  348.50  2.9489E-005  
  349.00  8.0365E-005  
  349.50  1.6971E-004  
  350.00  2.4538E-004  
  350.50  1.9382E-004  
  351.00  1.2936E-004  
  351.50  1.5420E-004  
  352.00  1.6487E-004  
  352.50  1.2049E-004  
  353.00  3.9951E-005  
  353.50  0.0000E+000  
  354.00  0.0000E+000  
  354.50  0.0000E+000  
  355.00  0.0000E+000  
  355.50  4.7399E-005  
  356.00  1.0511E-004  
  356.50  8.9032E-005  
  357.00  4.8020E-005  
  357.50  0.0000E+000  
  358.00  0.0000E+000  
  358.50  0.0000E+000  
  359.00  0.0000E+000  
  359.50  0.0000E+000  
  360.00  1.8451E-005  
  360.50  4.5710E-005  
  361.00  4.6408E-005  
  361.50  6.5768E-005  
  362.00  1.0988E-004  
  362.50  1.8170E-004  
  363.00  2.5497E-004  
  363.50  2.6113E-004  
  364.00  2.5265E-004  
  364.50  1.7718E-004  
  365.00  1.2474E-004  
  365.50  5.3905E-005  
  366.00  0.0000E+000  
  366.50  0.0000E+000  
  367.00  0.0000E+000  
  367.50  1.1163E-005  
  368.00  7.3328E-005  
  368.50  1.0121E-004  
  369.00  1.2469E-004  
  369.50  1.2990E-004  
  370.00  6.8684E-005  
  370.50  7.3959E-005  
  371.00  7.4386E-006  
  371.50  4.8992E-006  
  372.00  2.3106E-005  
  372.50  2.2310E-005  
  373.00  8.2919E-005  
  373.50  5.5187E-005  
  374.00  8.7164E-006  
  374.50  8.1339E-006  
  375.00  3.5288E-007  
  375.50  0.0000E+000  
  376.00  0.0000E+000  
  376.50  3.1739E-005  
  377.00  9.3749E-005  
  377.50  1.4500E-004  
  378.00  2.0922E-004  
  378.50  2.0416E-004  
  379.00  2.0368E-004  
  379.50  2.4174E-004  
  380.00  1.9383E-004  
  380.50  1.7852E-004  
  381.00  1.3791E-004  
  381.50  7.7396E-005  
  382.00  8.6887E-005  
  382.50  1.0691E-004  
  383.00  1.6617E-004  
  383.50  1.5142E-004  
  384.00  6.7633E-005  
  384.50  8.7927E-006  
  385.00  0.0000E+000  
  385.50  6.0982E-006  
  386.00  4.9933E-005  
  386.50  8.1691E-005  
  387.00  5.5721E-005  
  387.50  3.7800E-005  
  388.00  7.5683E-005  
  388.50  8.0847E-005  
  389.00  9.9955E-005  
  389.50  1.2704E-004  
  390.00  1.4643E-004  
  390.50  2.0443E-004  
  391.00  2.4472E-004  
  391.50  1.9962E-004  
  392.00  1.5460E-004  
  392.50  1.6886E-004  
  393.00  1.6232E-004  
  393.50  2.3629E-004  
  394.00  2.5481E-004  
  394.50  2.0741E-004  
  395.00  2.1001E-004  
  395.50  1.9587E-004  
  396.00  2.1386E-004  
  396.50  2.4089E-004  
  397.00  2.5733E-004  
  397.50  2.5529E-004  
  398.00  2.6540E-004  
  398.50  2.5548E-004  
  399.00  2.1607E-004  
  399.50  1.7565E-004  
  400.00  1.8153E-004  
  400.50  2.2236E-004  
  401.00  2.5812E-004  
  401.50  2.9184E-004  
  402.00  3.0490E-004  
  402.50  3.3247E-004  
  403.00  3.2854E-004  
  403.50  3.2946E-004  
  404.00  3.1786E-004  
  404.50  2.6385E-004  
  405.00  2.4133E-004  
  405.50  2.2817E-004  
  406.00  2.1427E-004  
  406.50  2.3431E-004  
  407.00  2.1082E-004  
  407.50  1.5094E-004  
  408.00  1.9218E-004  
  408.50  2.4433E-004  
  409.00  3.7013E-004  
  409.50  4.2803E-004  
  410.00  4.5074E-004  
  410.50  3.9157E-004  
  411.00  3.2390E-004  
  411.50  3.1709E-004  
  412.00  4.4299E-004  
  412.50  5.4985E-004  
  413.00  6.1967E-004  
  413.50  6.2977E-004  
  414.00  5.6353E-004  
  414.50  5.4596E-004  
  415.00  5.1575E-004  
  415.50  4.7453E-004  
  416.00  5.0169E-004  
  416.50  5.7383E-004  
  417.00  7.1443E-004  
  417.50  8.1792E-004  
  418.00  8.8986E-004  
  418.50  8.8003E-004  
  419.00  9.3260E-004  
  419.50  1.0020E-003  
  420.00  1.0762E-003  
  420.50  1.1384E-003  
  421.00  1.1411E-003  
  421.50  1.2230E-003  
  422.00  1.3416E-003  
  422.50  1.4475E-003  
  423.00  1.5634E-003  
  423.50  1.6622E-003  
  424.00  1.7557E-003  
  424.50  1.8858E-003  
  425.00  2.0475E-003  
  425.50  2.1590E-003  
  426.00  2.2997E-003  
  426.50  2.4101E-003  
  427.00  2.5079E-003  
  427.50  2.6381E-003  
  428.00  2.8176E-003  
  428.50  3.0615E-003  
  429.00  3.2981E-003  
  429.50  3.5014E-003  
  430.00  3.6401E-003  
  430.50  3.8186E-003  
  431.00  4.0294E-003  
  431.50  4.2998E-003  
  432.00  4.5633E-003  
  432.50  4.8420E-003  
  433.00  5.1422E-003  
  433.50  5.4879E-003  
  434.00  5.7617E-003  
  434.50  6.0746E-003  
  435.00  6.3359E-003  
  435.50  6.6416E-003  
  436.00  7.0608E-003  
  436.50  7.5166E-003  
  437.00  8.0126E-003  
  437.50  8.5108E-003  
  438.00  8.9795E-003  
  438.50  9.4667E-003  
  439.00  1.0020E-002  
  439.50  1.0585E-002  
  440.00  1.1164E-002  
  440.50  1.1836E-002  
  441.00  1.2586E-002  
  441.50  1.3435E-002  
  442.00  1.4372E-002  
  442.50  1.5236E-002  
  443.00  1.6175E-002  
  443.50  1.7122E-002  
  444.00  1.8159E-002  
  444.50  1.9374E-002  
  445.00  2.0652E-002  
  445.50  2.2043E-002  
  446.00  2.3322E-002  
  446.50  2.4651E-002  
  447.00  2.6044E-002  
  447.50  2.7556E-002  
  448.00  2.9181E-002  
  448.50  3.0696E-002  
  449.00  3.2285E-002  
  449.50  3.3895E-002  
  450.00  3.5370E-002  
  450.50  3.6965E-002  
  451.00  3.8484E-002  
  451.50  3.9985E-002  
  452.00  4.1548E-002  
  452.50  4.2956E-002  
  453.00  4.4310E-002  
  453.50  4.5469E-002  
  454.00  4.6479E-002  
  454.50  4.7298E-002  
  455.00  4.7923E-002  
  455.50  4.8492E-002  
  456.00  4.8910E-002  
  456.50  4.9192E-002  
  457.00  4.9369E-002  
  457.50  4.9133E-002  
  458.00  4.8772E-002  
  458.50  4.8158E-002  
  459.00  4.7446E-002  
  459.50  4.6718E-002  
  460.00  4.5935E-002  
  460.50  4.5090E-002  
  461.00  4.4189E-002  
  461.50  4.3275E-002  
  462.00  4.2261E-002  
  462.50  4.1252E-002  
  463.00  4.0340E-002  
  463.50  3.9388E-002  
  464.00  3.8617E-002  
  464.50  3.7746E-002  
  465.00  3.6889E-002  
  465.50  3.6096E-002  
  466.00  3.5369E-002  
  466.50  3.4887E-002  
  467.00  3.4550E-002  
  467.50  3.4164E-002  
  468.00  3.3816E-002  
  468.50  3.3346E-002  
  469.00  3.2878E-002  
  469.50  3.2554E-002  
  470.00  3.2253E-002  
  470.50  3.2018E-002  
  471.00  3.1664E-002  
  471.50  3.1253E-002  
  472.00  3.0885E-002  
  472.50  3.0517E-002  
  473.00  3.0169E-002  
  473.50  2.9757E-002  
  474.00  2.9298E-002  
  474.50  2.8873E-002  
  475.00  2.8389E-002  
  475.50  2.7812E-002  
  476.00  2.7250E-002  
  476.50  2.6692E-002  
  477.00  2.6218E-002  
  477.50  2.5800E-002  
  478.00  2.5408E-002  
  478.50  2.5012E-002  
  479.00  2.4651E-002  
  479.50  2.4325E-002  
  480.00  2.4013E-002  
  480.50  2.3752E-002  
  481.00  2.3470E-002  
  481.50  2.3251E-002  
  482.00  2.2973E-002  
  482.50  2.2744E-002  
  483.00  2.2597E-002  
  483.50  2.2564E-002  
  484.00  2.2604E-002  
  484.50  2.2578E-002  
  485.00  2.2538E-002  
  485.50  2.2507E-002  
  486.00  2.2542E-002  
  486.50  2.2640E-002  
  487.00  2.2703E-002  
  487.50  2.2724E-002  
  488.00  2.2744E-002  
  488.50  2.2816E-002  
  489.00  2.2937E-002  
  489.50  2.3068E-002  
  490.00  2.3222E-002  
  490.50  2.3374E-002  
  491.00  2.3533E-002  
  491.50  2.3647E-002  
  492.00  2.3744E-002  
  492.50  2.3813E-002  
  493.00  2.3953E-002  
  493.50  2.4139E-002  
  494.00  2.4340E-002  
  494.50  2.4577E-002  
  495.00  2.4806E-002  
  495.50  2.5029E-002  
  496.00  2.5259E-002  
  496.50  2.5421E-002  
  497.00  2.5608E-002  
  497.50  2.5883E-002  
  498.00  2.6165E-002  
  498.50  2.6468E-002  
  499.00  2.6769E-002  
  499.50  2.7033E-002  
  500.00  2.7354E-002  
  500.50  2.7607E-002  
  501.00  2.7878E-002  
  501.50  2.8228E-002  
  502.00  2.8563E-002  
  502.50  2.8971E-002  
  503.00  2.9331E-002  
  503.50  2.9679E-002  
  504.00  2.9959E-002  
  504.50  3.0221E-002  
  505.00  3.0510E-002  
  505.50  3.0875E-002  
  506.00  3.1221E-002  
  506.50  3.1581E-002  
  507.00  3.1946E-002  
  507.50  3.2299E-002  
  508.00  3.2719E-002  
  508.50  3.3011E-002  
  509.00  3.3254E-002  
  509.50  3.3538E-002  
  510.00  3.3883E-002  
  510.50  3.4302E-002  
  511.00  3.4751E-002  
  511.50  3.5073E-002  
  512.00  3.5451E-002  
  512.50  3.5764E-002  
  513.00  3.6094E-002  
  513.50  3.6337E-002  
  514.00  3.6518E-002  
  514.50  3.6758E-002  
  515.00  3.7023E-002  
  515.50  3.7388E-002  
  516.00  3.7775E-002  
  516.50  3.8154E-002  
  517.00  3.8493E-002  
  517.50  3.8813E-002  
  518.00  3.9148E-002  
  518.50  3.9548E-002  
  519.00  3.9875E-002  
  519.50  4.0164E-002  
  520.00  4.0404E-002  
  520.50  4.0744E-002  
  521.00  4.1075E-002  
  521.50  4.1414E-002  
  522.00  4.1731E-002  
  522.50  4.2057E-002  
  523.00  4.2423E-002  
  523.50  4.2796E-002  
  524.00  4.3169E-002  
  524.50  4.3530E-002  
  525.00  4.3961E-002  
  525.50  4.4385E-002  
  526.00  4.4850E-002  
  526.50  4.5169E-002  
  527.00  4.5472E-002  
  527.50  4.5720E-002  
  528.00  4.6038E-002  
  528.50  4.6438E-002  
  529.00  4.6888E-002  
  529.50  4.7303E-002  
  530.00  4.7772E-002  
  530.50  4.8240E-002  
  531.00  4.8708E-002  
  531.50  4.9171E-002  
  532.00  4.9513E-002  
  532.50  4.9820E-002  
  533.00  5.0161E-002  
  533.50  5.0591E-002  
  534.00  5.1147E-002  
  534.50  5.1702E-002  
  535.00  5.2175E-002  
  535.50  5.2636E-002  
  536.00  5.3043E-002  
  536.50  5.3480E-002  
  537.00  5.3923E-002  
  537.50  5.4300E-002  
  538.00  5.4730E-002  
  538.50  5.5193E-002  
  539.00  5.5697E-002  
  539.50  5.6169E-002  
  540.00  5.6635E-002  
  540.50  5.7157E-002  
  541.00  5.7746E-002  
  541.50  5.8335E-002  
  542.00  5.8801E-002  
  542.50  5.9265E-002  
  543.00  5.9723E-002  
  543.50  6.0225E-002  
  544.00  6.0767E-002  
  544.50  6.1324E-002  
  545.00  6.1859E-002  
  545.50  6.2394E-002  
  546.00  6.2852E-002  
  546.50  6.3220E-002  
  547.00  6.3675E-002  
  547.50  6.4090E-002  
  548.00  6.4555E-002  
  548.50  6.5045E-002  
  549.00  6.5606E-002  
  549.50  6.6202E-002  
  550.00  6.6724E-002  
  550.50  6.7316E-002  
  551.00  6.7779E-002  
  551.50  6.8311E-002  
  552.00  6.8705E-002  
  552.50  6.9144E-002  
  553.00  6.9639E-002  
  553.50  7.0145E-002  
  554.00  7.0720E-002  
  554.50  7.1355E-002  
  555.00  7.1879E-002  
  555.50  7.2338E-002  
  556.00  7.2721E-002  
  556.50  7.3144E-002  
  557.00  7.3693E-002  
  557.50  7.4275E-002  
  558.00  7.4919E-002  
  558.50  7.5546E-002  
  559.00  7.6053E-002  
  559.50  7.6595E-002  
  560.00  7.7149E-002  
  560.50  7.7624E-002  
  561.00  7.8201E-002  
  561.50  7.8773E-002  
  562.00  7.9409E-002  
  562.50  7.9998E-002  
  563.00  8.0415E-002  
  563.50  8.0806E-002  
  564.00  8.1189E-002  
  564.50  8.1640E-002  
  565.00  8.2136E-002  
  565.50  8.2724E-002  
  566.00  8.3290E-002  
  566.50  8.3765E-002  
  567.00  8.4181E-002  
  567.50  8.4675E-002  
  568.00  8.5258E-002  
  568.50  8.5752E-002  
  569.00  8.6241E-002  
  569.50  8.6723E-002  
  570.00  8.7243E-002  
  570.50  8.7728E-002  
  571.00  8.8252E-002  
  571.50  8.8699E-002  
  572.00  8.9132E-002  
  572.50  8.9480E-002  
  573.00  8.9892E-002  
  573.50  9.0325E-002  
  574.00  9.0748E-002  
  574.50  9.1158E-002  
  575.00  9.1686E-002  
  575.50  9.2225E-002  
  576.00  9.2842E-002  
  576.50  9.3455E-002  
  577.00  9.4022E-002  
  577.50  9.4562E-002  
  578.00  9.4985E-002  
  578.50  9.5538E-002  
  579.00  9.5883E-002  
  579.50  9.6307E-002  
  580.00  9.6688E-002  
  580.50  9.7228E-002  
  581.00  9.7726E-002  
  581.50  9.8144E-002  
  582.00  9.8412E-002  
  582.50  9.8689E-002  
  583.00  9.9154E-002  
  583.50  9.9630E-002  
  584.00  1.0018E-001  
  584.50  1.0069E-001  
  585.00  1.0119E-001  
  585.50  1.0164E-001  
  586.00  1.0206E-001  
  586.50  1.0236E-001  
  587.00  1.0266E-001  
  587.50  1.0307E-001  
  588.00  1.0358E-001  
  588.50  1.0413E-001  
  589.00  1.0444E-001  
  589.50  1.0469E-001  
  590.00  1.0504E-001  
  590.50  1.0553E-001  
  591.00  1.0595E-001  
  591.50  1.0649E-001  
  592.00  1.0697E-001  
  592.50  1.0748E-001  
  593.00  1.0786E-001  
  593.50  1.0800E-001  
  594.00  1.0826E-001  
  594.50  1.0857E-001  
  595.00  1.0885E-001  
  595.50  1.0911E-001  
  596.00  1.0922E-001  
  596.50  1.0943E-001  
  597.00  1.0965E-001  
  597.50  1.0986E-001  
  598.00  1.1000E-001  
  598.50  1.1014E-001  
  599.00  1.1030E-001  
  599.50  1.1059E-001  
  600.00  1.1075E-001  
  600.50  1.1083E-001  
  601.00  1.1095E-001  
  601.50  1.1104E-001  
  602.00  1.1120E-001  
  602.50  1.1135E-001  
  603.00  1.1151E-001  
  603.50  1.1173E-001  
  604.00  1.1189E-001  
  604.50  1.1195E-001  
  605.00  1.1188E-001  
  605.50  1.1178E-001  
  606.00  1.1182E-001  
  606.50  1.1202E-001  
  607.00  1.1212E-001  
  607.50  1.1200E-001  
  608.00  1.1191E-001  
  608.50  1.1191E-001  
  609.00  1.1205E-001  
  609.50  1.1205E-001  
  610.00  1.1187E-001  
  610.50  1.1154E-001  
  611.00  1.1137E-001  
  611.50  1.1145E-001  
  612.00  1.1168E-001  
  612.50  1.1165E-001  
  613.00  1.1140E-001  
  613.50  1.1105E-001  
  614.00  1.1082E-001  
  614.50  1.1069E-001  
  615.00  1.1046E-001  
  615.50  1.1035E-001  
  616.00  1.1030E-001  
  616.50  1.1021E-001  
  617.00  1.0987E-001  
  617.50  1.0942E-001  
  618.00  1.0908E-001  
  618.50  1.0894E-001  
  619.00  1.0868E-001  
  619.50  1.0849E-001  
  620.00  1.0810E-001  
  620.50  1.0779E-001  
  621.00  1.0749E-001  
  621.50  1.0720E-001  
  622.00  1.0692E-001  
  622.50  1.0659E-001  
  623.00  1.0623E-001  
  623.50  1.0586E-001  
  624.00  1.0546E-001  
  624.50  1.0511E-001  
  625.00  1.0465E-001  
  625.50  1.0410E-001  
  626.00  1.0366E-001  
  626.50  1.0336E-001  
  627.00  1.0305E-001  
  627.50  1.0261E-001  
  628.00  1.0220E-001  
  628.50  1.0172E-001  
  629.00  1.0122E-001  
  629.50  1.0058E-001  
  630.00  1.0012E-001  
  630.50  9.9603E-002  
  631.00  9.9362E-002  
  631.50  9.9147E-002  
  632.00  9.8856E-002  
  632.50  9.8254E-002  
  633.00  9.7674E-002  
  633.50  9.7059E-002  
  634.00  9.6659E-002  
  634.50  9.6219E-002  
  635.00  9.5800E-002  
  635.50  9.5147E-002  
  636.00  9.4556E-002  
  636.50  9.3884E-002  
  637.00  9.3226E-002  
  637.50  9.2540E-002  
  638.00  9.2089E-002  
  638.50  9.1671E-002  
  639.00  9.1169E-002  
  639.50  9.0379E-002  
  640.00  8.9721E-002  
  640.50  8.9026E-002  
  641.00  8.8355E-002  
  641.50  8.7799E-002  
  642.00  8.7241E-002  
  642.50  8.6714E-002  
  643.00  8.6028E-002  
  643.50  8.5485E-002  
  644.00  8.5008E-002  
  644.50  8.4475E-002  
  645.00  8.3712E-002  
  645.50  8.2964E-002  
  646.00  8.2235E-002  
  646.50  8.1548E-002  
  647.00  8.0883E-002  
  647.50  8.0076E-002  
  648.00  7.9293E-002  
  648.50  7.8787E-002  
  649.00  7.8453E-002  
  649.50  7.8038E-002  
  650.00  7.7201E-002  
  650.50  7.6346E-002  
  651.00  7.5516E-002  
  651.50  7.4918E-002  
  652.00  7.4310E-002  
  652.50  7.3636E-002  
  653.00  7.2875E-002  
  653.50  7.1911E-002  
  654.00  7.1258E-002  
  654.50  7.0529E-002  
  655.00  7.0014E-002  
  655.50  6.9407E-002  
  656.00  6.8786E-002  
  656.50  6.8038E-002  
  657.00  6.7239E-002  
  657.50  6.6473E-002  
  658.00  6.5758E-002  
  658.50  6.5105E-002  
  659.00  6.4362E-002  
  659.50  6.3776E-002  
  660.00  6.3150E-002  
  660.50  6.2635E-002  
  661.00  6.2078E-002  
  661.50  6.1441E-002  
  662.00  6.0673E-002  
  662.50  5.9884E-002  
  663.00  5.9212E-002  
  663.50  5.8467E-002  
  664.00  5.7722E-002  
  664.50  5.6925E-002  
  665.00  5.6279E-002  
  665.50  5.5727E-002  
  666.00  5.5205E-002  
  666.50  5.4516E-002  
  667.00  5.3909E-002  
  667.50  5.3232E-002  
  668.00  5.2663E-002  
  668.50  5.2033E-002  
  669.00  5.1366E-002  
  669.50  5.0723E-002  
  670.00  4.9985E-002  
  670.50  4.9237E-002  
  671.00  4.8667E-002  
  671.50  4.8190E-002  
  672.00  4.7660E-002  
  672.50  4.6973E-002  
  673.00  4.6281E-002  
  673.50  4.5758E-002  
  674.00  4.5287E-002  
  674.50  4.4752E-002  
  675.00  4.4239E-002  
  675.50  4.3561E-002  
  676.00  4.2901E-002  
  676.50  4.2108E-002  
  677.00  4.1601E-002  
  677.50  4.1004E-002  
  678.00  4.0479E-002  
  678.50  3.9854E-002  
  679.00  3.9281E-002  
  679.50  3.8738E-002  
  680.00  3.8213E-002  
  680.50  3.7766E-002  
  681.00  3.7351E-002  
  681.50  3.6707E-002  
  682.00  3.5986E-002  
  682.50  3.5468E-002  
  683.00  3.5029E-002  
  683.50  3.4672E-002  
  684.00  3.4131E-002  
  684.50  3.3685E-002  
  685.00  3.3141E-002  
  685.50  3.2667E-002  
  686.00  3.2335E-002  
  686.50  3.2070E-002  
  687.00  3.1590E-002  
  687.50  3.0968E-002  
  688.00  3.0375E-002  
  688.50  2.9959E-002  
  689.00  2.9641E-002  
  689.50  2.9366E-002  
  690.00  2.9114E-002  
  690.50  2.8722E-002  
  691.00  2.8184E-002  
  691.50  2.7588E-002  
  692.00  2.7133E-002  
  692.50  2.6734E-002  
  693.00  2.6335E-002  
  693.50  2.5989E-002  
  694.00  2.5650E-002  
  694.50  2.5353E-002  
  695.00  2.5030E-002  
  695.50  2.4722E-002  
  696.00  2.4419E-002  
  696.50  2.4005E-002  
  697.00  2.3479E-002  
  697.50  2.2975E-002  
  698.00  2.2602E-002  
  698.50  2.2512E-002  
  699.00  2.2340E-002  
  699.50  2.1876E-002  
  700.00  2.1302E-002  
  700.50  2.0883E-002  
  701.00  2.0698E-002  
  701.50  2.0425E-002  
  702.00  2.0061E-002  
  702.50  1.9843E-002  
  703.00  1.9621E-002  
  703.50  1.9476E-002  
  704.00  1.9150E-002  
  704.50  1.8844E-002  
  705.00  1.8559E-002  
  705.50  1.8279E-002  
  706.00  1.7950E-002  
  706.50  1.7643E-002  
  707.00  1.7342E-002  
  707.50  1.7161E-002  
  708.00  1.7024E-002  
  708.50  1.6831E-002  
  709.00  1.6514E-002  
  709.50  1.6140E-002  
  710.00  1.5855E-002  
  710.50  1.5678E-002  
  711.00  1.5436E-002  
  711.50  1.5239E-002  
  712.00  1.4858E-002  
  712.50  1.4644E-002  
  713.00  1.4374E-002  
  713.50  1.4232E-002  
  714.00  1.4033E-002  
  714.50  1.3847E-002  
  715.00  1.3555E-002  
  715.50  1.3226E-002  
  716.00  1.2940E-002  
  716.50  1.2706E-002  
  717.00  1.2512E-002  
  717.50  1.2483E-002  
  718.00  1.2488E-002  
  718.50  1.2373E-002  
  719.00  1.2100E-002  
  719.50  1.1876E-002  
  720.00  1.1701E-002  
  720.50  1.1495E-002  
  721.00  1.1323E-002  
  721.50  1.1107E-002  
  722.00  1.0904E-002  
  722.50  1.0738E-002  
  723.00  1.0654E-002  
  723.50  1.0519E-002  
  724.00  1.0257E-002  
  724.50  1.0078E-002  
  725.00  9.9256E-003  
  725.50  9.7784E-003  
  726.00  9.5843E-003  
  726.50  9.3960E-003  
  727.00  9.3036E-003  
  727.50  9.2618E-003  
  728.00  9.1430E-003  
  728.50  8.9592E-003  
  729.00  8.8242E-003  
  729.50  8.7212E-003  
  730.00  8.6138E-003  
  730.50  8.4662E-003  
  731.00  8.3126E-003  
  731.50  8.1704E-003  
  732.00  8.0498E-003  
  732.50  7.9407E-003  
  733.00  7.7613E-003  
  733.50  7.6538E-003  
  734.00  7.5671E-003  
  734.50  7.5084E-003  
  735.00  7.3900E-003  
  735.50  7.2068E-003  
  736.00  7.0166E-003  
  736.50  6.8667E-003  
  737.00  6.8524E-003  
  737.50  6.7035E-003  
  738.00  6.6087E-003  
  738.50  6.5164E-003  
  739.00  6.4057E-003  
  739.50  6.3602E-003  
  740.00  6.1485E-003  
  740.50  6.1395E-003  
  741.00  6.0571E-003  
  741.50  6.1063E-003  
  742.00  6.0042E-003  
  742.50  5.7493E-003  
  743.00  5.6064E-003  
  743.50  5.5380E-003  
  744.00  5.5087E-003  
  744.50  5.4512E-003  
  745.00  5.3838E-003  
  745.50  5.3027E-003  
  746.00  5.1864E-003  
  746.50  5.1033E-003  
  747.00  5.0032E-003  
  747.50  4.9981E-003  
  748.00  4.9394E-003  
  748.50  4.8672E-003  
  749.00  4.6794E-003  
  749.50  4.5951E-003  
  750.00  4.5661E-003  
  750.50  4.2305E-003  
  751.00  3.8408E-003  
  751.50  3.5962E-003  
  752.00  3.8560E-003  
  752.50  4.0468E-003  
  753.00  4.1539E-003  
  753.50  4.2174E-003  
  754.00  4.1024E-003  
  754.50  4.0478E-003  
  755.00  3.9452E-003  
  755.50  3.8014E-003  
  756.00  3.7828E-003  
  756.50  3.8545E-003  
  757.00  3.8882E-003  
  757.50  3.8931E-003  
  758.00  3.9021E-003  
  758.50  3.7473E-003  
  759.00  3.5587E-003  
  759.50  3.4075E-003  
  760.00  3.3421E-003  
  760.50  3.1522E-003  
  761.00  3.0713E-003  
  761.50  3.1553E-003  
  762.00  3.1170E-003  
  762.50  3.0874E-003  
  763.00  3.0766E-003  
  763.50  3.1538E-003  
  764.00  3.0961E-003  
  764.50  2.9360E-003  
  765.00  2.9529E-003  
  765.50  2.9994E-003  
  766.00  2.9813E-003  
  766.50  2.7474E-003  
  767.00  2.7755E-003  
  767.50  2.8344E-003  
  768.00  2.9349E-003  
  768.50  2.8303E-003  
  769.00  2.7438E-003  
  769.50  2.6018E-003  
  770.00  2.3772E-003  
  770.50  2.2278E-003  
  771.00  2.2349E-003  
  771.50  2.3696E-003  
  772.00  2.3731E-003  
  772.50  2.3109E-003  
  773.00  2.2918E-003  
  773.50  2.2965E-003  
  774.00  2.2712E-003  
  774.50  2.0449E-003  
  775.00  2.0352E-003  
  775.50  1.9132E-003  
  776.00  1.8985E-003  
  776.50  1.9024E-003  
  777.00  1.8952E-003  
  777.50  1.7699E-003  
  778.00  1.6943E-003  
  778.50  1.6126E-003  
  779.00  1.8114E-003  
  779.50  1.8786E-003  
  780.00  1.7762E-003  
  780.50  1.6900E-003  
  781.00  1.8137E-003  
  781.50  1.9548E-003  
  782.00  1.8995E-003  
  782.50  1.7753E-003  
  783.00  1.8599E-003  
  783.50  1.8466E-003  
  784.00  1.6951E-003  
  784.50  1.4622E-003  
  785.00  1.5365E-003  
  785.50  1.6987E-003  
  786.00  1.4764E-003  
  786.50  1.2590E-003  
  787.00  1.2586E-003  
  787.50  1.5226E-003  
  788.00  1.4579E-003  
  788.50  1.4144E-003  
  789.00  1.3132E-003  
  789.50  1.1824E-003  
  790.00  1.0773E-003  
  790.50  1.2031E-003  
  791.00  1.3706E-003  
  791.50  1.5376E-003  
  792.00  1.3843E-003  
  792.50  1.2983E-003  
  793.00  1.2854E-003  
  793.50  1.3485E-003  
  794.00  1.2989E-003  
  794.50  1.1182E-003  
  795.00  8.7862E-004  
  795.50  7.9833E-004  
  796.00  9.3015E-004  
  796.50  1.0617E-003  
  797.00  1.0905E-003  
  797.50  1.0408E-003  
  798.00  9.9224E-004  
  798.50  1.1159E-003  
  799.00  1.3724E-003  
  799.50  1.4602E-003  
  800.00  1.3068E-003  
  800.50  9.1163E-004  
  801.00  5.9116E-004  
  801.50  4.3247E-004  
  802.00  5.2067E-004  
  802.50  6.2146E-004  
  803.00  5.3154E-004  
  803.50  5.7864E-004  
  804.00  8.1607E-004  
  804.50  8.7393E-004  
  805.00  7.2179E-004  
  805.50  4.6404E-004  
  806.00  4.1473E-004  
  806.50  4.4078E-004  
  807.00  6.4328E-004  
  807.50  7.3943E-004  
  808.00  8.0181E-004  
  808.50  7.2767E-004  
  809.00  6.8765E-004  
  809.50  4.8135E-004  
  810.00  4.2430E-004  
  810.50  5.4350E-004  
  811.00  4.9000E-004  
  811.50  4.2779E-004  
  812.00  5.3302E-004  
  812.50  7.8230E-004  
  813.00  8.2925E-004  
  813.50  6.9870E-004  
  814.00  4.4386E-004  
  814.50  2.6899E-004  
  815.00  2.3894E-004  
  815.50  2.9381E-004  
  816.00  4.8130E-004  
  816.50  3.9007E-004  
  817.00  4.4871E-004  
  817.50  4.7315E-004  
  818.00  3.4010E-004  
  818.50  1.6541E-004  
  819.00  0.0000E+000  
  819.50  2.5349E-006  
  820.00  0.0000E+000  
  820.50  0.0000E+000  
  821.00  7.2336E-005  
  821.50  4.3134E-004  
  822.00  7.1945E-004  
  822.50  9.4658E-004  
  823.00  8.5668E-004  
  823.50  6.1914E-004  
  824.00  3.4364E-004  
  824.50  2.0436E-004  
  825.00  1.9947E-004  
  825.50  2.6261E-004  
  826.00  2.5872E-004  
  826.50  1.6139E-004  
  827.00  8.8243E-005  
  827.50  1.7478E-004  
  828.00  5.2616E-004  
  828.50  4.6499E-004  
  829.00  5.3337E-004  
  829.50  4.9257E-004  
  830.00  6.0528E-004  
  830.50  5.6621E-004  
  831.00  3.1635E-004  
  831.50  1.1525E-004  
  832.00  2.1137E-004  
  832.50  3.0812E-004  
  833.00  2.4877E-004  
  833.50  9.4087E-005  
  834.00  2.2474E-004  
  834.50  4.5087E-004  
  835.00  3.5401E-004  
  835.50  2.0702E-004  
  836.00  3.5572E-004  
  836.50  4.4291E-004  
  837.00  6.3724E-004  
  837.50  5.0383E-004  
  838.00  1.1224E-004  
  838.50  0.0000E+000  
  839.00  0.0000E+000  
  839.50  0.0000E+000  
  840.00  0.0000E+000  
  840.50  0.0000E+000  
  841.00  0.0000E+000  
  841.50  0.0000E+000  
  842.00  0.0000E+000  
  842.50  0.0000E+000  
  843.00  0.0000E+000  
  843.50  5.9558E-005  
  844.00  5.1823E-004  
  844.50  1.4264E-004  
  845.00  8.5630E-005  
  845.50  6.2495E-005  
  846.00  0.0000E+000  
  846.50  0.0000E+000  
  847.00  0.0000E+000  
  847.50  0.0000E+000  
  848.00  0.0000E+000  
  848.50  0.0000E+000  
  849.00  0.0000E+000  
  849.50  0.0000E+000  
  850.00  0.0000E+000  
  850.50  0.0000E+000  
  851.00  0.0000E+000  
  851.50  0.0000E+000  
  852.00  0.0000E+000  
  852.50  0.0000E+000  
  853.00  0.0000E+000  
  853.50  0.0000E+000  
  854.00  0.0000E+000  
  854.50  0.0000E+000  
  855.00  0.0000E+000  
  855.50  5.0002E-004  
  856.00  4.9630E-004  
  856.50  1.7965E-005  
  857.00  0.0000E+000  
  857.50  0.0000E+000  
  858.00  0.0000E+000  
  858.50  0.0000E+000  
  859.00  0.0000E+000  
  859.50  0.0000E+000  
  860.00  0.0000E+000  
  860.50  0.0000E+000  
  861.00  0.0000E+000  
  861.50  0.0000E+000  
  862.00  0.0000E+000  
  862.50  0.0000E+000  
  863.00  0.0000E+000  
  863.50  0.0000E+000  
  864.00  0.0000E+000  
  864.50  0.0000E+000  
  865.00  0.0000E+000  
  865.50  0.0000E+000  
  866.00  0.0000E+000  
  866.50  0.0000E+000  
  867.00  0.0000E+000  
  867.50  1.7761E-005  
  868.00  0.0000E+000  
  868.50  0.0000E+000  
  869.00  0.0000E+000  
  869.50  3.9345E-005  
  870.00  8.7221E-005  
  870.50  6.8934E-005  
  871.00  1.1486E-004  
  871.50  2.3591E-004  
  872.00  1.0545E-004  
  872.50  0.0000E+000  
  873.00  0.0000E+000  
  873.50  0.0000E+000  
  874.00  0.0000E+000  
  874.50  0.0000E+000  
  875.00  0.0000E+000  
  875.50  0.0000E+000  
  876.00  0.0000E+000  
  876.50  0.0000E+000  
  877.00  0.0000E+000  
  877.50  0.0000E+000  
  878.00  3.6915E-005  
  878.50  0.0000E+000  
  879.00  0.0000E+000  
  879.50  0.0000E+000  
  880.00  0.0000E+000  
  880.50  0.0000E+000  
  881.00  1.6027E-004  
  881.50  5.4589E-004  
  882.00  6.0580E-004  
  882.50  2.0974E-005  
  883.00  0.0000E+000  
  883.50  0.0000E+000  
  884.00  0.0000E+000  
  884.50  0.0000E+000  
  885.00  0.0000E+000  
  885.50  0.0000E+000  
  886.00  0.0000E+000  
  886.50  0.0000E+000  
  887.00  0.0000E+000  
  887.50  3.7079E-004  
  888.00  3.6935E-004  
  888.50  0.0000E+000  
  889.00  0.0000E+000  
  889.50  0.0000E+000  
  890.00  0.0000E+000  
  890.50  0.0000E+000  
  891.00  0.0000E+000  
  891.50  0.0000E+000  
  892.00  0.0000E+000  
  892.50  0.0000E+000  
  893.00  2.1892E-004  
  893.50  2.6545E-004  
  894.00  6.2477E-004  
  894.50  8.8648E-004  
  895.00  4.5181E-004  
  895.50  0.0000E+000  
  896.00  2.3525E-004  
  896.50  1.6484E-004  
  897.00  0.0000E+000  
  897.50  0.0000E+000  
  898.00  0.0000E+000  
  898.50  0.0000E+000  
  899.00  0.0000E+000  
  899.50  2.9457E-007  
