
# From lspdd.org
# 
# Name: sunsunsun data collected at Sherbrooke, (QC) in september 2013 around midday sun
# Indice spectral Valeur 
# MSI 0.62 
# SLI 0.78 
# IPI 0.86 
# Pourcentage de bleu 30.8 
# Caractéristique Valeur 
# CCT calculée (K) 4403 
# CCT du fabricant (K) ND 
# Tension (V) ND 
# Puissance (W) 
# Efficacité lumineuse (Lum/W) 
#
# Image: '/app/system/img_1s/2629/medium_image1.jpg?1423773292'
# 

  273.00  0.0000E+000  
  273.50  0.0000E+000  
  274.00  0.0000E+000  
  274.50  0.0000E+000  
  275.00  0.0000E+000  
  275.50  0.0000E+000  
  276.00  0.0000E+000  
  276.50  0.0000E+000  
  277.00  0.0000E+000  
  277.50  0.0000E+000  
  278.00  0.0000E+000  
  278.50  0.0000E+000  
  279.00  0.0000E+000  
  279.50  0.0000E+000  
  280.00  0.0000E+000  
  280.50  0.0000E+000  
  281.00  0.0000E+000  
  281.50  0.0000E+000  
  282.00  0.0000E+000  
  282.50  0.0000E+000  
  283.00  0.0000E+000  
  283.50  0.0000E+000  
  284.00  0.0000E+000  
  284.50  0.0000E+000  
  285.00  0.0000E+000  
  285.50  0.0000E+000  
  286.00  0.0000E+000  
  286.50  0.0000E+000  
  287.00  0.0000E+000  
  287.50  0.0000E+000  
  288.00  0.0000E+000  
  288.50  0.0000E+000  
  289.00  0.0000E+000  
  289.50  0.0000E+000  
  290.00  0.0000E+000  
  290.50  0.0000E+000  
  291.00  0.0000E+000  
  291.50  0.0000E+000  
  292.00  0.0000E+000  
  292.50  0.0000E+000  
  293.00  0.0000E+000  
  293.50  0.0000E+000  
  294.00  0.0000E+000  
  294.50  0.0000E+000  
  295.00  0.0000E+000  
  295.50  0.0000E+000  
  296.00  0.0000E+000  
  296.50  0.0000E+000  
  297.00  0.0000E+000  
  297.50  0.0000E+000  
  298.00  0.0000E+000  
  298.50  0.0000E+000  
  299.00  0.0000E+000  
  299.50  0.0000E+000  
  300.00  3.6414E-003  
  300.50  1.0180E-002  
  301.00  1.0704E-002  
  301.50  1.1236E-002  
  302.00  1.1622E-002  
  302.50  1.2125E-002  
  303.00  1.2590E-002  
  303.50  1.2825E-002  
  304.00  1.2597E-002  
  304.50  1.2041E-002  
  305.00  1.1104E-002  
  305.50  1.0529E-002  
  306.00  1.0783E-002  
  306.50  1.0591E-002  
  307.00  1.1224E-002  
  307.50  1.1819E-002  
  308.00  1.2412E-002  
  308.50  1.3811E-002  
  309.00  1.4546E-002  
  309.50  1.5114E-002  
  310.00  1.5758E-002  
  310.50  1.6137E-002  
  311.00  1.7291E-002  
  311.50  1.9646E-002  
  312.00  2.1819E-002  
  312.50  2.3607E-002  
  313.00  2.5338E-002  
  313.50  2.6297E-002  
  314.00  2.6534E-002  
  314.50  2.7495E-002  
  315.00  2.8074E-002  
  315.50  2.9552E-002  
  316.00  3.1781E-002  
  316.50  3.3955E-002  
  317.00  3.5883E-002  
  317.50  3.6848E-002  
  318.00  3.8345E-002  
  318.50  4.0373E-002  
  319.00  4.2764E-002  
  319.50  4.6076E-002  
  320.00  4.8844E-002  
  320.50  5.0346E-002  
  321.00  5.0747E-002  
  321.50  5.0750E-002  
  322.00  5.1365E-002  
  322.50  5.2681E-002  
  323.00  5.4469E-002  
  323.50  5.6536E-002  
  324.00  5.9289E-002  
  324.50  6.3473E-002  
  325.00  6.9759E-002  
  325.50  7.5889E-002  
  326.00  8.0696E-002  
  326.50  8.3605E-002  
  327.00  8.5289E-002  
  327.50  8.7233E-002  
  328.00  9.0119E-002  
  328.50  9.4273E-002  
  329.00  9.8027E-002  
  329.50  9.9630E-002  
  330.00  9.9822E-002  
  330.50  9.9415E-002  
  331.00  1.0006E-001  
  331.50  1.0162E-001  
  332.00  1.0375E-001  
  332.50  1.0499E-001  
  333.00  1.0572E-001  
  333.50  1.0685E-001  
  334.00  1.0705E-001  
  334.50  1.0709E-001  
  335.00  1.0541E-001  
  335.50  1.0359E-001  
  336.00  1.0217E-001  
  336.50  1.0288E-001  
  337.00  1.0574E-001  
  337.50  1.0959E-001  
  338.00  1.1315E-001  
  338.50  1.1561E-001  
  339.00  1.1826E-001  
  339.50  1.2153E-001  
  340.00  1.2535E-001  
  340.50  1.2799E-001  
  341.00  1.2947E-001  
  341.50  1.3095E-001  
  342.00  1.3248E-001  
  342.50  1.3306E-001  
  343.00  1.3216E-001  
  343.50  1.3044E-001  
  344.00  1.2947E-001  
  344.50  1.3103E-001  
  345.00  1.3353E-001  
  345.50  1.3637E-001  
  346.00  1.3875E-001  
  346.50  1.3991E-001  
  347.00  1.4074E-001  
  347.50  1.4090E-001  
  348.00  1.4066E-001  
  348.50  1.4252E-001  
  349.00  1.4612E-001  
  349.50  1.5098E-001  
  350.00  1.5638E-001  
  350.50  1.5862E-001  
  351.00  1.5880E-001  
  351.50  1.5704E-001  
  352.00  1.5719E-001  
  352.50  1.6128E-001  
  353.00  1.6848E-001  
  353.50  1.7591E-001  
  354.00  1.8195E-001  
  354.50  1.8324E-001  
  355.00  1.8161E-001  
  355.50  1.7844E-001  
  356.00  1.7195E-001  
  356.50  1.6528E-001  
  357.00  1.5824E-001  
  357.50  1.5245E-001  
  358.00  1.5202E-001  
  358.50  1.5824E-001  
  359.00  1.6913E-001  
  359.50  1.7885E-001  
  360.00  1.8302E-001  
  360.50  1.8266E-001  
  361.00  1.8273E-001  
  361.50  1.8595E-001  
  362.00  1.9113E-001  
  362.50  1.9587E-001  
  363.00  1.9964E-001  
  363.50  2.0337E-001  
  364.00  2.0971E-001  
  364.50  2.1895E-001  
  365.00  2.2936E-001  
  365.50  2.3939E-001  
  366.00  2.4370E-001  
  366.50  2.4586E-001  
  367.00  2.4418E-001  
  367.50  2.4254E-001  
  368.00  2.4330E-001  
  368.50  2.4708E-001  
  369.00  2.5277E-001  
  369.50  2.5799E-001  
  370.00  2.5994E-001  
  370.50  2.5923E-001  
  371.00  2.5665E-001  
  371.50  2.5210E-001  
  372.00  2.4529E-001  
  372.50  2.3724E-001  
  373.00  2.2950E-001  
  373.50  2.2538E-001  
  374.00  2.2567E-001  
  374.50  2.3144E-001  
  375.00  2.4123E-001  
  375.50  2.5141E-001  
  376.00  2.6321E-001  
  376.50  2.7530E-001  
  377.00  2.8876E-001  
  377.50  2.9966E-001  
  378.00  3.0260E-001  
  378.50  2.9705E-001  
  379.00  2.8908E-001  
  379.50  2.8540E-001  
  380.00  2.8792E-001  
  380.50  2.8835E-001  
  381.00  2.7976E-001  
  381.50  2.6161E-001  
  382.00  2.4107E-001  
  382.50  2.2559E-001  
  383.00  2.2165E-001  
  383.50  2.2918E-001  
  384.00  2.4432E-001  
  384.50  2.6082E-001  
  385.00  2.7250E-001  
  385.50  2.7724E-001  
  386.00  2.7977E-001  
  386.50  2.8169E-001  
  387.00  2.8361E-001  
  387.50  2.8572E-001  
  388.00  2.9050E-001  
  388.50  3.0112E-001  
  389.00  3.1559E-001  
  389.50  3.3206E-001  
  390.00  3.4652E-001  
  390.50  3.5662E-001  
  391.00  3.5665E-001  
  391.50  3.4399E-001  
  392.00  3.1676E-001  
  392.50  2.8312E-001  
  393.00  2.6050E-001  
  393.50  2.6325E-001  
  394.00  2.8879E-001  
  394.50  3.2305E-001  
  395.00  3.4203E-001  
  395.50  3.3763E-001  
  396.00  3.1787E-001  
  396.50  3.0596E-001  
  397.00  3.1789E-001  
  397.50  3.5696E-001  
  398.00  4.0641E-001  
  398.50  4.4991E-001  
  399.00  4.7850E-001  
  399.50  4.9807E-001  
  400.00  5.1126E-001  
  400.50  5.2285E-001  
  401.00  5.3412E-001  
  401.50  5.4235E-001  
  402.00  5.4478E-001  
  402.50  5.4397E-001  
  403.00  5.4114E-001  
  403.50  5.4070E-001  
  404.00  5.4142E-001  
  404.50  5.4050E-001  
  405.00  5.3889E-001  
  405.50  5.3682E-001  
  406.00  5.3634E-001  
  406.50  5.3876E-001  
  407.00  5.4538E-001  
  407.50  5.5690E-001  
  408.00  5.7073E-001  
  408.50  5.7860E-001  
  409.00  5.7877E-001  
  409.50  5.7229E-001  
  410.00  5.7038E-001  
  410.50  5.7916E-001  
  411.00  5.9623E-001  
  411.50  6.1334E-001  
  412.00  6.2225E-001  
  412.50  6.2428E-001  
  413.00  6.2379E-001  
  413.50  6.2635E-001  
  414.00  6.2838E-001  
  414.50  6.2932E-001  
  415.00  6.3086E-001  
  415.50  6.3526E-001  
  416.00  6.4110E-001  
  416.50  6.4214E-001  
  417.00  6.3750E-001  
  417.50  6.3210E-001  
  418.00  6.3038E-001  
  418.50  6.3222E-001  
  419.00  6.3492E-001  
  419.50  6.3980E-001  
  420.00  6.4977E-001  
  420.50  6.6144E-001  
  421.00  6.6758E-001  
  421.50  6.6465E-001  
  422.00  6.5530E-001  
  422.50  6.4778E-001  
  423.00  6.4823E-001  
  423.50  6.5384E-001  
  424.00  6.5916E-001  
  424.50  6.6071E-001  
  425.00  6.6161E-001  
  425.50  6.6050E-001  
  426.00  6.5895E-001  
  426.50  6.5594E-001  
  427.00  6.5342E-001  
  427.50  6.5339E-001  
  428.00  6.5069E-001  
  428.50  6.3608E-001  
  429.00  6.1004E-001  
  429.50  5.8057E-001  
  430.00  5.6343E-001  
  430.50  5.7150E-001  
  431.00  6.0606E-001  
  431.50  6.4782E-001  
  432.00  6.8229E-001  
  432.50  6.9943E-001  
  433.00  7.0160E-001  
  433.50  6.9773E-001  
  434.00  6.9814E-001  
  434.50  7.1098E-001  
  435.00  7.3459E-001  
  435.50  7.6017E-001  
  436.00  7.7648E-001  
  436.50  7.8087E-001  
  437.00  7.7128E-001  
  437.50  7.5523E-001  
  438.00  7.4359E-001  
  438.50  7.4234E-001  
  439.00  7.5033E-001  
  439.50  7.6346E-001  
  440.00  7.7698E-001  
  440.50  7.9379E-001  
  441.00  8.1262E-001  
  441.50  8.3135E-001  
  442.00  8.4505E-001  
  442.50  8.5072E-001  
  443.00  8.5418E-001  
  443.50  8.5721E-001  
  444.00  8.5987E-001  
  444.50  8.5941E-001  
  445.00  8.5579E-001  
  445.50  8.5384E-001  
  446.00  8.6151E-001  
  446.50  8.7762E-001  
  447.00  8.9529E-001  
  447.50  9.0921E-001  
  448.00  9.1629E-001  
  448.50  9.2339E-001  
  449.00  9.3426E-001  
  449.50  9.5050E-001  
  450.00  9.6813E-001  
  450.50  9.8007E-001  
  451.00  9.8285E-001  
  451.50  9.6923E-001  
  452.00  9.4956E-001  
  452.50  9.3391E-001  
  453.00  9.2781E-001  
  453.50  9.3252E-001  
  454.00  9.3940E-001  
  454.50  9.4594E-001  
  455.00  9.5539E-001  
  455.50  9.6859E-001  
  456.00  9.8220E-001  
  456.50  9.9190E-001  
  457.00  9.9377E-001  
  457.50  9.8941E-001  
  458.00  9.8423E-001  
  458.50  9.7921E-001  
  459.00  9.7924E-001  
  459.50  9.8472E-001  
  460.00  9.9547E-001  
  460.50  1.0094E+000  
  461.00  1.0214E+000  
  461.50  1.0283E+000  
  462.00  1.0322E+000  
  462.50  1.0334E+000  
  463.00  1.0312E+000  
  463.50  1.0259E+000  
  464.00  1.0184E+000  
  464.50  1.0152E+000  
  465.00  1.0163E+000  
  465.50  1.0179E+000  
  466.00  1.0156E+000  
  466.50  1.0108E+000  
  467.00  1.0076E+000  
  467.50  1.0118E+000  
  468.00  1.0192E+000  
  468.50  1.0255E+000  
  469.00  1.0246E+000  
  469.50  1.0176E+000  
  470.00  1.0118E+000  
  470.50  1.0145E+000  
  471.00  1.0279E+000  
  471.50  1.0431E+000  
  472.00  1.0508E+000  
  472.50  1.0514E+000  
  473.00  1.0511E+000  
  473.50  1.0556E+000  
  474.00  1.0613E+000  
  474.50  1.0632E+000  
  475.00  1.0582E+000  
  475.50  1.0510E+000  
  476.00  1.0483E+000  
  476.50  1.0555E+000  
  477.00  1.0677E+000  
  477.50  1.0783E+000  
  478.00  1.0832E+000  
  478.50  1.0877E+000  
  479.00  1.0939E+000  
  479.50  1.1004E+000  
  480.00  1.1063E+000  
  480.50  1.1095E+000  
  481.00  1.1148E+000  
  481.50  1.1182E+000  
  482.00  1.1183E+000  
  482.50  1.1144E+000  
  483.00  1.1094E+000  
  483.50  1.1046E+000  
  484.00  1.0971E+000  
  484.50  1.0743E+000  
  485.00  1.0374E+000  
  485.50  9.9919E-001  
  486.00  9.7720E-001  
  486.50  9.8728E-001  
  487.00  1.0155E+000  
  487.50  1.0454E+000  
  488.00  1.0662E+000  
  488.50  1.0812E+000  
  489.00  1.0992E+000  
  489.50  1.1163E+000  
  490.00  1.1267E+000  
  490.50  1.1243E+000  
  491.00  1.1104E+000  
  491.50  1.0975E+000  
  492.00  1.0966E+000  
  492.50  1.1050E+000  
  493.00  1.1194E+000  
  493.50  1.1346E+000  
  494.00  1.1460E+000  
  494.50  1.1541E+000  
  495.00  1.1554E+000  
  495.50  1.1560E+000  
  496.00  1.1575E+000  
  496.50  1.1610E+000  
  497.00  1.1601E+000  
  497.50  1.1529E+000  
  498.00  1.1463E+000  
  498.50  1.1444E+000  
  499.00  1.1457E+000  
  499.50  1.1429E+000  
  500.00  1.1336E+000  
  500.50  1.1201E+000  
  501.00  1.1116E+000  
  501.50  1.1130E+000  
  502.00  1.1231E+000  
  502.50  1.1335E+000  
  503.00  1.1374E+000  
  503.50  1.1387E+000  
  504.00  1.1446E+000  
  504.50  1.1593E+000  
  505.00  1.1800E+000  
  505.50  1.1960E+000  
  506.00  1.2004E+000  
  506.50  1.1950E+000  
  507.00  1.1847E+000  
  507.50  1.1800E+000  
  508.00  1.1869E+000  
  508.50  1.1982E+000  
  509.00  1.2081E+000  
  509.50  1.2124E+000  
  510.00  1.2174E+000  
  510.50  1.2250E+000  
  511.00  1.2342E+000  
  511.50  1.2379E+000  
  512.00  1.2339E+000  
  512.50  1.2249E+000  
  513.00  1.2159E+000  
  513.50  1.2108E+000  
  514.00  1.2122E+000  
  514.50  1.2183E+000  
  515.00  1.2197E+000  
  515.50  1.2044E+000  
  516.00  1.1719E+000  
  516.50  1.1387E+000  
  517.00  1.1231E+000  
  517.50  1.1293E+000  
  518.00  1.1493E+000  
  518.50  1.1756E+000  
  519.00  1.2038E+000  
  519.50  1.2291E+000  
  520.00  1.2477E+000  
  520.50  1.2607E+000  
  521.00  1.2711E+000  
  521.50  1.2772E+000  
  522.00  1.2776E+000  
  522.50  1.2795E+000  
  523.00  1.2889E+000  
  523.50  1.3069E+000  
  524.00  1.3244E+000  
  524.50  1.3319E+000  
  525.00  1.3250E+000  
  525.50  1.3010E+000  
  526.00  1.2699E+000  
  526.50  1.2506E+000  
  527.00  1.2559E+000  
  527.50  1.2856E+000  
  528.00  1.3225E+000  
  528.50  1.3500E+000  
  529.00  1.3653E+000  
  529.50  1.3717E+000  
  530.00  1.3794E+000  
  530.50  1.3877E+000  
  531.00  1.3901E+000  
  531.50  1.3777E+000  
  532.00  1.3586E+000  
  532.50  1.3472E+000  
  533.00  1.3487E+000  
  533.50  1.3607E+000  
  534.00  1.3763E+000  
  534.50  1.3938E+000  
  535.00  1.4099E+000  
  535.50  1.4173E+000  
  536.00  1.4118E+000  
  536.50  1.4015E+000  
  537.00  1.3984E+000  
  537.50  1.4042E+000  
  538.00  1.4105E+000  
  538.50  1.4070E+000  
  539.00  1.3941E+000  
  539.50  1.3779E+000  
  540.00  1.3683E+000  
  540.50  1.3699E+000  
  541.00  1.3810E+000  
  541.50  1.3945E+000  
  542.00  1.4022E+000  
  542.50  1.4067E+000  
  543.00  1.4125E+000  
  543.50  1.4217E+000  
  544.00  1.4324E+000  
  544.50  1.4400E+000  
  545.00  1.4438E+000  
  545.50  1.4454E+000  
  546.00  1.4438E+000  
  546.50  1.4405E+000  
  547.00  1.4359E+000  
  547.50  1.4357E+000  
  548.00  1.4420E+000  
  548.50  1.4521E+000  
  549.00  1.4605E+000  
  549.50  1.4640E+000  
  550.00  1.4638E+000  
  550.50  1.4653E+000  
  551.00  1.4683E+000  
  551.50  1.4724E+000  
  552.00  1.4729E+000  
  552.50  1.4721E+000  
  553.00  1.4738E+000  
  553.50  1.4814E+000  
  554.00  1.4911E+000  
  554.50  1.4974E+000  
  555.00  1.4973E+000  
  555.50  1.4894E+000  
  556.00  1.4790E+000  
  556.50  1.4692E+000  
  557.00  1.4631E+000  
  557.50  1.4578E+000  
  558.00  1.4493E+000  
  558.50  1.4407E+000  
  559.00  1.4372E+000  
  559.50  1.4443E+000  
  560.00  1.4589E+000  
  560.50  1.4701E+000  
  561.00  1.4725E+000  
  561.50  1.4707E+000  
  562.00  1.4708E+000  
  562.50  1.4761E+000  
  563.00  1.4790E+000  
  563.50  1.4790E+000  
  564.00  1.4745E+000  
  564.50  1.4674E+000  
  565.00  1.4572E+000  
  565.50  1.4497E+000  
  566.00  1.4507E+000  
  566.50  1.4586E+000  
  567.00  1.4644E+000  
  567.50  1.4588E+000  
  568.00  1.4465E+000  
  568.50  1.4359E+000  
  569.00  1.4289E+000  
  569.50  1.4229E+000  
  570.00  1.4156E+000  
  570.50  1.4100E+000  
  571.00  1.4132E+000  
  571.50  1.4246E+000  
  572.00  1.4387E+000  
  572.50  1.4478E+000  
  573.00  1.4499E+000  
  573.50  1.4451E+000  
  574.00  1.4380E+000  
  574.50  1.4274E+000  
  575.00  1.4196E+000  
  575.50  1.4169E+000  
  576.00  1.4203E+000  
  576.50  1.4259E+000  
  577.00  1.4277E+000  
  577.50  1.4239E+000  
  578.00  1.4202E+000  
  578.50  1.4223E+000  
  579.00  1.4317E+000  
  579.50  1.4445E+000  
  580.00  1.4562E+000  
  580.50  1.4671E+000  
  581.00  1.4773E+000  
  581.50  1.4890E+000  
  582.00  1.5003E+000  
  582.50  1.5093E+000  
  583.00  1.5149E+000  
  583.50  1.5176E+000  
  584.00  1.5147E+000  
  584.50  1.5059E+000  
  585.00  1.4923E+000  
  585.50  1.4845E+000  
  586.00  1.4838E+000  
  586.50  1.4866E+000  
  587.00  1.4813E+000  
  587.50  1.4564E+000  
  588.00  1.4124E+000  
  588.50  1.3613E+000  
  589.00  1.3304E+000  
  589.50  1.3299E+000  
  590.00  1.3575E+000  
  590.50  1.3867E+000  
  591.00  1.4059E+000  
  591.50  1.4131E+000  
  592.00  1.4188E+000  
  592.50  1.4240E+000  
  593.00  1.4260E+000  
  593.50  1.4201E+000  
  594.00  1.4137E+000  
  594.50  1.4115E+000  
  595.00  1.4180E+000  
  595.50  1.4265E+000  
  596.00  1.4333E+000  
  596.50  1.4371E+000  
  597.00  1.4368E+000  
  597.50  1.4348E+000  
  598.00  1.4336E+000  
  598.50  1.4358E+000  
  599.00  1.4392E+000  
  599.50  1.4409E+000  
  600.00  1.4398E+000  
  600.50  1.4362E+000  
  601.00  1.4325E+000  
  601.50  1.4298E+000  
  602.00  1.4331E+000  
  602.50  1.4428E+000  
  603.00  1.4544E+000  
  603.50  1.4629E+000  
  604.00  1.4666E+000  
  604.50  1.4659E+000  
  605.00  1.4633E+000  
  605.50  1.4591E+000  
  606.00  1.4557E+000  
  606.50  1.4546E+000  
  607.00  1.4527E+000  
  607.50  1.4483E+000  
  608.00  1.4432E+000  
  608.50  1.4375E+000  
  609.00  1.4334E+000  
  609.50  1.4312E+000  
  610.00  1.4302E+000  
  610.50  1.4324E+000  
  611.00  1.4327E+000  
  611.50  1.4316E+000  
  612.00  1.4277E+000  
  612.50  1.4224E+000  
  613.00  1.4156E+000  
  613.50  1.4107E+000  
  614.00  1.4093E+000  
  614.50  1.4103E+000  
  615.00  1.4065E+000  
  615.50  1.3945E+000  
  616.00  1.3814E+000  
  616.50  1.3778E+000  
  617.00  1.3861E+000  
  617.50  1.3997E+000  
  618.00  1.4101E+000  
  618.50  1.4148E+000  
  619.00  1.4168E+000  
  619.50  1.4188E+000  
  620.00  1.4204E+000  
  620.50  1.4185E+000  
  621.00  1.4120E+000  
  621.50  1.4040E+000  
  622.00  1.3968E+000  
  622.50  1.3893E+000  
  623.00  1.3810E+000  
  623.50  1.3731E+000  
  624.00  1.3658E+000  
  624.50  1.3584E+000  
  625.00  1.3543E+000  
  625.50  1.3534E+000  
  626.00  1.3530E+000  
  626.50  1.3445E+000  
  627.00  1.3248E+000  
  627.50  1.3038E+000  
  628.00  1.2906E+000  
  628.50  1.2892E+000  
  629.00  1.2925E+000  
  629.50  1.2952E+000  
  630.00  1.3004E+000  
  630.50  1.3067E+000  
  631.00  1.3112E+000  
  631.50  1.3151E+000  
  632.00  1.3202E+000  
  632.50  1.3293E+000  
  633.00  1.3357E+000  
  633.50  1.3404E+000  
  634.00  1.3449E+000  
  634.50  1.3505E+000  
  635.00  1.3538E+000  
  635.50  1.3533E+000  
  636.00  1.3538E+000  
  636.50  1.3601E+000  
  637.00  1.3703E+000  
  637.50  1.3794E+000  
  638.00  1.3834E+000  
  638.50  1.3832E+000  
  639.00  1.3775E+000  
  639.50  1.3689E+000  
  640.00  1.3612E+000  
  640.50  1.3566E+000  
  641.00  1.3556E+000  
  641.50  1.3579E+000  
  642.00  1.3625E+000  
  642.50  1.3673E+000  
  643.00  1.3683E+000  
  643.50  1.3664E+000  
  644.00  1.3628E+000  
  644.50  1.3586E+000  
  645.00  1.3523E+000  
  645.50  1.3424E+000  
  646.00  1.3300E+000  
  646.50  1.3164E+000  
  647.00  1.3058E+000  
  647.50  1.2987E+000  
  648.00  1.2940E+000  
  648.50  1.2880E+000  
  649.00  1.2839E+000  
  649.50  1.2894E+000  
  650.00  1.3018E+000  
  650.50  1.3115E+000  
  651.00  1.3116E+000  
  651.50  1.3079E+000  
  652.00  1.3104E+000  
  652.50  1.3186E+000  
  653.00  1.3265E+000  
  653.50  1.3259E+000  
  654.00  1.3153E+000  
  654.50  1.2909E+000  
  655.00  1.2481E+000  
  655.50  1.1959E+000  
  656.00  1.1602E+000  
  656.50  1.1634E+000  
  657.00  1.2032E+000  
  657.50  1.2522E+000  
  658.00  1.2891E+000  
  658.50  1.3064E+000  
  659.00  1.3136E+000  
  659.50  1.3192E+000  
  660.00  1.3263E+000  
  660.50  1.3350E+000  
  661.00  1.3409E+000  
  661.50  1.3454E+000  
  662.00  1.3447E+000  
  662.50  1.3404E+000  
  663.00  1.3336E+000  
  663.50  1.3288E+000  
  664.00  1.3282E+000  
  664.50  1.3303E+000  
  665.00  1.3330E+000  
  665.50  1.3320E+000  
  666.00  1.3293E+000  
  666.50  1.3254E+000  
  667.00  1.3224E+000  
  667.50  1.3211E+000  
  668.00  1.3212E+000  
  668.50  1.3228E+000  
  669.00  1.3242E+000  
  669.50  1.3221E+000  
  670.00  1.3172E+000  
  670.50  1.3108E+000  
  671.00  1.3039E+000  
  671.50  1.2973E+000  
  672.00  1.2927E+000  
  672.50  1.2941E+000  
  673.00  1.2977E+000  
  673.50  1.3005E+000  
  674.00  1.2989E+000  
  674.50  1.2971E+000  
  675.00  1.2948E+000  
  675.50  1.2937E+000  
  676.00  1.2914E+000  
  676.50  1.2910E+000  
  677.00  1.2906E+000  
  677.50  1.2902E+000  
  678.00  1.2880E+000  
  678.50  1.2864E+000  
  679.00  1.2856E+000  
  679.50  1.2842E+000  
  680.00  1.2821E+000  
  680.50  1.2781E+000  
  681.00  1.2761E+000  
  681.50  1.2747E+000  
  682.00  1.2761E+000  
  682.50  1.2728E+000  
  683.00  1.2653E+000  
  683.50  1.2559E+000  
  684.00  1.2494E+000  
  684.50  1.2459E+000  
  685.00  1.2383E+000  
  685.50  1.2018E+000  
  686.00  1.1174E+000  
  686.50  9.9812E-001  
  687.00  8.9924E-001  
  687.50  8.6982E-001  
  688.00  8.9509E-001  
  688.50  9.3359E-001  
  689.00  9.5505E-001  
  689.50  9.7112E-001  
  690.00  9.9512E-001  
  690.50  1.0274E+000  
  691.00  1.0591E+000  
  691.50  1.0828E+000  
  692.00  1.0970E+000  
  692.50  1.0994E+000  
  693.00  1.0951E+000  
  693.50  1.0900E+000  
  694.00  1.0892E+000  
  694.50  1.0945E+000  
  695.00  1.1048E+000  
  695.50  1.1208E+000  
  696.00  1.1435E+000  
  696.50  1.1660E+000  
  697.00  1.1793E+000  
  697.50  1.1801E+000  
  698.00  1.1685E+000  
  698.50  1.1521E+000  
  699.00  1.1353E+000  
  699.50  1.1237E+000  
  700.00  1.1184E+000  
  700.50  1.1158E+000  
  701.00  1.1155E+000  
  701.50  1.1157E+000  
  702.00  1.1187E+000  
  702.50  1.1281E+000  
  703.00  1.1411E+000  
  703.50  1.1543E+000  
  704.00  1.1619E+000  
  704.50  1.1657E+000  
  705.00  1.1662E+000  
  705.50  1.1640E+000  
  706.00  1.1633E+000  
  706.50  1.1670E+000  
  707.00  1.1735E+000  
  707.50  1.1796E+000  
  708.00  1.1799E+000  
  708.50  1.1793E+000  
  709.00  1.1781E+000  
  709.50  1.1809E+000  
  710.00  1.1831E+000  
  710.50  1.1825E+000  
  711.00  1.1799E+000  
  711.50  1.1768E+000  
  712.00  1.1752E+000  
  712.50  1.1742E+000  
  713.00  1.1740E+000  
  713.50  1.1736E+000  
  714.00  1.1693E+000  
  714.50  1.1606E+000  
  715.00  1.1451E+000  
  715.50  1.1184E+000  
  716.00  1.0724E+000  
  716.50  1.0086E+000  
  717.00  9.3867E-001  
  717.50  8.8367E-001  
  718.00  8.4640E-001  
  718.50  8.2314E-001  
  719.00  8.0755E-001  
  719.50  8.0591E-001  
  720.00  8.2608E-001  
  720.50  8.7510E-001  
  721.00  9.4078E-001  
  721.50  9.9705E-001  
  722.00  1.0167E+000  
  722.50  1.0004E+000  
  723.00  9.6291E-001  
  723.50  9.2235E-001  
  724.00  8.9766E-001  
  724.50  8.8806E-001  
  725.00  8.9010E-001  
  725.50  8.9681E-001  
  726.00  9.0326E-001  
  726.50  9.0460E-001  
  727.00  9.0207E-001  
  727.50  9.0256E-001  
  728.00  9.0446E-001  
  728.50  9.0650E-001  
  729.00  9.1068E-001  
  729.50  9.1764E-001  
  730.00  9.2471E-001  
  730.50  9.3167E-001  
  731.00  9.4424E-001  
  731.50  9.6807E-001  
  732.00  9.9728E-001  
  732.50  1.0287E+000  
  733.00  1.0545E+000  
  733.50  1.0758E+000  
  734.00  1.0890E+000  
  734.50  1.0931E+000  
  735.00  1.0895E+000  
  735.50  1.0842E+000  
  736.00  1.0770E+000  
  736.50  1.0773E+000  
  737.00  1.0849E+000  
  737.50  1.0977E+000  
  738.00  1.1004E+000  
  738.50  1.0976E+000  
  739.00  1.0953E+000  
  739.50  1.0994E+000  
  740.00  1.1071E+000  
  740.50  1.1106E+000  
  741.00  1.1110E+000  
  741.50  1.1139E+000  
  742.00  1.1212E+000  
  742.50  1.1280E+000  
  743.00  1.1347E+000  
  743.50  1.1394E+000  
  744.00  1.1419E+000  
  744.50  1.1413E+000  
  745.00  1.1415E+000  
  745.50  1.1424E+000  
  746.00  1.1450E+000  
  746.50  1.1463E+000  
  747.00  1.1461E+000  
  747.50  1.1462E+000  
  748.00  1.1462E+000  
  748.50  1.1427E+000  
  749.00  1.1374E+000  
  749.50  1.1331E+000  
  750.00  1.1322E+000  
  750.50  1.1309E+000  
  751.00  1.1290E+000  
  751.50  1.1265E+000  
  752.00  1.1256E+000  
  752.50  1.1284E+000  
  753.00  1.1326E+000  
  753.50  1.1329E+000  
  754.00  1.1304E+000  
  754.50  1.1288E+000  
  755.00  1.1262E+000  
  755.50  1.1222E+000  
  756.00  1.1192E+000  
  756.50  1.1174E+000  
  757.00  1.1114E+000  
  757.50  1.1002E+000  
  758.00  1.0687E+000  
  758.50  9.8048E-001  
  759.00  8.0603E-001  
  759.50  5.6774E-001  
  760.00  3.4870E-001  
  760.50  2.3207E-001  
  761.00  2.2762E-001  
  761.50  2.8289E-001  
  762.00  3.2847E-001  
  762.50  3.3625E-001  
  763.00  3.2437E-001  
  763.50  3.3207E-001  
  764.00  3.7507E-001  
  764.50  4.4617E-001  
  765.00  5.3130E-001  
  765.50  6.1821E-001  
  766.00  7.0439E-001  
  766.50  7.8702E-001  
  767.00  8.6153E-001  
  767.50  9.2464E-001  
  768.00  9.7450E-001  
  768.50  1.0098E+000  
  769.00  1.0321E+000  
  769.50  1.0446E+000  
  770.00  1.0571E+000  
  770.50  1.0717E+000  
  771.00  1.0768E+000  
  771.50  1.0778E+000  
  772.00  1.0800E+000  
  772.50  1.0868E+000  
  773.00  1.0902E+000  
  773.50  1.0876E+000  
  774.00  1.0847E+000  
  774.50  1.0839E+000  
  775.00  1.0876E+000  
  775.50  1.0954E+000  
  776.00  1.0981E+000  
  776.50  1.0962E+000  
  777.00  1.0883E+000  
  777.50  1.0828E+000  
  778.00  1.0794E+000  
  778.50  1.0807E+000  
  779.00  1.0814E+000  
  779.50  1.0792E+000  
  780.00  1.0779E+000  
  780.50  1.0788E+000  
  781.00  1.0815E+000  
  781.50  1.0878E+000  
  782.00  1.0935E+000  
  782.50  1.0882E+000  
  783.00  1.0761E+000  
  783.50  1.0711E+000  
  784.00  1.0743E+000  
  784.50  1.0794E+000  
  785.00  1.0793E+000  
  785.50  1.0739E+000  
  786.00  1.0654E+000  
  786.50  1.0584E+000  
  787.00  1.0522E+000  
  787.50  1.0467E+000  
  788.00  1.0415E+000  
  788.50  1.0304E+000  
  789.00  1.0213E+000  
  789.50  1.0165E+000  
  790.00  1.0174E+000  
  790.50  1.0177E+000  
  791.00  1.0180E+000  
  791.50  1.0134E+000  
  792.00  1.0085E+000  
  792.50  1.0083E+000  
  793.00  1.0110E+000  
  793.50  1.0089E+000  
  794.00  1.0073E+000  
  794.50  1.0102E+000  
  795.00  1.0089E+000  
  795.50  9.9910E-001  
  796.00  9.9230E-001  
  796.50  9.9541E-001  
  797.00  1.0066E+000  
  797.50  1.0181E+000  
  798.00  1.0245E+000  
  798.50  1.0213E+000  
  799.00  1.0137E+000  
  799.50  1.0059E+000  
  800.00  9.9839E-001  
  800.50  9.9645E-001  
  801.00  9.9647E-001  
  801.50  9.9464E-001  
  802.00  9.9031E-001  
  802.50  9.8726E-001  
  803.00  9.8621E-001  
  803.50  9.8578E-001  
  804.00  9.8325E-001  
  804.50  9.8607E-001  
  805.00  9.9785E-001  
  805.50  1.0118E+000  
  806.00  1.0161E+000  
  806.50  1.0122E+000  
  807.00  1.0091E+000  
  807.50  1.0065E+000  
  808.00  9.9596E-001  
  808.50  9.8380E-001  
  809.00  9.7339E-001  
  809.50  9.6765E-001  
  810.00  9.6741E-001  
  810.50  9.6477E-001  
  811.00  9.5314E-001  
  811.50  9.3791E-001  
  812.00  9.1508E-001  
  812.50  8.8823E-001  
  813.00  8.6062E-001  
  813.50  8.3174E-001  
  814.00  8.0488E-001  
  814.50  7.8249E-001  
  815.00  7.6336E-001  
  815.50  7.4162E-001  
  816.00  7.2629E-001  
  816.50  7.2418E-001  
  817.00  7.3319E-001  
  817.50  7.3606E-001  
  818.00  7.3954E-001  
  818.50  7.4884E-001  
  819.00  7.6464E-001  
  819.50  7.8773E-001  
  820.00  8.2474E-001  
  820.50  8.5503E-001  
  821.00  8.6095E-001  
  821.50  8.2272E-001  
  822.00  7.6116E-001  
  822.50  7.1518E-001  
  823.00  7.1533E-001  
  823.50  7.6273E-001  
  824.00  8.2306E-001  
  824.50  8.6261E-001  
  825.00  8.7203E-001  
  825.50  8.7196E-001  
  826.00  8.7266E-001  
  826.50  8.6269E-001  
  827.00  8.4516E-001  
  827.50  8.2374E-001  
  828.00  8.1413E-001  
  828.50  8.1517E-001  
  829.00  8.2027E-001  
  829.50  8.2592E-001  
  830.00  8.3891E-001  
  830.50  8.4862E-001  
  831.00  8.5472E-001  
  831.50  8.5467E-001  
  832.00  8.5771E-001  
  832.50  8.6148E-001  
  833.00  8.6553E-001  
  833.50  8.6164E-001  
  834.00  8.7027E-001  
  834.50  8.9097E-001  
  835.00  9.0800E-001  
  835.50  9.1465E-001  
  836.00  9.2000E-001  
  836.50  9.2628E-001  
  837.00  9.3422E-001  
  837.50  9.3808E-001  
  838.00  9.4623E-001  
  838.50  9.5479E-001  
  839.00  9.5882E-001  
  839.50  9.5539E-001  
  840.00  9.5156E-001  
  840.50  9.5123E-001  
  841.00  9.5807E-001  
  841.50  9.6153E-001  
  842.00  9.5936E-001  
  842.50  9.5692E-001  
  843.00  9.5364E-001  
  843.50  9.5588E-001  
  844.00  9.5853E-001  
  844.50  9.6153E-001  
  845.00  9.6926E-001  
  845.50  9.7023E-001  
  846.00  9.6412E-001  
  846.50  9.6444E-001  
  847.00  9.7280E-001  
  847.50  9.7544E-001  
  848.00  9.6430E-001  
  848.50  9.4625E-001  
  849.00  9.2627E-001  
  849.50  9.1036E-001  
  850.00  9.0538E-001  
  850.50  9.1810E-001  
  851.00  9.3269E-001  
  851.50  9.3553E-001  
  852.00  9.3475E-001  
  852.50  9.1521E-001  
  853.00  8.7683E-001  
  853.50  8.3776E-001  
  854.00  8.2667E-001  
  854.50  8.5156E-001  
  855.00  8.9799E-001  
  855.50  9.3473E-001  
  856.00  9.5289E-001  
  856.50  9.6328E-001  
  857.00  9.6323E-001  
  857.50  9.5848E-001  
  858.00  9.5167E-001  
  858.50  9.5709E-001  
  859.00  9.6292E-001  
  859.50  9.6120E-001  
  860.00  9.5912E-001  
  860.50  9.6070E-001  
  861.00  9.5668E-001  
  861.50  9.5574E-001  
  862.00  9.5735E-001  
  862.50  9.6374E-001  
  863.00  9.6658E-001  
  863.50  9.6173E-001  
  864.00  9.4407E-001  
  864.50  9.2299E-001  
  865.00  8.9513E-001  
  865.50  8.8092E-001  
  866.00  8.7679E-001  
  866.50  8.8795E-001  
  867.00  9.1728E-001  
  867.50  9.3640E-001  
  868.00  9.3588E-001  
  868.50  9.3911E-001  
  869.00  9.5056E-001  
  869.50  9.5452E-001  
  870.00  9.5838E-001  
  870.50  9.5566E-001  
  871.00  9.4972E-001  
  871.50  9.4960E-001  
  872.00  9.5094E-001  
  872.50  9.5374E-001  
  873.00  9.4920E-001  
  873.50  9.4606E-001  
  874.00  9.4676E-001  
  874.50  9.3657E-001  
  875.00  9.2610E-001  
  875.50  9.3551E-001  
  876.00  9.5404E-001  
  876.50  9.5337E-001  
  877.00  9.5176E-001  
  877.50  9.4610E-001  
  878.00  9.4442E-001  
  878.50  9.4307E-001  
  879.00  9.3884E-001  
  879.50  9.3128E-001  
  880.00  9.1879E-001  
  880.50  9.0892E-001  
  881.00  9.2182E-001  
  881.50  9.4254E-001  
  882.00  9.4467E-001  
  882.50  9.3651E-001  
  883.00  9.4360E-001  
  883.50  9.5363E-001  
  884.00  9.5691E-001  
  884.50  9.4703E-001  
  885.00  9.3537E-001  
  885.50  9.2874E-001  
  886.00  9.1919E-001  
  886.50  9.2331E-001  
  887.00  9.3731E-001  
  887.50  9.4910E-001  
  888.00  9.4580E-001  
  888.50  9.2488E-001  
  889.00  9.0848E-001  
  889.50  9.1233E-001  
  890.00  9.1394E-001  
  890.50  9.1182E-001  
  891.00  9.0512E-001  
  891.50  8.7704E-001  
  892.00  8.5213E-001  
  892.50  8.4218E-001  
  893.00  8.3913E-001  
  893.50  8.1862E-001  
  894.00  7.9307E-001  
  894.50  7.5929E-001  
  895.00  7.3466E-001  
  895.50  7.1498E-001  
  896.00  7.0202E-001  
  896.50  6.8894E-001  
  897.00  6.6294E-001  
  897.50  6.3243E-001  
  898.00  6.1138E-001  
  898.50  6.1204E-001  
  899.00  6.1530E-001  
  899.50  1.2113E-002  
